TimeStamp,Delta_TP9,Delta_AF7,Delta_AF8,Delta_TP10,Theta_TP9,Theta_AF7,Theta_AF8,Theta_TP10,Alpha_TP9,Alpha_AF7,Alpha_AF8,Alpha_TP10,Beta_TP9,Beta_AF7,Beta_AF8,Beta_TP10,Gamma_TP9,Gamma_AF7,Gamma_AF8,Gamma_TP10,RAW_TP9,RAW_AF7,RAW_AF8,RAW_TP10,AUX_RIGHT,Accelerometer_X,Accelerometer_Y,Accelerometer_Z,Gyro_X,Gyro_Y,Gyro_Z,HeadBandOn,HSI_TP9,HSI_AF7,HSI_AF8,HSI_TP10,Battery,Elements
2023-09-07 23:45:45.716,0.8113119,0.0946966,0.41349953,0.5531518,0.5267993,0.028634232,0.084601276,0.29104665,0.70761627,0.20276102,0.21342073,0.6754517,0.54451954,0.13307673,0.39690536,0.70156264,0.29739028,-0.20395255,0.2021031,0.24653439,793.7729,782.8938,799.81683,803.8461,694.2491,0.5101318359375,0.05743408203125,0.84759521484375,4.6954345703125,-0.897216796875,-1.5850830078125,1.0,1.0,1.0,1.0,1.0,25.0,
2023-09-07 23:45:45.718,0.8308399,0.12279458,0.41122946,0.57501984,0.53462887,0.06651573,0.08309577,0.31038514,0.70761627,0.20233202,0.20142835,0.6754517,0.5439167,0.1413266,0.42005515,0.72137773,0.30503014,-0.2168705,0.22675596,0.24982208,820.7692,801.4286,788.5348,825.6044,629.7802,0.5101318359375,0.05743408203125,0.84759521484375,4.6954345703125,-0.897216796875,-1.5850830078125,1.0,1.0,1.0,1.0,1.0,25.0,
2023-09-07 23:45:45.728,0.8308399,0.12279458,0.41122946,0.57501984,0.53462887,0.06651573,0.08309577,0.31038514,0.70761627,0.20233202,0.20142835,0.6754517,0.5439167,0.1413266,0.42005515,0.72137773,0.30503014,-0.2168705,0.22675596,0.24982208,809.4872,778.46155,788.1319,801.8315,990.40295,0.5093994140625,0.05633544921875,0.847900390625,4.463653564453125,-1.502838134765625,-0.770111083984375,1.0,1.0,1.0,1.0,1.0,25.0,
2023-09-07 23:45:45.779,0.8308399,0.12279458,0.41122946,0.57501984,0.53462887,0.06651573,0.08309577,0.31038514,0.70761627,0.20233202,0.20142835,0.6754517,0.5439167,0.1413266,0.42005515,0.72137773,0.30503014,-0.2168705,0.22675596,0.24982208,812.71063,792.1612,792.5641,802.6374,668.0586,0.4991455078125,0.05340576171875,0.84747314453125,4.66552734375,-1.2261962890625,-0.58319091796875,1.0,1.0,1.0,1.0,1.0,25.0,
2023-09-07 23:45:45.781,0.85262,0.21308492,0.40014964,0.5955172,0.5408458,0.09357126,0.07497237,0.33287138,0.70761627,0.20233202,0.21123265,0.6754517,0.5491394,0.14619313,0.4617715,0.7425328,0.31197447,-0.21908012,0.2587003,0.2517476,838.9011,815.12823,801.8315,829.6337,751.8681,0.4991455078125,0.05340576171875,0.84747314453125,4.66552734375,-1.2261962890625,-0.58319091796875,1.0,1.0,1.0,1.0,1.0,25.0,
2023-09-07 23:45:45.878,0.85262,0.21308492,0.40014964,0.5955172,0.5408458,0.09357126,0.07497237,0.33287138,0.70761627,0.20233202,0.21123265,0.6754517,0.5491394,0.14619313,0.4617715,0.7425328,0.31197447,-0.21908012,0.2587003,0.2517476,807.0696,793.36993,799.41394,789.7436,645.09155,0.50396728515625,0.056884765625,0.84796142578125,5.084228515625,-2.37762451171875,-0.91217041015625,1.0,1.0,1.0,1.0,1.0,25.0,
2023-09-07 23:45:45.882,0.87801623,0.33640715,0.38026232,0.61659676,0.55243874,0.12659147,0.06787285,0.36158076,0.70761627,0.20233202,0.26884472,0.6754517,0.5637761,0.15561156,0.52388823,0.7632724,0.31702244,-0.20023327,0.30865788,0.25265953,792.1612,803.8461,785.7143,812.71063,903.7729,0.50396728515625,0.056884765625,0.84796142578125,5.084228515625,-2.37762451171875,-0.91217041015625,1.0,1.0,1.0,1.0,1.0,25.0,
2023-09-07 23:45:45.928,0.87801623,0.33640715,0.38026232,0.61659676,0.55243874,0.12659147,0.06787285,0.36158076,0.70761627,0.20233202,0.26884472,0.6754517,0.5637761,0.15561156,0.52388823,0.7632724,0.31702244,-0.20023327,0.30865788,0.25265953,803.8461,807.0696,777.25275,814.7253,765.9707,0.5059814453125,0.05670166015625,0.85296630859375,4.486083984375,-2.699127197265625,-0.2691650390625,1.0,1.0,1.0,1.0,1.0,25.0,
2023-09-07 23:45:45.978,0.87801623,0.33640715,0.38026232,0.61659676,0.55243874,0.12659147,0.06787285,0.36158076,0.70761627,0.20233202,0.26884472,0.6754517,0.5637761,0.15561156,0.52388823,0.7632724,0.31702244,-0.20023327,0.30865788,0.25265953,811.0989,805.05493,805.8608,815.9341,617.6923,0.50347900390625,0.05987548828125,0.865478515625,4.725341796875,-2.429962158203125,-0.7177734375,1.0,1.0,1.0,1.0,1.0,25.0,
2023-09-07 23:45:45.984,0.90330607,0.44436544,0.35451007,0.64169157,0.572359,0.1744138,0.07090175,0.3980934,0.70761627,0.20564069,0.40084216,0.6754517,0.5860254,0.17985632,0.5951996,0.7831613,0.31623855,-0.15137953,0.37961352,0.25052977,814.7253,805.8608,801.02563,815.12823,862.674,0.50347900390625,0.05987548828125,0.865478515625,4.725341796875,-2.429962158203125,-0.7177734375,1.0,1.0,1.0,1.0,1.0,25.0,
2023-09-07 23:45:45.988,0.90330607,0.44436544,0.35451007,0.64169157,0.572359,0.1744138,0.07090175,0.3980934,0.70761627,0.20564069,0.40084216,0.6754517,0.5860254,0.17985632,0.5951996,0.7831613,0.31623855,-0.15137953,0.37961352,0.25052977,792.1612,799.81683,789.7436,789.34064,692.6374,0.52008056640625,0.06304931640625,0.8426513671875,3.431854248046875,-1.98883056640625,-1.368255615234375,1.0,1.0,1.0,1.0,1.0,25.0,
2023-09-07 23:45:46.034,0.90330607,0.44436544,0.35451007,0.64169157,0.572359,0.1744138,0.07090175,0.3980934,0.70761627,0.20564069,0.40084216,0.6754517,0.5860254,0.17985632,0.5951996,0.7831613,0.31623855,-0.15137953,0.37961352,0.25052977,778.86444,792.96704,788.93774,801.4286,699.0842,0.5140380859375,0.0606689453125,0.8507080078125,3.327178955078125,-1.256103515625,-2.332763671875,1.0,1.0,1.0,1.0,1.0,25.0,
2023-09-07 23:45:46.040,0.9279342,0.51399165,0.32929796,0.6717134,0.59850365,0.2286704,0.087108925,0.43848187,0.70761627,0.21927984,0.516807,0.6754517,0.61132693,0.22119746,0.65920466,0.80281013,0.30494708,-0.08055912,0.46147874,0.24075921,792.1612,794.17584,786.52014,794.9817,781.685,0.5140380859375,0.0606689453125,0.8507080078125,3.327178955078125,-1.256103515625,-2.332763671875,1.0,1.0,1.0,1.0,1.0,25.0,
2023-09-07 23:45:46.114,0.9279342,0.51399165,0.32929796,0.6717134,0.59850365,0.2286704,0.087108925,0.43848187,0.70761627,0.21927984,0.516807,0.6754517,0.61132693,0.22119746,0.65920466,0.80281013,0.30494708,-0.08055912,0.46147874,0.24075921,789.34064,805.4579,813.1135,807.0696,683.7729,0.5120849609375,0.0557861328125,0.84356689453125,3.18511962890625,0.351409912109375,-2.489776611328125,1.0,1.0,1.0,1.0,1.0,25.0,
2023-09-07 23:45:46.178,0.9279342,0.51399165,0.32929796,0.6717134,0.59850365,0.2286704,0.087108925,0.43848187,0.70761627,0.21927984,0.516807,0.6754517,0.61132693,0.22119746,0.65920466,0.80281013,0.30494708,-0.08055912,0.46147874,0.24075921,778.86444,782.49084,792.5641,786.52014,775.64105,0.48785400390625,0.0396728515625,0.82781982421875,3.4991455078125,0.142059326171875,-0.545806884765625,1.0,1.0,1.0,1.0,1.0,25.0,
2023-09-07 23:45:46.179,0.9488791,0.5477917,0.29799333,0.70112646,0.62043965,0.27575803,0.10891582,0.4677632,0.70761627,0.22454314,0.56265336,0.6754517,0.634066,0.27005365,0.70582193,0.8199154,0.27838355,-0.00976741,0.54198605,0.22080988,786.1172,774.0293,799.81683,776.4469,707.1429,0.48785400390625,0.0396728515625,0.82781982421875,3.4991455078125,0.142059326171875,-0.545806884765625,1.0,1.0,1.0,1.0,1.0,25.0,
2023-09-07 23:45:46.235,0.9488791,0.5477917,0.29799333,0.70112646,0.62043965,0.27575803,0.10891582,0.4677632,0.70761627,0.22454314,0.56265336,0.6754517,0.634066,0.27005365,0.70582193,0.8199154,0.27838355,-0.00976741,0.54198605,0.22080988,793.7729,789.34064,789.34064,794.9817,691.4286,0.4866943359375,0.04241943359375,0.8680419921875,5.061798095703125,-1.4654541015625,0.426177978515625,1.0,1.0,1.0,1.0,1.0,25.0,
2023-09-07 23:45:46.272,0.9488791,0.5477917,0.29799333,0.70112646,0.62043965,0.27575803,0.10891582,0.4677632,0.70761627,0.22454314,0.56265336,0.6754517,0.634066,0.27005365,0.70582193,0.8199154,0.27838355,-0.00976741,0.54198605,0.22080988,813.5165,803.8461,804.2491,809.0842,732.52747,0.50341796875,0.0577392578125,0.8502197265625,6.018829345703125,-3.81317138671875,0.04486083984375,1.0,1.0,1.0,1.0,1.0,25.0,
2023-09-07 23:45:46.274,0.95728546,0.5626569,0.24964589,0.71807796,0.62261367,0.31056926,0.123692326,0.46751598,0.69689226,0.23857318,0.5650821,0.67178977,0.6483464,0.31546736,0.7373966,0.8287259,0.2348892,0.047552902,0.61396426,0.19704753,812.3077,809.0842,795.78754,837.28937,956.55676,0.50341796875,0.0577392578125,0.8502197265625,6.018829345703125,-3.81317138671875,0.04486083984375,1.0,1.0,1.0,1.0,1.0,25.0,
2023-09-07 23:45:46.377,0.95728546,0.5626569,0.24964589,0.71807796,0.62261367,0.31056926,0.123692326,0.46751598,0.69689226,0.23857318,0.5650821,0.67178977,0.6483464,0.31546736,0.7373966,0.8287259,0.2348892,0.047552902,0.61396426,0.19704753,793.36993,793.7729,811.50183,790.54944,731.7216,0.513427734375,0.0616455078125,0.8668212890625,4.807586669921875,-0.411224365234375,-1.854248046875,1.0,1.0,1.0,1.0,1.0,25.0,
2023-09-07 23:45:46.381,0.9432,0.5759351,0.1842049,0.7106061,0.5909968,0.33627263,0.12681942,0.42489403,0.6486376,0.25294244,0.5650821,0.6332805,0.64969903,0.35363707,0.7638766,0.82575893,0.1800609,0.09304379,0.6746696,0.18457837,811.50183,809.89014,790.14655,807.47253,805.05493,0.513427734375,0.0616455078125,0.8668212890625,4.807586669921875,-0.411224365234375,-1.854248046875,1.0,1.0,1.0,1.0,1.0,25.0,
2023-09-07 23:45:46.424,0.9432,0.5759351,0.1842049,0.7106061,0.5909968,0.33627263,0.12681942,0.42489403,0.6486376,0.25294244,0.5650821,0.6332805,0.64969903,0.35363707,0.7638766,0.82575893,0.1800609,0.09304379,0.6746696,0.18457837,782.8938,789.7436,789.7436,789.34064,680.54944,0.49835205078125,0.06109619140625,0.86566162109375,4.35150146484375,-0.4486083984375,-1.45050048828125,1.0,1.0,1.0,1.0,1.0,25.0,
2023-09-07 23:45:46.465,0.9432,0.5759351,0.1842049,0.7106061,0.5909968,0.33627263,0.12681942,0.42489403,0.6486376,0.25294244,0.5650821,0.6332805,0.64969903,0.35363707,0.7638766,0.82575893,0.1800609,0.09304379,0.6746696,0.18457837,799.81683,798.20514,796.5934,812.3077,981.53845,0.487548828125,0.0531005859375,0.833251953125,4.66552734375,-1.547698974609375,-1.667327880859375,1.0,1.0,1.0,1.0,1.0,25.0,
2023-09-07 23:45:46.469,0.89780533,0.59445006,0.13056214,0.6785558,0.52559644,0.35829788,0.12186308,0.34810406,0.5550216,0.3113971,0.5650821,0.57884216,0.63642913,0.38750502,0.7917854,0.8127821,0.1301302,0.13404867,0.722145,0.19092774,815.5311,809.89014,784.10254,809.4872,683.7729,0.487548828125,0.0531005859375,0.833251953125,4.66552734375,-1.547698974609375,-1.667327880859375,1.0,1.0,1.0,1.0,1.0,25.0,
2023-09-07 23:45:46.517,0.89780533,0.59445006,0.13056214,0.6785558,0.52559644,0.35829788,0.12186308,0.34810406,0.5550216,0.3113971,0.5650821,0.57884216,0.63642913,0.38750502,0.7917854,0.8127821,0.1301302,0.13404867,0.722145,0.19092774,789.7436,803.44324,791.75824,809.0842,786.52014,0.483154296875,0.0572509765625,0.86328125,4.628143310546875,-2.1234130859375,-0.994415283203125,1.0,1.0,1.0,1.0,1.0,25.0,
2023-09-07 23:45:46.550,0.89780533,0.59445006,0.13056214,0.6785558,0.52559644,0.35829788,0.12186308,0.34810406,0.5550216,0.3113971,0.5650821,0.57884216,0.63642913,0.38750502,0.7917854,0.8127821,0.1301302,0.13404867,0.722145,0.19092774,790.14655,803.0403,793.36993,799.011,752.27106,0.48577880859375,0.0546875,0.855224609375,3.790740966796875,-4.14215087890625,-0.67291259765625,1.0,1.0,1.0,1.0,1.0,25.0,
2023-09-07 23:45:46.554,0.89780533,0.61881477,0.10547074,0.6785558,0.52559644,0.3829861,0.114159286,0.34810406,0.5550216,0.39578456,0.5650821,0.57884216,0.63642913,0.42083776,0.81846136,0.8127821,0.1301302,0.172206,0.7553451,0.19092774,809.89014,802.6374,781.685,797.8022,631.79486,0.48577880859375,0.0546875,0.855224609375,3.790740966796875,-4.14215087890625,-0.67291259765625,1.0,1.0,1.0,1.0,1.0,25.0,
2023-09-07 23:45:46.637,0.89780533,0.61881477,0.10547074,0.6785558,0.52559644,0.3829861,0.114159286,0.34810406,0.5550216,0.39578456,0.5650821,0.57884216,0.63642913,0.42083776,0.81846136,0.8127821,0.1301302,0.172206,0.7553451,0.19092774,784.10254,792.96704,793.36993,778.0586,736.55676,0.49798583984375,0.05340576171875,0.85357666015625,5.18890380859375,-5.8917236328125,-0.785064697265625,1.0,1.0,1.0,1.0,1.0,25.0,
2023-09-07 23:45:46.643,0.89780533,0.63808584,0.113560945,0.6785558,0.52559644,0.4100657,0.10111463,0.34810406,0.5550216,0.51458794,0.5697161,0.57884216,0.63642913,0.4526481,0.8384073,0.8127821,0.1301302,0.20398992,0.77590805,0.19092774,774.43225,785.31134,796.99634,781.28204,659.19415,0.49798583984375,0.05340576171875,0.85357666015625,5.18890380859375,-5.8917236328125,-0.785064697265625,1.0,1.0,1.0,1.0,1.0,25.0,
2023-09-07 23:45:46.713,0.89780533,0.63808584,0.113560945,0.6785558,0.52559644,0.4100657,0.10111463,0.34810406,0.5550216,0.51458794,0.5697161,0.57884216,0.63642913,0.4526481,0.8384073,0.8127821,0.1301302,0.20398992,0.77590805,0.19092774,794.57874,786.9231,804.2491,788.5348,644.68866,0.50543212890625,0.058837890625,0.85662841796875,5.330963134765625,-2.923431396484375,-0.575714111328125,1.0,1.0,1.0,1.0,1.0,25.0,
2023-09-07 23:45:46.753,0.89780533,0.63808584,0.113560945,0.6785558,0.52559644,0.4100657,0.10111463,0.34810406,0.5550216,0.51458794,0.5697161,0.57884216,0.63642913,0.4526481,0.8384073,0.8127821,0.1301302,0.20398992,0.77590805,0.19092774,801.4286,792.5641,811.0989,796.5934,775.64105,0.49847412109375,0.056640625,0.85107421875,4.65057373046875,-1.428070068359375,-0.31402587890625,1.0,1.0,1.0,1.0,1.0,25.0,
2023-09-07 23:45:46.792,0.89780533,0.63808584,0.113560945,0.6785558,0.52559644,0.4100657,0.10111463,0.34810406,0.5550216,0.51458794,0.5697161,0.57884216,0.63642913,0.4526481,0.8384073,0.8127821,0.1301302,0.20398992,0.77590805,0.19092774,805.05493,785.31134,784.10254,794.17584,705.9341,0.489013671875,0.05609130859375,0.85382080078125,5.27862548828125,0.785064697265625,-1.114044189453125,1.0,1.0,1.0,1.0,1.0,25.0,
2023-09-07 23:45:46.793,0.89780533,0.64594215,0.1298131,0.6785558,0.52559644,0.43236953,0.07696044,0.34810406,0.5550216,0.59597296,0.57226765,0.57884216,0.63642913,0.47852582,0.85103834,0.8127821,0.1301302,0.23024552,0.7875996,0.19092774,803.8461,782.0879,784.90845,774.0293,688.60803,0.489013671875,0.05609130859375,0.85382080078125,5.27862548828125,0.785064697265625,-1.114044189453125,1.0,1.0,1.0,1.0,1.0,25.0,
2023-09-07 23:45:46.859,0.89780533,0.64594215,0.1298131,0.6785558,0.52559644,0.43236953,0.07696044,0.34810406,0.5550216,0.59597296,0.57226765,0.57884216,0.63642913,0.47852582,0.85103834,0.8127821,0.1301302,0.23024552,0.7875996,0.19092774,809.0842,788.93774,812.71063,808.2784,1115.7142,0.48663330078125,0.0631103515625,0.85968017578125,6.287994384765625,1.45050048828125,-2.729034423828125,1.0,1.0,1.0,1.0,1.0,25.0,
2023-09-07 23:45:46.863,0.89780533,0.6477118,0.13671103,0.6785558,0.52559644,0.4413912,0.0446098,0.34810406,0.5550216,0.6418897,0.57226765,0.57884216,0.63642913,0.49519575,0.86018354,0.8127821,0.1301302,0.2575539,0.7938821,0.19092774,811.0989,809.89014,813.91943,804.65204,684.57874,0.48663330078125,0.0631103515625,0.85968017578125,6.287994384765625,1.45050048828125,-2.729034423828125,1.0,1.0,1.0,1.0,1.0,25.0,
2023-09-07 23:45:46.954,0.89780533,0.6477118,0.13671103,0.6785558,0.52559644,0.4413912,0.0446098,0.34810406,0.5550216,0.6418897,0.57226765,0.57884216,0.63642913,0.49519575,0.86018354,0.8127821,0.1301302,0.2575539,0.7938821,0.19092774,826.0073,812.71063,823.1868,808.68134,759.5238,0.48126220703125,0.067138671875,0.8741455078125,6.063690185546875,-1.0467529296875,-3.028106689453125,1.0,1.0,1.0,1.0,1.0,25.0,
2023-09-07 23:45:46.989,0.89780533,0.6477118,0.13671103,0.6785558,0.52559644,0.4413912,0.0446098,0.34810406,0.5550216,0.6418897,0.57226765,0.57884216,0.63642913,0.49519575,0.86018354,0.8127821,0.1301302,0.2575539,0.7938821,0.19092774,830.84247,833.2601,816.7399,831.2454,698.2784,0.4888916015625,0.070068359375,0.85797119140625,4.0673828125,-4.628143310546875,-1.1663818359375,1.0,1.0,1.0,1.0,1.0,25.0,
2023-09-07 23:45:46.993,0.89780533,0.647099,0.14592591,0.6785558,0.52559644,0.43510666,0.016771045,0.34810406,0.5550216,0.66053796,0.57226765,0.57884216,0.63642913,0.5023073,0.86948824,0.8127821,0.1301302,0.29045463,0.79699147,0.19092774,796.5934,799.011,794.9817,788.5348,727.28937,0.4888916015625,0.070068359375,0.85797119140625,4.0673828125,-4.628143310546875,-1.1663818359375,1.0,1.0,1.0,1.0,1.0,25.0,
2023-09-07 23:45:47.003,0.89780533,0.647099,0.14592591,0.6785558,0.52559644,0.43510666,0.016771045,0.34810406,0.5550216,0.66053796,0.57226765,0.57884216,0.63642913,0.5023073,0.86948824,0.8127821,0.1301302,0.29045463,0.79699147,0.19092774,777.25275,800.6227,793.36993,787.326,753.8828,0.49267578125,0.05938720703125,0.8526611328125,3.835601806640625,-6.1309814453125,-0.067291259765625,1.0,1.0,1.0,1.0,1.0,25.0,
2023-09-07 23:45:47.089,0.89780533,0.647099,0.14592591,0.6785558,0.52559644,0.43510666,0.016771045,0.34810406,0.5550216,0.66053796,0.57226765,0.57884216,0.63642913,0.5023073,0.86948824,0.8127821,0.1301302,0.29045463,0.79699147,0.19092774,789.34064,771.6117,785.7143,768.7912,662.8205,0.502685546875,0.05340576171875,0.85101318359375,5.091705322265625,-6.078643798828125,-0.79254150390625,1.0,1.0,1.0,1.0,1.0,25.0,
2023-09-07 23:45:47.094,0.89780533,0.6432896,0.15508376,0.6417116,0.52559644,0.42018497,0.00086982735,0.44966048,0.5550216,0.66053796,0.57226765,0.5266683,0.63642913,0.503054,0.88019925,0.97128826,0.1301302,0.32524085,0.7984708,0.5989998,794.17584,807.47253,783.2967,801.02563,682.5641,0.502685546875,0.05340576171875,0.85101318359375,5.091705322265625,-6.078643798828125,-0.79254150390625,1.0,1.0,1.0,1.0,1.0,25.0,
2023-09-07 23:45:47.159,0.89780533,0.6432896,0.15508376,0.6417116,0.52559644,0.42018497,0.00086982735,0.44966048,0.5550216,0.66053796,0.57226765,0.5266683,0.63642913,0.503054,0.88019925,0.97128826,0.1301302,0.32524085,0.7984708,0.5989998,810.293,805.05493,779.67035,787.326,713.5897,0.5040283203125,0.06500244140625,0.85784912109375,5.271148681640625,-4.523468017578125,-0.605621337890625,1.0,1.0,1.0,1.0,1.0,25.0,
2023-09-07 23:45:47.164,0.7182946,0.62861705,0.16721958,0.62043554,0.38651702,0.40496013,-0.0064645167,0.4131207,0.4264154,0.66053796,0.57086015,0.5545829,1.0385486,0.5046744,0.8916395,0.9578932,0.7204971,0.356486,0.7986071,0.6170907,801.02563,801.02563,800.6227,807.0696,1134.249,0.5040283203125,0.06500244140625,0.85784912109375,5.271148681640625,-4.523468017578125,-0.605621337890625,1.0,1.0,1.0,1.0,1.0,25.0,
2023-09-07 23:45:47.191,0.7182946,0.62861705,0.16721958,0.62043554,0.38651702,0.40496013,-0.0064645167,0.4131207,0.4264154,0.66053796,0.57086015,0.5545829,1.0385486,0.5046744,0.8916395,0.9578932,0.7204971,0.356486,0.7986071,0.6170907,766.77655,790.9524,780.07324,772.01465,871.53845,0.4986572265625,0.064208984375,0.85186767578125,4.66552734375,-3.671112060546875,-0.800018310546875,1.0,1.0,1.0,1.0,1.0,25.0,
2023-09-07 23:45:47.233,0.7182946,0.62861705,0.16721958,0.62043554,0.38651702,0.40496013,-0.0064645167,0.4131207,0.4264154,0.66053796,0.57086015,0.5545829,1.0385486,0.5046744,0.8916395,0.9578932,0.7204971,0.356486,0.7986071,0.6170907,782.49084,815.5311,784.10254,796.99634,759.12085,0.5029296875,0.06536865234375,0.8514404296875,5.211334228515625,-3.327178955078125,-1.07666015625,1.0,1.0,1.0,1.0,1.0,25.0,
2023-09-07 23:45:47.240,0.69394237,0.5917372,0.20355569,0.58495176,0.33032098,0.39369658,-0.012402287,0.3803947,0.4264154,0.66053796,0.57086015,0.5563412,1.0292435,0.514369,0.90061694,0.96369356,0.7269955,0.38341182,0.79613405,0.6326396,823.1868,799.81683,812.71063,815.5311,776.4469,0.5029296875,0.06536865234375,0.8514404296875,5.211334228515625,-3.327178955078125,-1.07666015625,1.0,1.0,1.0,1.0,1.0,25.0,
2023-09-07 23:45:47.329,0.69394237,0.5917372,0.20355569,0.58495176,0.33032098,0.39369658,-0.012402287,0.3803947,0.4264154,0.66053796,0.57086015,0.5563412,1.0292435,0.514369,0.90061694,0.96369356,0.7269955,0.38341182,0.79613405,0.6326396,820.7692,810.696,809.89014,813.1135,750.65936,0.50225830078125,0.06365966796875,0.85284423828125,4.942169189453125,-0.695343017578125,-2.19818115234375,1.0,1.0,1.0,1.0,1.0,25.0,
2023-09-07 23:45:47.423,0.69394237,0.5917372,0.20355569,0.58495176,0.33032098,0.39369658,-0.012402287,0.3803947,0.4264154,0.66053796,0.57086015,0.5563412,1.0292435,0.514369,0.90061694,0.96369356,0.7269955,0.38341182,0.79613405,0.6326396,820.7692,813.1135,814.3223,826.0073,834.0659,0.497802734375,0.06890869140625,0.8658447265625,4.613189697265625,0.261688232421875,-2.863616943359375,1.0,1.0,1.0,1.0,1.0,25.0,
2023-09-07 23:45:47.424,0.6755203,0.5281438,0.25834283,0.5530481,0.28294337,0.38246477,-0.023618653,0.3526942,0.4264154,0.66053796,0.57086015,0.5563412,1.0381064,0.5318291,0.90246415,0.9840664,0.7517815,0.40722138,0.7883417,0.65749484,827.2161,823.9927,821.5751,827.619,817.9487,0.497802734375,0.06890869140625,0.8658447265625,4.613189697265625,0.261688232421875,-2.863616943359375,1.0,1.0,1.0,1.0,1.0,25.0,
2023-09-07 23:45:47.477,0.6755203,0.5281438,0.25834283,0.5530481,0.28294337,0.38246477,-0.023618653,0.3526942,0.4264154,0.66053796,0.57086015,0.5563412,1.0381064,0.5318291,0.90246415,0.9840664,0.7517815,0.40722138,0.7883417,0.65749484,828.022,811.50183,801.8315,820.7692,720.84247,0.49688720703125,0.0655517578125,0.854736328125,4.568328857421875,0.1495361328125,-2.691650390625,1.0,1.0,1.0,1.0,1.0,25.0,
2023-09-07 23:45:47.488,0.6755203,0.5281438,0.25834283,0.5530481,0.28294337,0.38246477,-0.023618653,0.3526942,0.4264154,0.66053796,0.57086015,0.5563412,1.0381064,0.5318291,0.90246415,0.9840664,0.7517815,0.40722138,0.7883417,0.65749484,811.0989,801.8315,787.326,808.68134,680.14655,0.48309326171875,0.0634765625,0.8626708984375,5.203857421875,-1.016845703125,-2.250518798828125,1.0,1.0,1.0,1.0,1.0,25.0,
2023-09-07 23:45:47.489,0.6548547,0.45554602,0.31385913,0.53063935,0.24231568,0.3665472,-0.046440538,0.3293022,0.4264154,0.66053796,0.57086015,0.5563412,1.0518302,0.54825217,0.89476514,1.0054587,0.7882514,0.42577997,0.77189845,0.68797207,793.36993,801.8315,771.6117,795.38464,686.1905,0.48309326171875,0.0634765625,0.8626708984375,5.203857421875,-1.016845703125,-2.250518798828125,1.0,1.0,1.0,1.0,1.0,25.0,
2023-09-07 23:45:47.559,0.6548547,0.45554602,0.31385913,0.53063935,0.24231568,0.3665472,-0.046440538,0.3293022,0.4264154,0.66053796,0.57086015,0.5563412,1.0518302,0.54825217,0.89476514,1.0054587,0.7882514,0.42577997,0.77189845,0.68797207,788.93774,795.38464,791.3553,800.2198,755.4945,0.48175048828125,0.06463623046875,0.85882568359375,4.927215576171875,-3.491668701171875,-1.069183349609375,1.0,1.0,1.0,1.0,1.0,25.0,
2023-09-07 23:45:47.597,0.6548547,0.45554602,0.31385913,0.53063935,0.24231568,0.3665472,-0.046440538,0.3293022,0.4264154,0.66053796,0.57086015,0.5563412,1.0518302,0.54825217,0.89476514,1.0054587,0.7882514,0.42577997,0.77189845,0.68797207,804.2491,807.8755,780.87915,811.0989,809.4872,0.4873046875,0.06927490234375,0.85943603515625,4.673004150390625,-3.805694580078125,0.067291259765625,1.0,1.0,1.0,1.0,1.0,25.0,
2023-09-07 23:45:47.604,0.6258413,0.40813532,0.35494512,0.5167479,0.2132558,0.35012573,-0.08247327,0.30933207,0.42942464,0.66053796,0.56721085,0.5563412,1.0678433,0.5557173,0.88090587,1.0226396,0.81939524,0.4358635,0.7457041,0.7110003,786.1172,793.7729,797.3993,803.8461,947.6923,0.4873046875,0.06927490234375,0.85943603515625,4.673004150390625,-3.805694580078125,0.067291259765625,1.0,1.0,1.0,1.0,1.0,25.0,
2023-09-07 23:45:47.654,0.6258413,0.40813532,0.35494512,0.5167479,0.2132558,0.35012573,-0.08247327,0.30933207,0.42942464,0.66053796,0.56721085,0.5563412,1.0678433,0.5557173,0.88090587,1.0226396,0.81939524,0.4358635,0.7457041,0.7110003,786.9231,790.14655,782.0879,793.7729,795.78754,0.49072265625,0.06573486328125,0.86328125,4.329071044921875,-4.119720458984375,0.16448974609375,1.0,1.0,1.0,1.0,1.0,25.0,
2023-09-07 23:45:47.658,0.5908126,0.40488502,0.3752814,0.5084738,0.20050198,0.34141335,-0.12249798,0.29395974,0.4397404,0.66341597,0.5273918,0.5563412,1.0884112,0.55418354,0.86763537,1.0392511,0.8358954,0.43835592,0.7116647,0.72032523,792.96704,780.07324,767.98535,800.2198,881.2088,0.49072265625,0.06573486328125,0.86328125,4.329071044921875,-4.119720458984375,0.16448974609375,1.0,1.0,1.0,1.0,1.0,25.0,
2023-09-07 23:45:47.741,0.5908126,0.40488502,0.3752814,0.5084738,0.20050198,0.34141335,-0.12249798,0.29395974,0.4397404,0.66341597,0.5273918,0.5563412,1.0884112,0.55418354,0.86763537,1.0392511,0.8358954,0.43835592,0.7116647,0.72032523,796.5934,797.3993,791.75824,807.47253,1029.8901,0.4970703125,0.06707763671875,0.85894775390625,4.65057373046875,-3.671112060546875,-0.61309814453125,1.0,1.0,1.0,1.0,1.0,25.0,
2023-09-07 23:45:47.774,0.5908126,0.40488502,0.3752814,0.5084738,0.20050198,0.34141335,-0.12249798,0.29395974,0.4397404,0.66341597,0.5273918,0.5563412,1.0884112,0.55418354,0.86763537,1.0392511,0.8358954,0.43835592,0.7116647,0.72032523,804.65204,800.2198,791.75824,792.5641,608.8278,0.494873046875,0.06622314453125,0.862060546875,4.777679443359375,-2.594451904296875,-0.740203857421875,1.0,1.0,1.0,1.0,1.0,25.0,
2023-09-07 23:45:47.780,0.56091547,0.41700274,0.3799999,0.5018822,0.20033105,0.34172967,-0.14993155,0.28641546,0.4397404,0.66341597,0.46473086,0.5597114,1.11039,0.55070055,0.8575478,1.058474,0.8392653,0.43751705,0.67415214,0.7184026,786.9231,788.93774,781.685,797.3993,709.15753,0.494873046875,0.06622314453125,0.862060546875,4.777679443359375,-2.594451904296875,-0.740203857421875,1.0,1.0,1.0,1.0,1.0,25.0,
2023-09-07 23:45:47.829,0.56091547,0.41700274,0.3799999,0.5018822,0.20033105,0.34172967,-0.14993155,0.28641546,0.4397404,0.66341597,0.46473086,0.5597114,1.11039,0.55070055,0.8575478,1.058474,0.8392653,0.43751705,0.67415214,0.7184026,780.07324,794.17584,789.7436,805.4579,734.1392,0.48541259765625,0.06463623046875,0.8541259765625,4.658050537109375,-2.295379638671875,-1.009368896484375,1.0,1.0,1.0,1.0,1.0,25.0,
2023-09-07 23:45:47.901,0.56091547,0.41700274,0.3799999,0.5018822,0.20033105,0.34172967,-0.14993155,0.28641546,0.4397404,0.66341597,0.46473086,0.5597114,1.11039,0.55070055,0.8575478,1.058474,0.8392653,0.43751705,0.67415214,0.7184026,779.67035,781.685,790.54944,778.46155,763.95605,0.48956298828125,0.06121826171875,0.86358642578125,4.6356201171875,-3.63372802734375,-0.515899658203125,1.0,1.0,1.0,1.0,1.0,25.0,
2023-09-07 23:45:47.911,0.54455537,0.41755632,0.37504208,0.50177646,0.2040428,0.3446499,-0.16319811,0.2842797,0.4397404,0.66341597,0.3844045,0.5951176,1.1257253,0.55256456,0.8461176,1.0767994,0.8341869,0.43502015,0.6373127,0.7112252,793.7729,800.6227,796.99634,794.17584,577.8022,0.48956298828125,0.06121826171875,0.86358642578125,4.6356201171875,-3.63372802734375,-0.515899658203125,1.0,1.0,1.0,1.0,1.0,25.0,
2023-09-07 23:45:47.964,0.54455537,0.41755632,0.37504208,0.50177646,0.2040428,0.3446499,-0.16319811,0.2842797,0.4397404,0.66341597,0.3844045,0.5951176,1.1257253,0.55256456,0.8461176,1.0767994,0.8341869,0.43502015,0.6373127,0.7112252,792.1612,793.36993,793.36993,800.2198,969.45056,0.49981689453125,0.0643310546875,0.8515625,5.286102294921875,-3.2000732421875,-0.306549072265625,1.0,1.0,1.0,1.0,1.0,25.0,
2023-09-07 23:45:48.040,0.54455537,0.41755632,0.37504208,0.50177646,0.2040428,0.3446499,-0.16319811,0.2842797,0.4397404,0.66341597,0.3844045,0.5951176,1.1257253,0.55256456,0.8461176,1.0767994,0.8341869,0.43502015,0.6373127,0.7112252,811.0989,802.23444,812.71063,799.41394,854.61536,0.49542236328125,0.06695556640625,0.861083984375,5.106658935546875,-3.63372802734375,0.28411865234375,1.0,1.0,1.0,1.0,1.0,25.0,
2023-09-07 23:45:48.041,0.53786975,0.3987898,0.3611977,0.5054886,0.21116579,0.34574202,-0.17652091,0.28217992,0.4434386,0.66341597,0.35432544,0.6371933,1.1287953,0.56070787,0.8288758,1.0874676,0.8231217,0.42888272,0.60318047,0.7023537,796.1905,805.05493,808.68134,797.3993,701.50183,0.49542236328125,0.06695556640625,0.861083984375,5.106658935546875,-3.63372802734375,0.28411865234375,1.0,1.0,1.0,1.0,1.0,25.0,
2023-09-07 23:45:48.080,0.53786975,0.3987898,0.3611977,0.5054886,0.21116579,0.34574202,-0.17652091,0.28217992,0.4434386,0.66341597,0.35432544,0.6371933,1.1287953,0.56070787,0.8288758,1.0874676,0.8231217,0.42888272,0.60318047,0.7023537,800.2198,790.14655,799.011,791.3553,721.6484,0.4921875,0.06365966796875,0.854248046875,4.538421630859375,-2.7215576171875,0.1495361328125,1.0,1.0,1.0,1.0,1.0,25.0,
2023-09-07 23:45:48.094,0.53786975,0.3987898,0.3611977,0.5054886,0.21116579,0.34574202,-0.17652091,0.28217992,0.4434386,0.66341597,0.35432544,0.6371933,1.1287953,0.56070787,0.8288758,1.0874676,0.8231217,0.42888272,0.60318047,0.7023537,792.96704,801.4286,797.8022,818.3516,708.3516,0.48681640625,0.061767578125,0.85418701171875,4.74029541015625,-2.85614013671875,-0.5084228515625,1.0,1.0,1.0,1.0,1.0,25.0,
2023-09-07 23:45:48.096,0.5388903,0.36716378,0.34447142,0.51331216,0.23864739,0.3430604,-0.20026696,0.28207645,0.48144603,0.66168594,0.3350537,0.6629399,1.120697,0.5705396,0.808447,1.0875939,0.80826193,0.41886,0.5727941,0.6925533,795.78754,813.5165,784.90845,805.05493,733.3333,0.48681640625,0.061767578125,0.85418701171875,4.74029541015625,-2.85614013671875,-0.5084228515625,1.0,1.0,1.0,1.0,1.0,25.0,
2023-09-07 23:45:48.192,0.5388903,0.36716378,0.34447142,0.51331216,0.23864739,0.3430604,-0.20026696,0.28207645,0.48144603,0.66168594,0.3350537,0.6629399,1.120697,0.5705396,0.808447,1.0875939,0.80826193,0.41886,0.5727941,0.6925533,798.60803,803.8461,780.87915,782.8938,653.95605,0.49359130859375,0.06805419921875,0.85968017578125,4.78515625,-2.91595458984375,-0.538330078125,1.0,1.0,1.0,1.0,1.0,25.0,
2023-09-07 23:45:48.195,0.54572225,0.34285906,0.3322452,0.52369857,0.29670045,0.33872977,-0.22401576,0.2928882,0.5338559,0.6529635,0.31377053,0.67328423,1.1060432,0.5771222,0.7922049,1.0791862,0.7939895,0.40872693,0.54711556,0.68295646,790.9524,786.9231,796.1905,792.5641,800.6227,0.49359130859375,0.06805419921875,0.85968017578125,4.78515625,-2.91595458984375,-0.538330078125,1.0,1.0,1.0,1.0,1.0,25.0,
2023-09-07 23:45:48.230,0.54572225,0.34285906,0.3322452,0.52369857,0.29670045,0.33872977,-0.22401576,0.2928882,0.5338559,0.6529635,0.31377053,0.67328423,1.1060432,0.5771222,0.7922049,1.0791862,0.7939895,0.40872693,0.54711556,0.68295646,790.9524,793.36993,782.0879,775.64105,761.9414,0.4912109375,0.0609130859375,0.85992431640625,4.568328857421875,-3.237457275390625,-0.231781005859375,1.0,1.0,1.0,1.0,1.0,25.0,
2023-09-07 23:45:48.270,0.54572225,0.34285906,0.3322452,0.52369857,0.29670045,0.33872977,-0.22401576,0.2928882,0.5338559,0.6529635,0.31377053,0.67328423,1.1060432,0.5771222,0.7922049,1.0791862,0.7939895,0.40872693,0.54711556,0.68295646,792.1612,811.9048,775.64105,797.8022,647.9121,0.49169921875,0.063232421875,0.852783203125,5.121612548828125,-2.669219970703125,-0.8074951171875,1.0,1.0,1.0,1.0,1.0,25.0,
2023-09-07 23:45:48.275,0.5575854,0.3460638,0.33516407,0.54090375,0.36357912,0.33295515,-0.22560425,0.29146397,0.5681734,0.62867296,0.2982273,0.65551114,1.0886209,0.57890743,0.78353673,1.0694001,0.78372145,0.40082276,0.5271404,0.6823665,788.5348,796.99634,782.49084,788.5348,635.0183,0.49169921875,0.063232421875,0.852783203125,5.121612548828125,-2.669219970703125,-0.8074951171875,1.0,1.0,1.0,1.0,1.0,25.0,
2023-09-07 23:45:48.363,0.5575854,0.3460638,0.33516407,0.54090375,0.36357912,0.33295515,-0.22560425,0.29146397,0.5681734,0.62867296,0.2982273,0.65551114,1.0886209,0.57890743,0.78353673,1.0694001,0.78372145,0.40082276,0.5271404,0.6823665,797.3993,790.9524,796.1905,789.7436,963.00366,0.4925537109375,0.0645751953125,0.85418701171875,5.405731201171875,-3.222503662109375,-0.515899658203125,1.0,1.0,1.0,1.0,1.0,25.0,
2023-09-07 23:45:48.378,0.5575854,0.3460638,0.33516407,0.54090375,0.36357912,0.33295515,-0.22560425,0.29146397,0.5681734,0.62867296,0.2982273,0.65551114,1.0886209,0.57890743,0.78353673,1.0694001,0.78372145,0.40082276,0.5271404,0.6823665,814.3223,799.011,793.7729,799.41394,746.2271,0.49566650390625,0.066162109375,0.85003662109375,5.2337646484375,-2.99072265625,0.25421142578125,1.0,1.0,1.0,1.0,1.0,25.0,
2023-09-07 23:45:48.384,0.54449475,0.37380183,0.35425967,0.55755657,0.39154264,0.32763535,-0.20160654,0.29571995,0.5706324,0.55216026,0.27015296,0.64570075,1.0629517,0.57768863,0.7794885,1.0583321,0.78227973,0.39238894,0.5148133,0.6813595,807.8755,804.2491,793.7729,809.4872,722.4542,0.49566650390625,0.066162109375,0.85003662109375,5.2337646484375,-2.99072265625,0.25421142578125,1.0,1.0,1.0,1.0,1.0,25.0,
2023-09-07 23:45:48.479,0.54449475,0.37380183,0.35425967,0.55755657,0.39154264,0.32763535,-0.20160654,0.29571995,0.5706324,0.55216026,0.27015296,0.64570075,1.0629517,0.57768863,0.7794885,1.0583321,0.78227973,0.39238894,0.5148133,0.6813595,794.9817,809.89014,794.17584,800.6227,644.68866,0.49212646484375,0.0634765625,0.857421875,4.90478515625,-2.624359130859375,0.179443359375,1.0,1.0,1.0,1.0,1.0,25.0,
2023-09-07 23:45:48.486,0.54255295,0.40646312,0.37598515,0.573421,0.4119886,0.32470664,-0.16916364,0.29293773,0.5692957,0.42516908,0.24442594,0.6629258,1.039704,0.5762109,0.77567554,1.0484104,0.7778209,0.37939036,0.51062024,0.6752506,781.28204,782.8938,767.5824,805.05493,1156.0073,0.49212646484375,0.0634765625,0.857421875,4.90478515625,-2.624359130859375,0.179443359375,1.0,1.0,1.0,1.0,1.0,25.0,
2023-09-07 23:45:48.576,0.54255295,0.40646312,0.37598515,0.573421,0.4119886,0.32470664,-0.16916364,0.29293773,0.5692957,0.42516908,0.24442594,0.6629258,1.039704,0.5762109,0.77567554,1.0484104,0.7778209,0.37939036,0.51062024,0.6752506,786.52014,787.72894,774.43225,789.7436,869.92676,0.50103759765625,0.0634765625,0.85968017578125,4.732818603515625,-3.36456298828125,-0.49346923828125,1.0,1.0,1.0,1.0,1.0,25.0,
2023-09-07 23:45:48.591,0.54255295,0.40646312,0.37598515,0.573421,0.4119886,0.32470664,-0.16916364,0.29293773,0.5692957,0.42516908,0.24442594,0.6629258,1.039704,0.5762109,0.77567554,1.0484104,0.7778209,0.37939036,0.51062024,0.6752506,801.4286,797.3993,794.57874,796.99634,581.02563,0.49755859375,0.0633544921875,0.85516357421875,4.807586669921875,-2.82623291015625,-0.94207763671875,1.0,1.0,1.0,1.0,1.0,25.0,
2023-09-07 23:45:48.627,0.54255295,0.40646312,0.37598515,0.573421,0.4119886,0.32470664,-0.16916364,0.29293773,0.5692957,0.42516908,0.24442594,0.6629258,1.039704,0.5762109,0.77567554,1.0484104,0.7778209,0.37939036,0.51062024,0.6752506,803.44324,795.38464,794.9817,815.9341,801.8315,0.4862060546875,0.06768798828125,0.8580322265625,4.643096923828125,-2.13836669921875,-0.7177734375,1.0,1.0,1.0,1.0,1.0,25.0,
2023-09-07 23:45:48.629,0.5393004,0.43185964,0.3927697,0.5901161,0.41927063,0.32387558,-0.14046381,0.27909732,0.52680105,0.3650943,0.21421592,0.6641982,1.0223733,0.57547593,0.7682495,1.0394312,0.76920044,0.36203602,0.51150787,0.66437846,794.57874,789.7436,786.9231,813.91943,1021.02563,0.4862060546875,0.06768798828125,0.8580322265625,4.643096923828125,-2.13836669921875,-0.7177734375,1.0,1.0,1.0,1.0,1.0,25.0,
2023-09-07 23:45:48.713,0.5393004,0.43185964,0.3927697,0.5901161,0.41927063,0.32387558,-0.14046381,0.27909732,0.52680105,0.3650943,0.21421592,0.6641982,1.0223733,0.57547593,0.7682495,1.0394312,0.76920044,0.36203602,0.51150787,0.66437846,803.0403,799.41394,791.75824,803.44324,830.0366,0.49603271484375,0.05596923828125,0.852783203125,3.940277099609375,-3.551483154296875,-0.740203857421875,1.0,1.0,1.0,1.0,1.0,25.0,
2023-09-07 23:45:48.716,0.52601206,0.44549513,0.39814594,0.6054686,0.41985866,0.32423893,-0.11858719,0.26136896,0.45135498,0.34522521,0.19584736,0.6639673,1.0070374,0.57345515,0.7533333,1.02756,0.76019293,0.34383097,0.51403636,0.65125024,811.0989,808.2784,813.1135,806.6667,794.17584,0.49603271484375,0.05596923828125,0.852783203125,3.940277099609375,-3.551483154296875,-0.740203857421875,1.0,1.0,1.0,1.0,1.0,25.0,
2023-09-07 23:45:48.753,0.52601206,0.44549513,0.39814594,0.6054686,0.41985866,0.32423893,-0.11858719,0.26136896,0.45135498,0.34522521,0.19584736,0.6639673,1.0070374,0.57345515,0.7533333,1.02756,0.76019293,0.34383097,0.51403636,0.65125024,799.41394,797.3993,788.93774,803.0403,715.6044,0.50592041015625,0.0675048828125,0.85760498046875,5.2337646484375,-4.239349365234375,-0.46356201171875,1.0,1.0,1.0,1.0,1.0,25.0,
2023-09-07 23:45:48.782,0.52601206,0.44549513,0.39814594,0.6054686,0.41985866,0.32423893,-0.11858719,0.26136896,0.45135498,0.34522521,0.19584736,0.6639673,1.0070374,0.57345515,0.7533333,1.02756,0.76019293,0.34383097,0.51403636,0.65125024,821.978,789.34064,788.1319,822.7839,1282.5275,0.50433349609375,0.0677490234375,0.85772705078125,4.418792724609375,-2.295379638671875,0.201873779296875,1.0,1.0,1.0,1.0,1.0,25.0,
2023-09-07 23:45:48.785,0.5053441,0.4511105,0.38010216,0.61564857,0.42181242,0.3230937,-0.10341894,0.24692738,0.41381887,0.3422278,0.17214711,0.6559595,0.98658115,0.56687003,0.728893,1.0074347,0.75016665,0.32515806,0.51650405,0.63440853,767.98535,775.64105,794.57874,786.52014,680.9524,0.50433349609375,0.0677490234375,0.85772705078125,4.418792724609375,-2.295379638671875,0.201873779296875,1.0,1.0,1.0,1.0,1.0,25.0,
2023-09-07 23:45:48.883,0.5053441,0.4511105,0.38010216,0.61564857,0.42181242,0.3230937,-0.10341894,0.24692738,0.41381887,0.3422278,0.17214711,0.6559595,0.98658115,0.56687003,0.728893,1.0074347,0.75016665,0.32515806,0.51650405,0.63440853,790.14655,789.34064,794.17584,795.78754,719.6337,0.49383544921875,0.063720703125,0.850341796875,4.299163818359375,-1.9439697265625,0.396270751953125,1.0,1.0,1.0,1.0,1.0,25.0,
2023-09-07 23:45:48.916,0.5053441,0.4511105,0.38010216,0.61564857,0.42181242,0.3230937,-0.10341894,0.24692738,0.41381887,0.3422278,0.17214711,0.6559595,0.98658115,0.56687003,0.728893,1.0074347,0.75016665,0.32515806,0.51650405,0.63440853,797.8022,789.7436,801.4286,807.47253,765.16486,0.489990234375,0.0625,0.85479736328125,4.8748779296875,-3.3197021484375,-0.179443359375,1.0,1.0,1.0,1.0,1.0,25.0,
2023-09-07 23:45:48.923,0.48507532,0.44972923,0.33873072,0.6215343,0.42762524,0.3176521,-0.094012335,0.23577398,0.41906843,0.3422278,0.15480445,0.6479514,0.95816356,0.55489635,0.6981779,0.9772078,0.73191327,0.3019534,0.51730794,0.60842496,813.91943,798.20514,789.34064,816.337,835.2747,0.489990234375,0.0625,0.85479736328125,4.8748779296875,-3.3197021484375,-0.179443359375,1.0,1.0,1.0,1.0,1.0,25.0,
2023-09-07 23:45:48.973,0.48507532,0.44972923,0.33873072,0.6215343,0.42762524,0.3176521,-0.094012335,0.23577398,0.41906843,0.3422278,0.15480445,0.6479514,0.95816356,0.55489635,0.6981779,0.9772078,0.73191327,0.3019534,0.51730794,0.60842496,799.41394,789.7436,774.0293,798.20514,716.0073,0.501220703125,0.06756591796875,0.8524169921875,4.85992431640625,-3.237457275390625,-1.0467529296875,1.0,1.0,1.0,1.0,1.0,25.0,
2023-09-07 23:45:48.978,0.46766227,0.43441936,0.2826589,0.6229181,0.43519852,0.3063687,-0.089146964,0.22368939,0.437027,0.3422278,0.14391322,0.66075665,0.9235749,0.5414618,0.669924,0.9409454,0.70220184,0.27366576,0.5166876,0.571792,796.5934,803.44324,784.90845,804.2491,853.4066,0.501220703125,0.06756591796875,0.8524169921875,4.85992431640625,-3.237457275390625,-1.0467529296875,1.0,1.0,1.0,1.0,1.0,25.0,
2023-09-07 23:45:49.062,0.46766227,0.43441936,0.2826589,0.6229181,0.43519852,0.3063687,-0.089146964,0.22368939,0.437027,0.3422278,0.14391322,0.66075665,0.9235749,0.5414618,0.669924,0.9409454,0.70220184,0.27366576,0.5166876,0.571792,795.38464,802.6374,780.87915,803.8461,778.86444,0.5,0.070556640625,0.8643798828125,4.77020263671875,-2.73651123046875,-0.485992431640625,1.0,1.0,1.0,1.0,1.0,25.0,
2023-09-07 23:45:49.071,0.46766227,0.43441936,0.2826589,0.6229181,0.43519852,0.3063687,-0.089146964,0.22368939,0.437027,0.3422278,0.14391322,0.66075665,0.9235749,0.5414618,0.669924,0.9409454,0.70220184,0.27366576,0.5166876,0.571792,811.9048,801.02563,802.6374,813.1135,945.6777,0.49884033203125,0.06072998046875,0.853759765625,4.35150146484375,-0.0,-0.052337646484375,1.0,1.0,1.0,1.0,1.0,25.0,
2023-09-07 23:45:49.079,0.45966375,0.40116236,0.23291105,0.620805,0.44058925,0.28423506,-0.08862289,0.20924856,0.46883413,0.3476302,0.17662609,0.6832186,0.882696,0.53046566,0.6511817,0.9032237,0.6679184,0.24727641,0.51623696,0.5317662,790.14655,794.9817,788.5348,795.78754,727.6923,0.49884033203125,0.06072998046875,0.853759765625,4.35150146484375,-0.0,-0.052337646484375,1.0,1.0,1.0,1.0,1.0,25.0,
2023-09-07 23:45:49.125,0.45966375,0.40116236,0.23291105,0.620805,0.44058925,0.28423506,-0.08862289,0.20924856,0.46883413,0.3476302,0.17662609,0.6832186,0.882696,0.53046566,0.6511817,0.9032237,0.6679184,0.24727641,0.51623696,0.5317662,805.4579,790.54944,788.93774,809.0842,1098.7913,0.49420166015625,0.05859375,0.8514404296875,5.1141357421875,-2.10845947265625,-0.261688232421875,1.0,1.0,1.0,1.0,1.0,25.0,
2023-09-07 23:45:49.265,0.45966375,0.40116236,0.23291105,0.620805,0.44058925,0.28423506,-0.08862289,0.20924856,0.46883413,0.3476302,0.17662609,0.6832186,0.882696,0.53046566,0.6511817,0.9032237,0.6679184,0.24727641,0.51623696,0.5317662,796.1905,797.3993,794.57874,793.7729,706.7399,0.49224853515625,0.066162109375,0.85406494140625,5.585174560546875,-2.37762451171875,-0.157012939453125,1.0,1.0,1.0,1.0,1.0,25.0,
2023-09-07 23:45:49.267,0.4582265,0.35529798,0.21251498,0.6179179,0.44042167,0.24773142,-0.09720128,0.19157168,0.5007596,0.3424858,0.20970036,0.69427365,0.8306225,0.52116716,0.64240307,0.86352503,0.64048684,0.23053692,0.5155536,0.4988403,793.36993,792.5641,800.2198,781.28204,646.7033,0.49224853515625,0.066162109375,0.85406494140625,5.585174560546875,-2.37762451171875,-0.157012939453125,1.0,1.0,1.0,1.0,1.0,25.0,
2023-09-07 23:45:49.284,0.4582265,0.35529798,0.21251498,0.6179179,0.44042167,0.24773142,-0.09720128,0.19157168,0.5007596,0.3424858,0.20970036,0.69427365,0.8306225,0.52116716,0.64240307,0.86352503,0.64048684,0.23053692,0.5155536,0.4988403,721.2454,788.1319,803.44324,729.304,609.6337,0.49554443359375,0.0682373046875,0.8543701171875,4.8748779296875,-2.908477783203125,0.844879150390625,1.0,1.0,1.0,1.0,1.0,25.0,
2023-09-07 23:45:49.332,0.4582265,0.35529798,0.21251498,0.6179179,0.44042167,0.24773142,-0.09720128,0.19157168,0.5007596,0.3424858,0.20970036,0.69427365,0.8306225,0.52116716,0.64240307,0.86352503,0.64048684,0.23053692,0.5155536,0.4988403,743.8095,789.34064,776.4469,738.1685,672.0879,0.49261474609375,0.061279296875,0.85888671875,4.762725830078125,-3.596343994140625,-0.037384033203125,1.0,1.0,1.0,1.0,1.0,25.0,
2023-09-07 23:45:49.334,0.47483408,0.31953812,0.21460891,0.62868845,0.45346117,0.20027836,-0.12190996,0.19076227,0.5007596,0.34728512,0.20970036,0.69427365,0.77262086,0.5078069,0.6394472,0.82308275,0.61852425,0.22187406,0.5092365,0.48032373,754.68866,794.9817,796.99634,747.03296,776.04395,0.49261474609375,0.061279296875,0.85888671875,4.762725830078125,-3.596343994140625,-0.037384033203125,1.0,1.0,1.0,1.0,1.0,25.0,
2023-09-07 23:45:49.368,0.47483408,0.31953812,0.21460891,0.62868845,0.45346117,0.20027836,-0.12190996,0.19076227,0.5007596,0.34728512,0.20970036,0.69427365,0.77262086,0.5078069,0.6394472,0.82308275,0.61852425,0.22187406,0.5092365,0.48032373,809.0842,807.0696,802.6374,798.20514,759.5238,0.5,0.06121826171875,0.85809326171875,4.3963623046875,-2.79632568359375,-0.635528564453125,1.0,1.0,1.0,1.0,1.0,25.0,
2023-09-07 23:45:49.413,0.47483408,0.31953812,0.21460891,0.62868845,0.45346117,0.20027836,-0.12190996,0.19076227,0.5007596,0.34728512,0.20970036,0.69427365,0.77262086,0.5078069,0.6394472,0.82308275,0.61852425,0.22187406,0.5092365,0.48032373,812.71063,810.293,795.78754,815.12823,673.2967,0.49627685546875,0.06146240234375,0.8531494140625,4.32159423828125,-2.4224853515625,-0.994415283203125,1.0,1.0,1.0,1.0,1.0,25.0,
2023-09-07 23:45:49.416,0.48397762,0.31608725,0.22197816,0.63713795,0.46626547,0.15402217,-0.16398922,0.18494348,0.5007596,0.40597096,0.20100294,0.69427365,0.698604,0.4854871,0.63895077,0.7657113,0.6032304,0.21426593,0.49196884,0.46710125,826.4103,805.4579,794.57874,817.5458,786.52014,0.49627685546875,0.06146240234375,0.8531494140625,4.32159423828125,-2.4224853515625,-0.994415283203125,1.0,1.0,1.0,1.0,1.0,25.0,
2023-09-07 23:45:49.491,0.48397762,0.31608725,0.22197816,0.63713795,0.46626547,0.15402217,-0.16398922,0.18494348,0.5007596,0.40597096,0.20100294,0.69427365,0.698604,0.4854871,0.63895077,0.7657113,0.6032304,0.21426593,0.49196884,0.46710125,812.3077,806.26373,793.36993,820.7692,686.99634,0.49151611328125,0.06201171875,0.8519287109375,4.127197265625,-2.280426025390625,-1.532745361328125,1.0,1.0,1.0,1.0,1.0,25.0,
2023-09-07 23:45:49.496,0.4861823,0.34165573,0.22322264,0.6438206,0.47856727,0.11941485,-0.21069372,0.17844637,0.5007596,0.4582941,0.19242197,0.692608,0.6236854,0.45378193,0.6393197,0.6990051,0.5963656,0.20570387,0.4671751,0.45635745,816.7399,797.8022,795.78754,801.8315,806.6667,0.49151611328125,0.06201171875,0.8519287109375,4.127197265625,-2.280426025390625,-1.532745361328125,1.0,1.0,1.0,1.0,1.0,25.0,
2023-09-07 23:45:49.529,0.4861823,0.34165573,0.22322264,0.6438206,0.47856727,0.11941485,-0.21069372,0.17844637,0.5007596,0.4582941,0.19242197,0.692608,0.6236854,0.45378193,0.6393197,0.6990051,0.5963656,0.20570387,0.4671751,0.45635745,805.05493,795.38464,803.8461,803.44324,709.9634,0.49566650390625,0.06024169921875,0.85601806640625,4.673004150390625,-3.192596435546875,-1.203765869140625,1.0,1.0,1.0,1.0,1.0,25.0,
2023-09-07 23:45:49.615,0.4861823,0.34165573,0.22322264,0.6438206,0.47856727,0.11941485,-0.21069372,0.17844637,0.5007596,0.4582941,0.19242197,0.692608,0.6236854,0.45378193,0.6393197,0.6990051,0.5963656,0.20570387,0.4671751,0.45635745,793.7729,788.1319,799.81683,798.60803,808.2784,0.5003662109375,0.06475830078125,0.85491943359375,4.9346923828125,-2.99072265625,-0.97198486328125,1.0,1.0,1.0,1.0,1.0,25.0,
2023-09-07 23:45:49.621,0.47978538,0.3813946,0.21490228,0.64726955,0.47860503,0.09576345,-0.24160579,0.1678331,0.49832147,0.49578735,0.2027887,0.6866972,0.56314814,0.4153082,0.63904387,0.6373428,0.5983934,0.19953167,0.44646978,0.44792417,811.50183,811.50183,807.0696,821.5751,711.1722,0.5003662109375,0.06475830078125,0.85491943359375,4.9346923828125,-2.99072265625,-0.97198486328125,1.0,1.0,1.0,1.0,1.0,25.0,
2023-09-07 23:45:49.679,0.47978538,0.3813946,0.21490228,0.64726955,0.47860503,0.09576345,-0.24160579,0.1678331,0.49832147,0.49578735,0.2027887,0.6866972,0.56314814,0.4153082,0.63904387,0.6373428,0.5983934,0.19953167,0.44646978,0.44792417,803.0403,792.5641,796.1905,788.93774,709.15753,0.49853515625,0.06976318359375,0.8585205078125,4.83001708984375,-2.332763671875,-0.471038818359375,1.0,1.0,1.0,1.0,1.0,25.0,
2023-09-07 23:45:49.713,0.47978538,0.3813946,0.21490228,0.64726955,0.47860503,0.09576345,-0.24160579,0.1678331,0.49832147,0.49578735,0.2027887,0.6866972,0.56314814,0.4153082,0.63904387,0.6373428,0.5983934,0.19953167,0.44646978,0.44792417,797.3993,801.4286,786.52014,808.68134,632.6007,0.49542236328125,0.0665283203125,0.85528564453125,4.254302978515625,-2.40753173828125,-0.680389404296875,1.0,1.0,1.0,1.0,1.0,25.0,
2023-09-07 23:45:49.722,0.4620507,0.4280421,0.19977024,0.6472138,0.4457886,0.07356117,-0.24939924,0.13196148,0.48893142,0.5415295,0.21040486,0.68158877,0.52059585,0.3746405,0.6360561,0.5911515,0.6032523,0.19670527,0.43768477,0.44000825,795.78754,800.2198,802.23444,799.011,695.8608,0.49542236328125,0.0665283203125,0.85528564453125,4.254302978515625,-2.40753173828125,-0.680389404296875,1.0,1.0,1.0,1.0,1.0,25.0,
2023-09-07 23:45:49.779,0.4620507,0.4280421,0.19977024,0.6472138,0.4457886,0.07356117,-0.24939924,0.13196148,0.48893142,0.5415295,0.21040486,0.68158877,0.52059585,0.3746405,0.6360561,0.5911515,0.6032523,0.19670527,0.43768477,0.44000825,798.20514,797.3993,776.8498,801.8315,630.989,0.48773193359375,0.06451416015625,0.85736083984375,4.0972900390625,-2.400054931640625,-1.532745361328125,1.0,1.0,1.0,1.0,1.0,25.0,
2023-09-07 23:45:49.869,0.4620507,0.4280421,0.19977024,0.6472138,0.4457886,0.07356117,-0.24939924,0.13196148,0.48893142,0.5415295,0.21040486,0.68158877,0.52059585,0.3746405,0.6360561,0.5911515,0.6032523,0.19670527,0.43768477,0.44000825,823.1868,792.96704,785.31134,817.1429,903.7729,0.49334716796875,0.06378173828125,0.8570556640625,4.32159423828125,-2.609405517578125,-2.190704345703125,1.0,1.0,1.0,1.0,1.0,25.0,
2023-09-07 23:45:49.871,0.4260422,0.46873775,0.17711219,0.6397296,0.36770204,0.05278192,-0.250554,0.04961993,0.45648682,0.5415295,0.21171854,0.6694565,0.49171206,0.33932146,0.629916,0.5581142,0.6028812,0.19456363,0.43809786,0.4300072,819.5604,797.3993,788.1319,829.2308,1095.1648,0.49334716796875,0.06378173828125,0.8570556640625,4.32159423828125,-2.609405517578125,-2.190704345703125,1.0,1.0,1.0,1.0,1.0,25.0,
2023-09-07 23:45:49.899,0.4260422,0.46873775,0.17711219,0.6397296,0.36770204,0.05278192,-0.250554,0.04961993,0.45648682,0.5415295,0.21171854,0.6694565,0.49171206,0.33932146,0.629916,0.5581142,0.6028812,0.19456363,0.43809786,0.4300072,818.3516,805.05493,796.99634,815.5311,851.39197,0.49896240234375,0.06402587890625,0.8592529296875,4.254302978515625,-3.117828369140625,-1.801910400390625,1.0,1.0,1.0,1.0,1.0,25.0,
2023-09-07 23:45:49.936,0.4260422,0.46873775,0.17711219,0.6397296,0.36770204,0.05278192,-0.250554,0.04961993,0.45648682,0.5415295,0.21171854,0.6694565,0.49171206,0.33932146,0.629916,0.5581142,0.6028812,0.19456363,0.43809786,0.4300072,790.54944,785.7143,788.5348,815.5311,1124.5787,0.49847412109375,0.060791015625,0.8553466796875,4.224395751953125,-2.51220703125,-0.897216796875,1.0,1.0,1.0,1.0,1.0,25.0,
2023-09-07 23:45:49.938,0.35998115,0.4875877,0.14356273,0.6143626,0.2539848,0.038012292,-0.25644502,-0.08023733,0.36036566,0.5415295,0.21737283,0.6534747,0.47750726,0.31836128,0.6214764,0.5278645,0.5965792,0.19214283,0.43996286,0.4174213,794.57874,797.8022,802.23444,806.6667,887.6557,0.49847412109375,0.060791015625,0.8553466796875,4.224395751953125,-2.51220703125,-0.897216796875,1.0,1.0,1.0,1.0,1.0,25.0,
2023-09-07 23:45:50.017,0.35998115,0.4875877,0.14356273,0.6143626,0.2539848,0.038012292,-0.25644502,-0.08023733,0.36036566,0.5415295,0.21737283,0.6534747,0.47750726,0.31836128,0.6214764,0.5278645,0.5965792,0.19214283,0.43996286,0.4174213,805.05493,801.8315,795.78754,813.5165,812.3077,0.4906005859375,0.0645751953125,0.855712890625,4.725341796875,-2.669219970703125,-1.24114990234375,1.0,1.0,1.0,1.0,1.0,25.0,
2023-09-07 23:45:50.020,0.26477057,0.48650363,0.09767107,0.5619436,0.14955659,0.032167748,-0.25723606,-0.2115936,0.24459907,0.5415295,0.23128316,0.6348505,0.47721246,0.3159343,0.61135453,0.4934933,0.59087557,0.19191709,0.43884048,0.40300286,806.6667,800.2198,805.8608,815.12823,780.87915,0.4906005859375,0.0645751953125,0.855712890625,4.725341796875,-2.669219970703125,-1.24114990234375,1.0,1.0,1.0,1.0,1.0,25.0,
2023-09-07 23:45:50.071,0.26477057,0.48650363,0.09767107,0.5619436,0.14955659,0.032167748,-0.25723606,-0.2115936,0.24459907,0.5415295,0.23128316,0.6348505,0.47721246,0.3159343,0.61135453,0.4934933,0.59087557,0.19191709,0.43884048,0.40300286,792.96704,799.011,815.5311,796.5934,561.685,0.4959716796875,0.06561279296875,0.854248046875,4.852447509765625,-2.938385009765625,-0.91217041015625,1.0,1.0,1.0,1.0,1.0,25.0,
2023-09-07 23:45:50.130,0.26477057,0.48650363,0.09767107,0.5619436,0.14955659,0.032167748,-0.25723606,-0.2115936,0.24459907,0.5415295,0.23128316,0.6348505,0.47721246,0.3159343,0.61135453,0.4934933,0.59087557,0.19191709,0.43884048,0.40300286,811.0989,798.60803,785.31134,803.8461,725.2747,0.49114990234375,0.06768798828125,0.857177734375,4.50103759765625,-3.058013916015625,-0.964508056640625,1.0,1.0,1.0,1.0,1.0,25.0,
2023-09-07 23:45:50.135,0.18239059,0.4761225,0.047419883,0.490783,0.10487628,0.03395849,-0.2387253,-0.2721567,0.16993834,0.5415295,0.24392651,0.60023445,0.4860177,0.3276408,0.5997283,0.46020454,0.59205484,0.19579275,0.43528956,0.3886373,806.26373,803.8461,806.6667,812.71063,711.978,0.49114990234375,0.06768798828125,0.857177734375,4.50103759765625,-3.058013916015625,-0.964508056640625,1.0,1.0,1.0,1.0,1.0,25.0,
2023-09-07 23:45:50.169,0.18239059,0.4761225,0.047419883,0.490783,0.10487628,0.03395849,-0.2387253,-0.2721567,0.16993834,0.5415295,0.24392651,0.60023445,0.4860177,0.3276408,0.5997283,0.46020454,0.59205484,0.19579275,0.43528956,0.3886373,802.23444,798.60803,789.34064,801.02563,744.61536,0.5010986328125,0.0635986328125,0.85211181640625,4.41131591796875,-3.96270751953125,-1.143951416015625,1.0,1.0,1.0,1.0,1.0,25.0,
2023-09-07 23:45:50.202,0.18239059,0.4761225,0.047419883,0.490783,0.10487628,0.03395849,-0.2387253,-0.2721567,0.16993834,0.5415295,0.24392651,0.60023445,0.4860177,0.3276408,0.5997283,0.46020454,0.59205484,0.19579275,0.43528956,0.3886373,798.20514,797.3993,812.3077,798.60803,926.7399,0.505615234375,0.06622314453125,0.8570556640625,4.613189697265625,-2.43743896484375,-1.2261962890625,1.0,1.0,1.0,1.0,1.0,25.0,
2023-09-07 23:45:50.215,0.13935904,0.4661373,0.015981425,0.4196267,0.11075874,0.040002722,-0.20062204,-0.27291977,0.13609609,0.5380432,0.25559565,0.57145774,0.4973314,0.34270015,0.5873212,0.4409909,0.59899205,0.20020221,0.43087676,0.37758738,799.81683,811.9048,800.2198,803.8461,739.7802,0.505615234375,0.06622314453125,0.8570556640625,4.613189697265625,-2.43743896484375,-1.2261962890625,1.0,1.0,1.0,1.0,1.0,25.0,
2023-09-07 23:45:50.287,0.13935904,0.4661373,0.015981425,0.4196267,0.11075874,0.040002722,-0.20062204,-0.27291977,0.13609609,0.5380432,0.25559565,0.57145774,0.4973314,0.34270015,0.5873212,0.4409909,0.59899205,0.20020221,0.43087676,0.37758738,812.3077,807.0696,788.5348,810.696,786.9231,0.49468994140625,0.0640869140625,0.854736328125,4.643096923828125,-2.22808837890625,-1.07666015625,1.0,1.0,1.0,1.0,1.0,25.0,
2023-09-07 23:45:50.293,0.13274798,0.45823568,0.019502962,0.37553707,0.12363679,0.047724653,-0.15139866,-0.27957338,0.12823868,0.55151385,0.2623494,0.56411916,0.51050824,0.3511174,0.5755841,0.44839263,0.6069145,0.19962025,0.4260375,0.37278134,805.05493,793.36993,782.0879,804.65204,754.2857,0.49468994140625,0.0640869140625,0.854736328125,4.643096923828125,-2.22808837890625,-1.07666015625,1.0,1.0,1.0,1.0,1.0,25.0,
2023-09-07 23:45:50.327,0.13274798,0.45823568,0.019502962,0.37553707,0.12363679,0.047724653,-0.15139866,-0.27957338,0.12823868,0.55151385,0.2623494,0.56411916,0.51050824,0.3511174,0.5755841,0.44839263,0.6069145,0.19962025,0.4260375,0.37278134,809.4872,796.5934,782.49084,806.26373,644.68866,0.4971923828125,0.06317138671875,0.85504150390625,4.837493896484375,-2.355194091796875,-0.979461669921875,1.0,1.0,1.0,1.0,1.0,25.0,
2023-09-07 23:45:50.380,0.13274798,0.45823568,0.019502962,0.37553707,0.12363679,0.047724653,-0.15139866,-0.27957338,0.12823868,0.55151385,0.2623494,0.56411916,0.51050824,0.3511174,0.5755841,0.44839263,0.6069145,0.19962025,0.4260375,0.37278134,790.9524,796.1905,776.04395,796.1905,886.4469,0.5029296875,0.06671142578125,0.84918212890625,5.016937255859375,-2.9608154296875,-0.7476806640625,1.0,1.0,1.0,1.0,1.0,25.0,
2023-09-07 23:45:50.416,0.13274798,0.45823568,0.019502962,0.37553707,0.12363679,0.047724653,-0.15139866,-0.27957338,0.12823868,0.55151385,0.2623494,0.56411916,0.51050824,0.3511174,0.5755841,0.44839263,0.6069145,0.19962025,0.4260375,0.37278134,813.5165,802.23444,786.52014,799.41394,712.7839,0.4952392578125,0.06488037109375,0.8546142578125,5.046844482421875,-2.205657958984375,-0.201873779296875,1.0,1.0,1.0,1.0,1.0,25.0,
2023-09-07 23:45:50.417,0.13274798,0.45276585,0.050319448,0.37553707,0.12363679,0.054265626,-0.09804417,-0.27957338,0.12823868,0.5574735,0.29058442,0.56411916,0.51050824,0.34757367,0.5667287,0.44839263,0.6069145,0.19252339,0.42029804,0.37278134,793.7729,796.5934,789.34064,796.5934,738.97437,0.4952392578125,0.06488037109375,0.8546142578125,5.046844482421875,-2.205657958984375,-0.201873779296875,1.0,1.0,1.0,1.0,1.0,25.0,
2023-09-07 23:45:50.551,0.13274798,0.45276585,0.050319448,0.37553707,0.12363679,0.054265626,-0.09804417,-0.27957338,0.12823868,0.5574735,0.29058442,0.56411916,0.51050824,0.34757367,0.5667287,0.44839263,0.6069145,0.19252339,0.42029804,0.37278134,799.011,798.60803,782.8938,807.0696,745.82416,0.4927978515625,0.066162109375,0.860107421875,4.2169189453125,-2.6019287109375,-0.299072265625,1.0,1.0,1.0,1.0,1.0,25.0,
2023-09-07 23:45:50.554,0.13274798,0.4486139,0.090411626,0.37553707,0.12363679,0.05536606,-0.04496168,-0.27957338,0.12823868,0.5574735,0.3376544,0.56411916,0.51050824,0.3315052,0.5617525,0.44839263,0.6069145,0.18078044,0.4122935,0.37278134,798.20514,797.8022,791.3553,796.5934,680.9524,0.4927978515625,0.066162109375,0.860107421875,4.2169189453125,-2.6019287109375,-0.299072265625,1.0,1.0,1.0,1.0,1.0,25.0,
2023-09-07 23:45:50.564,0.13274798,0.4486139,0.090411626,0.37553707,0.12363679,0.05536606,-0.04496168,-0.27957338,0.12823868,0.5574735,0.3376544,0.56411916,0.51050824,0.3315052,0.5617525,0.44839263,0.6069145,0.18078044,0.4122935,0.37278134,811.9048,809.4872,781.28204,807.0696,929.9634,0.49481201171875,0.0618896484375,0.8577880859375,4.867401123046875,-2.564544677734375,-0.897216796875,1.0,1.0,1.0,1.0,1.0,25.0,
2023-09-07 23:45:50.641,0.13274798,0.4486139,0.090411626,0.37553707,0.12363679,0.05536606,-0.04496168,-0.27957338,0.12823868,0.5574735,0.3376544,0.56411916,0.51050824,0.3315052,0.5617525,0.44839263,0.6069145,0.18078044,0.4122935,0.37278134,779.67035,788.5348,788.5348,792.96704,604.3956,0.4986572265625,0.06561279296875,0.8536376953125,4.77020263671875,-2.893524169921875,-1.443023681640625,1.0,1.0,1.0,1.0,1.0,25.0,
2023-09-07 23:45:50.644,0.13274798,0.44425446,0.12333866,0.37553707,0.12363679,0.048947267,0.00039642892,-0.27957338,0.12823868,0.5574735,0.35298097,0.56411916,0.51050824,0.30672017,0.55926555,0.44839263,0.6069145,0.16532518,0.40208292,0.37278134,794.57874,793.7729,791.75824,786.9231,806.26373,0.4986572265625,0.06561279296875,0.8536376953125,4.77020263671875,-2.893524169921875,-1.443023681640625,1.0,1.0,1.0,1.0,1.0,25.0,
2023-09-07 23:45:50.673,0.13274798,0.44425446,0.12333866,0.37553707,0.12363679,0.048947267,0.00039642892,-0.27957338,0.12823868,0.5574735,0.35298097,0.56411916,0.51050824,0.30672017,0.55926555,0.44839263,0.6069145,0.16532518,0.40208292,0.37278134,806.26373,805.4579,805.05493,810.696,851.79486,0.49407958984375,0.0635986328125,0.85858154296875,4.38140869140625,-2.97576904296875,-0.934600830078125,1.0,1.0,1.0,1.0,1.0,25.0,
2023-09-07 23:45:50.718,0.13274798,0.44425446,0.12333866,0.37553707,0.12363679,0.048947267,0.00039642892,-0.27957338,0.12823868,0.5574735,0.35298097,0.56411916,0.51050824,0.30672017,0.55926555,0.44839263,0.6069145,0.16532518,0.40208292,0.37278134,795.78754,802.23444,786.1172,817.9487,863.8828,0.4901123046875,0.06268310546875,0.85589599609375,4.822540283203125,-2.9010009765625,-0.650482177734375,1.0,1.0,1.0,1.0,1.0,25.0,
2023-09-07 23:45:50.724,0.13274798,0.43551525,0.13735005,0.37553707,0.12363679,0.038921338,0.032499775,-0.27957338,0.12823868,0.5574735,0.35051405,0.56411916,0.51050824,0.2790208,0.5558082,0.44839263,0.6069145,0.14530349,0.39106214,0.37278134,789.34064,788.1319,793.36993,798.60803,973.8828,0.4901123046875,0.06268310546875,0.85589599609375,4.822540283203125,-2.9010009765625,-0.650482177734375,1.0,1.0,1.0,1.0,1.0,25.0,
2023-09-07 23:45:50.815,0.13274798,0.43551525,0.13735005,0.37553707,0.12363679,0.038921338,0.032499775,-0.27957338,0.12823868,0.5574735,0.35051405,0.56411916,0.51050824,0.2790208,0.5558082,0.44839263,0.6069145,0.14530349,0.39106214,0.37278134,796.5934,796.99634,793.36993,793.36993,666.4469,0.49468994140625,0.06475830078125,0.857421875,4.643096923828125,-3.043060302734375,-0.755157470703125,1.0,1.0,1.0,1.0,1.0,25.0,
2023-09-07 23:45:50.824,0.2023608,0.41850823,0.13583754,0.09908049,0.35695457,0.03252972,0.053105533,-0.20559695,0.47075227,0.5574735,0.33979475,0.10383472,0.62308306,0.25404188,0.5486295,0.5511799,0.4361169,0.122163266,0.38171363,0.39219677,796.1905,804.2491,796.99634,805.4579,741.79486,0.49468994140625,0.06475830078125,0.857421875,4.643096923828125,-3.043060302734375,-0.755157470703125,1.0,1.0,1.0,1.0,1.0,25.0,
2023-09-07 23:45:50.866,0.2023608,0.41850823,0.13583754,0.09908049,0.35695457,0.03252972,0.053105533,-0.20559695,0.47075227,0.5574735,0.33979475,0.10383472,0.62308306,0.25404188,0.5486295,0.5511799,0.4361169,0.122163266,0.38171363,0.39219677,809.89014,807.0696,791.3553,799.41394,736.9597,0.4927978515625,0.06805419921875,0.8529052734375,5.121612548828125,-2.773895263671875,0.059814453125,1.0,1.0,1.0,1.0,1.0,25.0,
2023-09-07 23:45:50.914,0.2023608,0.41850823,0.13583754,0.09908049,0.35695457,0.03252972,0.053105533,-0.20559695,0.47075227,0.5574735,0.33979475,0.10383472,0.62308306,0.25404188,0.5486295,0.5511799,0.4361169,0.122163266,0.38171363,0.39219677,814.3223,796.1905,795.78754,808.2784,652.3443,0.49163818359375,0.0687255859375,0.85638427734375,4.8150634765625,-3.207550048828125,-0.515899658203125,1.0,1.0,1.0,1.0,1.0,25.0,
2023-09-07 23:45:50.924,0.16460553,0.38638783,0.12569654,0.032819103,0.35698798,0.031512935,0.068181954,-0.16225523,0.48090592,0.5574735,0.33241147,0.3020935,0.5736166,0.23358484,0.5378481,0.53876156,0.41775176,0.10074424,0.37531722,0.3858673,804.2491,814.7253,797.3993,811.9048,695.4579,0.49163818359375,0.0687255859375,0.85638427734375,4.8150634765625,-3.207550048828125,-0.515899658203125,1.0,1.0,1.0,1.0,1.0,25.0,
2023-09-07 23:45:50.953,0.16460553,0.38638783,0.12569654,0.032819103,0.35698798,0.031512935,0.068181954,-0.16225523,0.48090592,0.5574735,0.33241147,0.3020935,0.5736166,0.23358484,0.5378481,0.53876156,0.41775176,0.10074424,0.37531722,0.3858673,810.696,801.8315,803.44324,810.696,940.0366,0.49749755859375,0.07037353515625,0.85711669921875,4.6356201171875,-3.386993408203125,-0.8074951171875,1.0,1.0,1.0,1.0,1.0,25.0,
2023-09-07 23:45:51.047,0.16460553,0.38638783,0.12569654,0.032819103,0.35698798,0.031512935,0.068181954,-0.16225523,0.48090592,0.5574735,0.33241147,0.3020935,0.5736166,0.23358484,0.5378481,0.53876156,0.41775176,0.10074424,0.37531722,0.3858673,788.1319,794.57874,794.9817,802.23444,751.06226,0.5025634765625,0.06414794921875,0.85321044921875,4.209442138671875,-3.312225341796875,-0.844879150390625,1.0,1.0,1.0,1.0,1.0,25.0,
2023-09-07 23:45:51.048,0.13097817,0.34043315,0.11454987,-0.02024717,0.38260266,0.030809654,0.080538385,-0.062876835,0.48385918,0.55713284,0.31589657,0.42226094,0.5328863,0.21800028,0.52614397,0.53634447,0.4092817,0.08377217,0.36986172,0.3894541,797.8022,795.38464,794.17584,806.26373,671.685,0.5025634765625,0.06414794921875,0.85321044921875,4.209442138671875,-3.312225341796875,-0.844879150390625,1.0,1.0,1.0,1.0,1.0,25.0,
2023-09-07 23:45:51.088,0.13097817,0.34043315,0.11454987,-0.02024717,0.38260266,0.030809654,0.080538385,-0.062876835,0.48385918,0.55713284,0.31589657,0.42226094,0.5328863,0.21800028,0.52614397,0.53634447,0.4092817,0.08377217,0.36986172,0.3894541,788.5348,800.6227,784.90845,793.7729,691.02563,0.4923095703125,0.06219482421875,0.85382080078125,4.344024658203125,-2.833709716796875,-1.607513427734375,1.0,1.0,1.0,1.0,1.0,25.0,
2023-09-07 23:45:51.136,0.13097817,0.34043315,0.11454987,-0.02024717,0.38260266,0.030809654,0.080538385,-0.062876835,0.48385918,0.55713284,0.31589657,0.42226094,0.5328863,0.21800028,0.52614397,0.53634447,0.4092817,0.08377217,0.36986172,0.3894541,821.1722,804.2491,795.38464,818.3516,718.022,0.499755859375,0.05950927734375,0.85986328125,4.85992431640625,-3.117828369140625,-0.897216796875,1.0,1.0,1.0,1.0,1.0,25.0,
2023-09-07 23:45:51.139,0.10209747,0.27569008,0.10662008,-0.052825015,0.41641358,0.024051096,0.08899239,0.044854395,0.4842202,0.5433147,0.31226015,0.43827024,0.50366074,0.2105145,0.5155891,0.53664577,0.41392535,0.06814839,0.36028615,0.39257818,805.05493,802.23444,795.38464,820.3663,893.2967,0.499755859375,0.05950927734375,0.85986328125,4.85992431640625,-3.117828369140625,-0.897216796875,1.0,1.0,1.0,1.0,1.0,25.0,
2023-09-07 23:45:51.216,0.10209747,0.27569008,0.10662008,-0.052825015,0.41641358,0.024051096,0.08899239,0.044854395,0.4842202,0.5433147,0.31226015,0.43827024,0.50366074,0.2105145,0.5155891,0.53664577,0.41392535,0.06814839,0.36028615,0.39257818,801.4286,789.7436,791.75824,797.3993,597.9487,0.50421142578125,0.0684814453125,0.85174560546875,5.0244140625,-2.639312744140625,-0.785064697265625,1.0,1.0,1.0,1.0,1.0,25.0,
2023-09-07 23:45:51.257,0.10209747,0.27569008,0.10662008,-0.052825015,0.41641358,0.024051096,0.08899239,0.044854395,0.4842202,0.5433147,0.31226015,0.43827024,0.50366074,0.2105145,0.5155891,0.53664577,0.41392535,0.06814839,0.36028615,0.39257818,801.02563,799.41394,794.17584,813.1135,743.00366,0.49786376953125,0.06512451171875,0.85711669921875,4.3963623046875,-2.43743896484375,-0.396270751953125,1.0,1.0,1.0,1.0,1.0,25.0,
2023-09-07 23:45:51.261,0.08715601,0.17725688,0.10665745,-0.061005924,0.44392216,0.009227398,0.09198081,0.12655716,0.48629302,0.50843775,0.3150129,0.43942794,0.48590797,0.2150717,0.5063665,0.5341778,0.42362207,0.04971164,0.34340438,0.38771874,796.1905,795.38464,786.52014,799.81683,890.87915,0.49786376953125,0.06512451171875,0.85711669921875,4.3963623046875,-2.43743896484375,-0.396270751953125,1.0,1.0,1.0,1.0,1.0,25.0,
2023-09-07 23:45:51.314,0.08715601,0.17725688,0.10665745,-0.061005924,0.44392216,0.009227398,0.09198081,0.12655716,0.48629302,0.50843775,0.3150129,0.43942794,0.48590797,0.2150717,0.5063665,0.5341778,0.42362207,0.04971164,0.34340438,0.38771874,788.93774,792.96704,803.8461,793.36993,913.8461,0.49652099609375,0.06640625,0.8499755859375,4.4561767578125,-2.071075439453125,-0.949554443359375,1.0,1.0,1.0,1.0,1.0,25.0,
2023-09-07 23:45:51.318,0.09187114,0.03452588,0.11649223,-0.03937345,0.4628801,-0.009383602,0.094105035,0.18013659,0.49171564,0.4282725,0.3150129,0.4485515,0.47597557,0.22796246,0.49698728,0.5301877,0.42778036,0.027915359,0.3200252,0.37333164,792.1612,808.68134,785.31134,799.41394,900.14655,0.49652099609375,0.06640625,0.8499755859375,4.4561767578125,-2.071075439453125,-0.949554443359375,1.0,1.0,1.0,1.0,1.0,25.0,
2023-09-07 23:45:51.361,0.09187114,0.03452588,0.11649223,-0.03937345,0.4628801,-0.009383602,0.094105035,0.18013659,0.49171564,0.4282725,0.3150129,0.4485515,0.47597557,0.22796246,0.49698728,0.5301877,0.42778036,0.027915359,0.3200252,0.37333164,781.685,793.7729,780.4762,805.8608,1069.3773,0.49407958984375,0.06329345703125,0.85638427734375,4.65057373046875,-3.289794921875,-0.844879150390625,1.0,1.0,1.0,1.0,1.0,25.0,
2023-09-07 23:45:51.416,0.09187114,0.03452588,0.11649223,-0.03937345,0.4628801,-0.009383602,0.094105035,0.18013659,0.49171564,0.4282725,0.3150129,0.4485515,0.47597557,0.22796246,0.49698728,0.5301877,0.42778036,0.027915359,0.3200252,0.37333164,798.20514,801.4286,789.7436,791.3553,729.304,0.4930419921875,0.059814453125,0.859130859375,4.50103759765625,-2.87109375,-0.8673095703125,1.0,1.0,1.0,1.0,1.0,25.0,
2023-09-07 23:45:51.421,0.14490841,-0.13352482,0.13395485,0.037717655,0.4750479,-0.025261616,0.1013709,0.21391194,0.5004478,0.38872808,0.3150129,0.48737064,0.4680073,0.2374208,0.48610136,0.52995926,0.42370322,0.004190304,0.29321387,0.35321972,801.02563,803.44324,790.14655,797.3993,662.4176,0.4930419921875,0.059814453125,0.859130859375,4.50103759765625,-2.87109375,-0.8673095703125,1.0,1.0,1.0,1.0,1.0,25.0,
2023-09-07 23:45:51.452,0.14490841,-0.13352482,0.13395485,0.037717655,0.4750479,-0.025261616,0.1013709,0.21391194,0.5004478,0.38872808,0.3150129,0.48737064,0.4680073,0.2374208,0.48610136,0.52995926,0.42370322,0.004190304,0.29321387,0.35321972,788.5348,780.4762,788.1319,795.78754,675.31134,0.497802734375,0.06683349609375,0.8564453125,4.4561767578125,-2.773895263671875,-1.278533935546875,1.0,1.0,1.0,1.0,1.0,25.0,
2023-09-07 23:45:51.550,0.14490841,-0.13352482,0.13395485,0.037717655,0.4750479,-0.025261616,0.1013709,0.21391194,0.5004478,0.38872808,0.3150129,0.48737064,0.4680073,0.2374208,0.48610136,0.52995926,0.42370322,0.004190304,0.29321387,0.35321972,786.1172,799.81683,794.9817,785.31134,859.0476,0.49603271484375,0.06060791015625,0.85748291015625,4.493560791015625,-2.893524169921875,-0.994415283203125,1.0,1.0,1.0,1.0,1.0,25.0,
2023-09-07 23:45:51.558,0.24397904,-0.27967542,0.15185834,0.16094944,0.47961023,-0.033663593,0.11428733,0.23530331,0.50716573,0.39339307,0.32092857,0.55034417,0.4578176,0.23416586,0.47400033,0.5344554,0.41561353,-0.02292996,0.26707217,0.33363083,801.4286,797.8022,787.72894,791.3553,667.25275,0.49603271484375,0.06060791015625,0.85748291015625,4.493560791015625,-2.893524169921875,-0.994415283203125,1.0,1.0,1.0,1.0,1.0,25.0,
2023-09-07 23:45:51.605,0.24397904,-0.27967542,0.15185834,0.16094944,0.47961023,-0.033663593,0.11428733,0.23530331,0.50716573,0.39339307,0.32092857,0.55034417,0.4578176,0.23416586,0.47400033,0.5344554,0.41561353,-0.02292996,0.26707217,0.33363083,792.1612,792.1612,788.5348,803.44324,660.0,0.49810791015625,0.06414794921875,0.850830078125,4.68048095703125,-2.49725341796875,-0.64300537109375,1.0,1.0,1.0,1.0,1.0,25.0,
2023-09-07 23:45:51.645,0.24397904,-0.27967542,0.15185834,0.16094944,0.47961023,-0.033663593,0.11428733,0.23530331,0.50716573,0.39339307,0.32092857,0.55034417,0.4578176,0.23416586,0.47400033,0.5344554,0.41561353,-0.02292996,0.26707217,0.33363083,784.90845,786.1172,794.17584,785.7143,676.9231,0.4976806640625,0.068115234375,0.85186767578125,4.7552490234375,-2.878570556640625,-0.441131591796875,1.0,1.0,1.0,1.0,1.0,25.0,
2023-09-07 23:45:51.646,0.3457619,-0.35890478,0.16267914,0.2796882,0.4727659,-0.034559395,0.12499982,0.24525666,0.50716573,0.39698085,0.3427596,0.5945089,0.44455343,0.21869515,0.46307847,0.5383021,0.40739164,-0.05411664,0.24446736,0.31876087,789.7436,785.7143,795.38464,795.78754,670.87915,0.4976806640625,0.068115234375,0.85186767578125,4.7552490234375,-2.878570556640625,-0.441131591796875,1.0,1.0,1.0,1.0,1.0,25.0,
2023-09-07 23:45:51.686,0.3457619,-0.35890478,0.16267914,0.2796882,0.4727659,-0.034559395,0.12499982,0.24525666,0.50716573,0.39698085,0.3427596,0.5945089,0.44455343,0.21869515,0.46307847,0.5383021,0.40739164,-0.05411664,0.24446736,0.31876087,794.57874,798.20514,792.1612,809.0842,934.3956,0.49462890625,0.0643310546875,0.856201171875,4.732818603515625,-3.028106689453125,-0.441131591796875,1.0,1.0,1.0,1.0,1.0,25.0,
2023-09-07 23:45:51.729,0.3457619,-0.35890478,0.16267914,0.2796882,0.4727659,-0.034559395,0.12499982,0.24525666,0.50716573,0.39698085,0.3427596,0.5945089,0.44455343,0.21869515,0.46307847,0.5383021,0.40739164,-0.05411664,0.24446736,0.31876087,793.7729,796.5934,793.7729,799.011,745.42126,0.50286865234375,0.0643310546875,0.8470458984375,4.538421630859375,-2.893524169921875,-0.740203857421875,1.0,1.0,1.0,1.0,1.0,25.0,
2023-09-07 23:45:51.732,0.42104873,-0.36100492,0.15876952,0.36621338,0.45442346,-0.030050246,0.12464974,0.24491896,0.50716573,0.40243298,0.35078457,0.60444164,0.42994428,0.19954102,0.45591798,0.53670806,0.3996913,-0.08287622,0.22713067,0.310351,800.2198,803.44324,790.9524,797.8022,701.0989,0.50286865234375,0.0643310546875,0.8470458984375,4.538421630859375,-2.893524169921875,-0.740203857421875,1.0,1.0,1.0,1.0,1.0,25.0,
2023-09-07 23:45:51.853,0.42104873,-0.36100492,0.15876952,0.36621338,0.45442346,-0.030050246,0.12464974,0.24491896,0.50716573,0.40243298,0.35078457,0.60444164,0.42994428,0.19954102,0.45591798,0.53670806,0.3996913,-0.08287622,0.22713067,0.310351,813.91943,803.44324,796.1905,811.50183,614.87177,0.50701904296875,0.065673828125,0.85467529296875,4.366455078125,-2.743988037109375,-0.934600830078125,1.0,1.0,1.0,1.0,1.0,25.0,
2023-09-07 23:45:51.856,0.46155116,-0.30215845,0.14186515,0.41733736,0.42888007,-0.02360451,0.109273925,0.2392271,0.50716573,0.39317107,0.354304,0.60444164,0.4173093,0.1853196,0.45311302,0.529233,0.39271486,-0.0995246,0.2144216,0.30751613,770.80585,788.93774,792.96704,795.38464,653.5531,0.50701904296875,0.065673828125,0.85467529296875,4.366455078125,-2.743988037109375,-0.934600830078125,1.0,1.0,1.0,1.0,1.0,25.0,
2023-09-07 23:45:51.889,0.46155116,-0.30215845,0.14186515,0.41733736,0.42888007,-0.02360451,0.109273925,0.2392271,0.50716573,0.39317107,0.354304,0.60444164,0.4173093,0.1853196,0.45311302,0.529233,0.39271486,-0.0995246,0.2144216,0.30751613,754.2857,783.69965,799.011,770.80585,749.85345,0.497314453125,0.0594482421875,0.85296630859375,4.493560791015625,-2.130889892578125,-1.18133544921875,1.0,1.0,1.0,1.0,1.0,25.0,
2023-09-07 23:45:51.949,0.46155116,-0.30215845,0.14186515,0.41733736,0.42888007,-0.02360451,0.109273925,0.2392271,0.50716573,0.39317107,0.354304,0.60444164,0.4173093,0.1853196,0.45311302,0.529233,0.39271486,-0.0995246,0.2144216,0.30751613,795.78754,807.0696,809.89014,792.1612,702.3077,0.49688720703125,0.06201171875,0.8560791015625,4.44122314453125,-2.6318359375,-0.418701171875,1.0,1.0,1.0,1.0,1.0,25.0,
2023-09-07 23:45:51.953,0.46155116,-0.1954965,0.11731105,0.41733736,0.42888007,-0.0096431235,0.08036343,0.2392271,0.50716573,0.3941614,0.36381346,0.60444164,0.4173093,0.17920642,0.45091724,0.529233,0.39271486,-0.103716895,0.20321417,0.30751613,780.87915,789.34064,801.02563,793.36993,668.46155,0.49688720703125,0.06201171875,0.8560791015625,4.44122314453125,-2.6318359375,-0.418701171875,1.0,1.0,1.0,1.0,1.0,25.0,
2023-09-07 23:45:51.982,0.46155116,-0.1954965,0.11731105,0.41733736,0.42888007,-0.0096431235,0.08036343,0.2392271,0.50716573,0.3941614,0.36381346,0.60444164,0.4173093,0.17920642,0.45091724,0.529233,0.39271486,-0.103716895,0.20321417,0.30751613,807.47253,790.9524,796.5934,802.6374,644.2857,0.49957275390625,0.06170654296875,0.84686279296875,4.62066650390625,-2.639312744140625,-0.478515625,1.0,1.0,1.0,1.0,1.0,25.0,
2023-09-07 23:45:52.023,0.46155116,-0.1954965,0.11731105,0.41733736,0.42888007,-0.0096431235,0.08036343,0.2392271,0.50716573,0.3941614,0.36381346,0.60444164,0.4173093,0.17920642,0.45091724,0.529233,0.39271486,-0.103716895,0.20321417,0.30751613,786.1172,797.3993,794.57874,802.6374,781.28204,0.498046875,0.06634521484375,0.85882568359375,5.271148681640625,-2.400054931640625,0.097198486328125,1.0,1.0,1.0,1.0,1.0,25.0,
2023-09-07 23:45:52.028,0.47416183,-0.07020649,0.08837398,0.42763692,0.42267054,0.0277134,0.042692922,0.25609365,0.50672466,0.37493044,0.36463702,0.60444164,0.36960065,0.18058504,0.44339576,0.51977473,0.3877396,-0.107140414,0.19139183,0.29610536,804.65204,794.57874,786.9231,808.2784,943.2601,0.498046875,0.06634521484375,0.85882568359375,5.271148681640625,-2.400054931640625,0.097198486328125,1.0,1.0,1.0,1.0,1.0,25.0,
2023-09-07 23:45:52.153,0.47416183,-0.07020649,0.08837398,0.42763692,0.42267054,0.0277134,0.042692922,0.25609365,0.50672466,0.37493044,0.36463702,0.60444164,0.36960065,0.18058504,0.44339576,0.51977473,0.3877396,-0.107140414,0.19139183,0.29610536,799.011,794.9817,794.9817,800.6227,713.9927,0.493896484375,0.06585693359375,0.8536376953125,4.493560791015625,-2.3626708984375,-0.441131591796875,1.0,1.0,1.0,1.0,1.0,25.0,
2023-09-07 23:45:52.163,0.54501534,0.046177134,0.055411883,0.44234356,0.48222816,0.09750205,0.0045612585,0.2795044,0.6527762,0.36482677,0.31621587,0.60444164,0.37005195,0.18887967,0.42793763,0.5156607,0.37801874,-0.12036626,0.18029797,0.28340957,792.96704,788.93774,788.1319,786.1172,718.8278,0.493896484375,0.06585693359375,0.8536376953125,4.493560791015625,-2.3626708984375,-0.441131591796875,1.0,1.0,1.0,1.0,1.0,25.0,
2023-09-07 23:45:52.199,0.54501534,0.046177134,0.055411883,0.44234356,0.48222816,0.09750205,0.0045612585,0.2795044,0.6527762,0.36482677,0.31621587,0.60444164,0.37005195,0.18887967,0.42793763,0.5156607,0.37801874,-0.12036626,0.18029797,0.28340957,791.3553,789.34064,795.78754,785.7143,800.2198,0.49639892578125,0.06488037109375,0.85595703125,4.29168701171875,-2.1832275390625,-1.1663818359375,1.0,1.0,1.0,1.0,1.0,25.0,
2023-09-07 23:45:52.243,0.54501534,0.046177134,0.055411883,0.44234356,0.48222816,0.09750205,0.0045612585,0.2795044,0.6527762,0.36482677,0.31621587,0.60444164,0.37005195,0.18887967,0.42793763,0.5156607,0.37801874,-0.12036626,0.18029797,0.28340957,789.7436,811.50183,805.8608,797.8022,778.46155,0.49530029296875,0.06298828125,0.85345458984375,4.7552490234375,-2.235565185546875,-1.742095947265625,1.0,1.0,1.0,1.0,1.0,25.0,
2023-09-07 23:45:52.277,0.54501534,0.046177134,0.055411883,0.44234356,0.48222816,0.09750205,0.0045612585,0.2795044,0.6527762,0.36482677,0.31621587,0.60444164,0.37005195,0.18887967,0.42793763,0.5156607,0.37801874,-0.12036626,0.18029797,0.28340957,797.3993,804.65204,784.5055,801.02563,772.01465,0.494384765625,0.0611572265625,0.85931396484375,3.9776611328125,-2.9608154296875,-1.203765869140625,1.0,1.0,1.0,1.0,1.0,25.0,
2023-09-07 23:45:52.278,0.661142,0.14020263,0.03054412,0.53004664,0.5917913,0.18105288,-0.024327172,0.42496938,0.83677006,0.3877946,0.26360855,0.6609718,0.41279742,0.20484337,0.40794188,0.52444154,0.37173265,-0.142684,0.17693885,0.27665302,794.57874,797.8022,792.96704,800.6227,752.674,0.494384765625,0.0611572265625,0.85931396484375,3.9776611328125,-2.9608154296875,-1.203765869140625,1.0,1.0,1.0,1.0,1.0,25.0,
2023-09-07 23:45:52.412,0.661142,0.14020263,0.03054412,0.53004664,0.5917913,0.18105288,-0.024327172,0.42496938,0.83677006,0.3877946,0.26360855,0.6609718,0.41279742,0.20484337,0.40794188,0.52444154,0.37173265,-0.142684,0.17693885,0.27665302,808.68134,802.23444,793.36993,796.99634,710.3663,0.4952392578125,0.06341552734375,0.857421875,4.523468017578125,-3.102874755859375,-0.755157470703125,1.0,1.0,1.0,1.0,1.0,25.0,
2023-09-07 23:45:52.414,0.7844119,0.208009,0.02369395,0.62995756,0.6971223,0.24913804,-0.03960316,0.5564587,0.93179935,0.40849167,0.26360855,0.7034575,0.47161254,0.2274819,0.39043316,0.54593736,0.37002683,-0.16071638,0.18845084,0.27251038,795.78754,808.68134,797.8022,803.8461,658.3883,0.4952392578125,0.06341552734375,0.857421875,4.523468017578125,-3.102874755859375,-0.755157470703125,1.0,1.0,1.0,1.0,1.0,25.0,
2023-09-07 23:45:52.432,0.7844119,0.208009,0.02369395,0.62995756,0.6971223,0.24913804,-0.03960316,0.5564587,0.93179935,0.40849167,0.26360855,0.7034575,0.47161254,0.2274819,0.39043316,0.54593736,0.37002683,-0.16071638,0.18845084,0.27251038,807.0696,807.0696,794.57874,817.1429,660.80585,0.49774169921875,0.06317138671875,0.8564453125,4.553375244140625,-2.400054931640625,-0.964508056640625,1.0,1.0,1.0,1.0,1.0,25.0,
2023-09-07 23:45:52.470,0.7844119,0.208009,0.02369395,0.62995756,0.6971223,0.24913804,-0.03960316,0.5564587,0.93179935,0.40849167,0.26360855,0.7034575,0.47161254,0.2274819,0.39043316,0.54593736,0.37002683,-0.16071638,0.18845084,0.27251038,789.7436,788.5348,786.9231,795.78754,968.24176,0.49322509765625,0.06646728515625,0.8536376953125,4.972076416015625,-2.280426025390625,-0.76263427734375,1.0,1.0,1.0,1.0,1.0,25.0,
2023-09-07 23:45:52.473,0.8833931,0.24915344,0.031346463,0.7173233,0.76467586,0.2859013,-0.045649994,0.6431565,0.9410125,0.41364497,0.2660406,0.73632324,0.522017,0.2531243,0.38111353,0.57301915,0.36837527,-0.1532585,0.21863815,0.26164702,785.31134,792.1612,791.75824,790.14655,843.73627,0.49322509765625,0.06646728515625,0.8536376953125,4.972076416015625,-2.280426025390625,-0.76263427734375,1.0,1.0,1.0,1.0,1.0,25.0,
2023-09-07 23:45:52.511,0.8833931,0.24915344,0.031346463,0.7173233,0.76467586,0.2859013,-0.045649994,0.6431565,0.9410125,0.41364497,0.2660406,0.73632324,0.522017,0.2531243,0.38111353,0.57301915,0.36837527,-0.1532585,0.21863815,0.26164702,792.96704,796.1905,792.1612,799.41394,749.45056,0.49365234375,0.06341552734375,0.85235595703125,4.78515625,-3.0206298828125,-0.530853271484375,1.0,1.0,1.0,1.0,1.0,25.0,
2023-09-07 23:45:52.557,0.8833931,0.24915344,0.031346463,0.7173233,0.76467586,0.2859013,-0.045649994,0.6431565,0.9410125,0.41364497,0.2660406,0.73632324,0.522017,0.2531243,0.38111353,0.57301915,0.36837527,-0.1532585,0.21863815,0.26164702,798.60803,801.8315,790.14655,812.3077,1253.5165,0.498291015625,0.06591796875,0.85162353515625,4.66552734375,-3.81317138671875,-0.94207763671875,1.0,1.0,1.0,1.0,1.0,25.0,
2023-09-07 23:45:52.562,0.94860804,0.2720469,0.044602048,0.78117603,0.79355913,0.2939203,-0.04937803,0.68577963,0.9365869,0.4342542,0.2873501,0.7693957,0.55537796,0.27596653,0.3800906,0.60179937,0.357903,-0.11114936,0.2618629,0.2388454,793.36993,797.3993,792.1612,806.6667,1068.5714,0.498291015625,0.06591796875,0.85162353515625,4.66552734375,-3.81317138671875,-0.94207763671875,1.0,1.0,1.0,1.0,1.0,25.0,
2023-09-07 23:45:52.654,0.94860804,0.2720469,0.044602048,0.78117603,0.79355913,0.2939203,-0.04937803,0.68577963,0.9365869,0.4342542,0.2873501,0.7693957,0.55537796,0.27596653,0.3800906,0.60179937,0.357903,-0.11114936,0.2618629,0.2388454,794.9817,789.7436,784.5055,784.10254,683.7729,0.503662109375,0.0655517578125,0.85748291015625,4.725341796875,-3.177642822265625,-0.740203857421875,1.0,1.0,1.0,1.0,1.0,25.0,
2023-09-07 23:45:52.662,0.98565495,0.2851943,0.047996268,0.8221506,0.7992571,0.28897405,-0.055274077,0.7017677,0.9365869,0.4487891,0.30083764,0.7809403,0.5744764,0.29094177,0.3834472,0.63049245,0.33402508,-0.051358726,0.3051715,0.20993882,788.5348,800.6227,796.1905,794.57874,773.22345,0.503662109375,0.0655517578125,0.85748291015625,4.725341796875,-3.177642822265625,-0.740203857421875,1.0,1.0,1.0,1.0,1.0,25.0,
2023-09-07 23:45:52.707,0.98565495,0.2851943,0.047996268,0.8221506,0.7992571,0.28897405,-0.055274077,0.7017677,0.9365869,0.4487891,0.30083764,0.7809403,0.5744764,0.29094177,0.3834472,0.63049245,0.33402508,-0.051358726,0.3051715,0.20993882,779.67035,800.6227,799.41394,790.14655,661.6117,0.4974365234375,0.06219482421875,0.85595703125,4.2767333984375,-2.998199462890625,-1.233673095703125,1.0,1.0,1.0,1.0,1.0,25.0,
2023-09-07 23:45:52.776,0.98565495,0.2851943,0.047996268,0.8221506,0.7992571,0.28897405,-0.055274077,0.7017677,0.9365869,0.4487891,0.30083764,0.7809403,0.5744764,0.29094177,0.3834472,0.63049245,0.33402508,-0.051358726,0.3051715,0.20993882,797.8022,794.9817,792.96704,801.02563,708.3516,0.50115966796875,0.05804443359375,0.849853515625,4.463653564453125,-2.893524169921875,-1.039276123046875,1.0,1.0,1.0,1.0,1.0,25.0,
2023-09-07 23:45:52.784,1.0043211,0.2948776,0.028041113,0.84597945,0.7978097,0.28983682,-0.064425714,0.7094531,0.9365869,0.4540026,0.29908302,0.7847694,0.58506554,0.29718822,0.3877019,0.6556997,0.30063352,0.0016970916,0.33755428,0.18640187,806.26373,811.0989,792.1612,809.4872,732.52747,0.50115966796875,0.05804443359375,0.849853515625,4.463653564453125,-2.893524169921875,-1.039276123046875,1.0,1.0,1.0,1.0,1.0,25.0,
2023-09-07 23:45:52.822,1.0043211,0.2948776,0.028041113,0.84597945,0.7978097,0.28983682,-0.064425714,0.7094531,0.9365869,0.4540026,0.29908302,0.7847694,0.58506554,0.29718822,0.3877019,0.6556997,0.30063352,0.0016970916,0.33755428,0.18640187,796.1905,800.6227,793.36993,799.011,678.93774,0.50042724609375,0.0653076171875,0.85076904296875,5.016937255859375,-3.289794921875,-0.725250244140625,1.0,1.0,1.0,1.0,1.0,25.0,
2023-09-07 23:45:52.890,1.0043211,0.2948776,0.028041113,0.84597945,0.7978097,0.28983682,-0.064425714,0.7094531,0.9365869,0.4540026,0.29908302,0.7847694,0.58506554,0.29718822,0.3877019,0.6556997,0.30063352,0.0016970916,0.33755428,0.18640187,810.293,800.6227,798.20514,809.89014,774.0293,0.5015869140625,0.0687255859375,0.856201171875,5.36834716796875,-2.6617431640625,-0.46356201171875,1.0,1.0,1.0,1.0,1.0,25.0,
2023-09-07 23:45:52.891,1.0116887,0.30229455,-0.020218454,0.8566137,0.79256743,0.30282694,-0.08051707,0.71349156,0.9365869,0.44879153,0.31974462,0.7847694,0.5906613,0.30087718,0.39250556,0.6725247,0.2693971,0.037458587,0.35537142,0.1752251,807.8755,794.57874,806.6667,809.89014,685.78754,0.5015869140625,0.0687255859375,0.856201171875,5.36834716796875,-2.6617431640625,-0.46356201171875,1.0,1.0,1.0,1.0,1.0,25.0,
2023-09-07 23:45:52.927,1.0116887,0.30229455,-0.020218454,0.8566137,0.79256743,0.30282694,-0.08051707,0.71349156,0.9365869,0.44879153,0.31974462,0.7847694,0.5906613,0.30087718,0.39250556,0.6725247,0.2693971,0.037458587,0.35537142,0.1752251,805.4579,803.44324,805.4579,801.02563,676.52014,0.49456787109375,0.063232421875,0.849853515625,4.463653564453125,-1.697235107421875,-0.426177978515625,1.0,1.0,1.0,1.0,1.0,25.0,
2023-09-07 23:45:52.988,1.0116887,0.30229455,-0.020218454,0.8566137,0.79256743,0.30282694,-0.08051707,0.71349156,0.9365869,0.44879153,0.31974462,0.7847694,0.5906613,0.30087718,0.39250556,0.6725247,0.2693971,0.037458587,0.35537142,0.1752251,790.14655,807.8755,791.3553,790.54944,667.6557,0.4879150390625,0.06201171875,0.85662841796875,4.65057373046875,-2.400054931640625,-1.054229736328125,1.0,1.0,1.0,1.0,1.0,25.0,
2023-09-07 23:45:52.991,1.0096847,0.3039668,-0.09172932,0.8526389,0.7834915,0.32109258,-0.108603485,0.71282345,0.9365869,0.43682507,0.3268967,0.7847694,0.59337634,0.3093327,0.3985685,0.6787731,0.25167617,0.06026286,0.36191362,0.17495732,791.75824,799.011,793.36993,792.1612,686.5934,0.4879150390625,0.06201171875,0.85662841796875,4.65057373046875,-2.400054931640625,-1.054229736328125,1.0,1.0,1.0,1.0,1.0,25.0,
2023-09-07 23:45:53.059,1.0096847,0.3039668,-0.09172932,0.8526389,0.7834915,0.32109258,-0.108603485,0.71282345,0.9365869,0.43682507,0.3268967,0.7847694,0.59337634,0.3093327,0.3985685,0.6787731,0.25167617,0.06026286,0.36191362,0.17495732,803.8461,796.99634,798.20514,809.89014,778.0586,0.497802734375,0.0645751953125,0.85443115234375,4.583282470703125,-3.686065673828125,-1.054229736328125,1.0,1.0,1.0,1.0,1.0,25.0,
2023-09-07 23:45:53.117,1.0096847,0.3039668,-0.09172932,0.8526389,0.7834915,0.32109258,-0.108603485,0.71282345,0.9365869,0.43682507,0.3268967,0.7847694,0.59337634,0.3093327,0.3985685,0.6787731,0.25167617,0.06026286,0.36191362,0.17495732,803.0403,796.99634,801.4286,810.696,612.8571,0.49737548828125,0.0618896484375,0.85638427734375,4.388885498046875,-2.51220703125,-1.18133544921875,1.0,1.0,1.0,1.0,1.0,25.0,
2023-09-07 23:45:53.120,0.9981244,0.30068877,-0.16121155,0.83301944,0.77403104,0.33492205,-0.15052304,0.70850205,0.9365869,0.42864943,0.3268967,0.7847694,0.59614146,0.32409185,0.4048095,0.6777081,0.24932963,0.08029866,0.36306,0.1838229,797.3993,795.78754,794.57874,807.8755,730.9158,0.49737548828125,0.0618896484375,0.85638427734375,4.388885498046875,-2.51220703125,-1.18133544921875,1.0,1.0,1.0,1.0,1.0,25.0,
2023-09-07 23:45:53.162,0.9981244,0.30068877,-0.16121155,0.83301944,0.77403104,0.33492205,-0.15052304,0.70850205,0.9365869,0.42864943,0.3268967,0.7847694,0.59614146,0.32409185,0.4048095,0.6777081,0.24932963,0.08029866,0.36306,0.1838229,806.6667,799.81683,811.9048,792.1612,705.12823,0.4901123046875,0.063720703125,0.8551025390625,4.628143310546875,-2.310333251953125,-0.635528564453125,1.0,1.0,1.0,1.0,1.0,25.0,
2023-09-07 23:45:53.168,0.98186827,0.29345194,-0.19962752,0.8027747,0.77064925,0.3412536,-0.1900878,0.7043179,0.9365869,0.42832762,0.3268967,0.7798442,0.6007864,0.34008846,0.4095976,0.67489713,0.2562744,0.10190354,0.36121738,0.2032497,808.68134,804.2491,792.5641,815.9341,757.1062,0.4901123046875,0.063720703125,0.8551025390625,4.628143310546875,-2.310333251953125,-0.635528564453125,1.0,1.0,1.0,1.0,1.0,25.0,
2023-09-07 23:45:53.212,0.98186827,0.29345194,-0.19962752,0.8027747,0.77064925,0.3412536,-0.1900878,0.7043179,0.9365869,0.42832762,0.3268967,0.7798442,0.6007864,0.34008846,0.4095976,0.67489713,0.2562744,0.10190354,0.36121738,0.2032497,797.8022,803.44324,800.6227,803.0403,843.3333,0.49365234375,0.066650390625,0.8536376953125,4.882354736328125,-3.372039794921875,-0.680389404296875,1.0,1.0,1.0,1.0,1.0,25.0,
2023-09-07 23:45:53.267,0.98186827,0.29345194,-0.19962752,0.8027747,0.77064925,0.3412536,-0.1900878,0.7043179,0.9365869,0.42832762,0.3268967,0.7798442,0.6007864,0.34008846,0.4095976,0.67489713,0.2562744,0.10190354,0.36121738,0.2032497,792.1612,796.99634,800.6227,797.8022,697.47253,0.4959716796875,0.06451416015625,0.8538818359375,4.687957763671875,-3.028106689453125,-0.478515625,1.0,1.0,1.0,1.0,1.0,25.0,
2023-09-07 23:45:53.272,0.96613866,0.28118703,-0.20093894,0.76932335,0.7762298,0.34299886,-0.19956797,0.70323175,0.9365869,0.42832762,0.31070042,0.7599234,0.60727596,0.3521343,0.4129976,0.6737536,0.2666816,0.121246204,0.35501444,0.23123857,799.011,790.9524,799.41394,810.696,762.74725,0.4959716796875,0.06451416015625,0.8538818359375,4.687957763671875,-3.028106689453125,-0.478515625,1.0,1.0,1.0,1.0,1.0,25.0,
2023-09-07 23:45:53.316,0.96613866,0.28118703,-0.20093894,0.76932335,0.7762298,0.34299886,-0.19956797,0.70323175,0.9365869,0.42832762,0.31070042,0.7599234,0.60727596,0.3521343,0.4129976,0.6737536,0.2666816,0.121246204,0.35501444,0.23123857,802.6374,794.57874,798.60803,808.2784,775.64105,0.49560546875,0.068603515625,0.8565673828125,4.717864990234375,-2.908477783203125,-0.545806884765625,1.0,1.0,1.0,1.0,1.0,25.0,
2023-09-07 23:45:53.375,0.96613866,0.28118703,-0.20093894,0.76932335,0.7762298,0.34299886,-0.19956797,0.70323175,0.9365869,0.42832762,0.31070042,0.7599234,0.60727596,0.3521343,0.4129976,0.6737536,0.2666816,0.121246204,0.35501444,0.23123857,795.78754,795.38464,801.8315,811.50183,924.7253,0.501708984375,0.067626953125,0.8572998046875,4.725341796875,-3.282318115234375,-0.94207763671875,1.0,1.0,1.0,1.0,1.0,25.0,
2023-09-07 23:45:53.387,0.9554059,0.26374054,-0.19194776,0.7404243,0.78760874,0.34396812,-0.17226115,0.7055721,0.9365869,0.42832762,0.2969802,0.7191337,0.6139552,0.36092168,0.41628066,0.6755863,0.27856693,0.13383803,0.34472325,0.26050922,798.60803,798.60803,795.78754,801.02563,642.674,0.501708984375,0.067626953125,0.8572998046875,4.725341796875,-3.282318115234375,-0.94207763671875,1.0,1.0,1.0,1.0,1.0,25.0,
2023-09-07 23:45:53.451,0.9554059,0.26374054,-0.19194776,0.7404243,0.78760874,0.34396812,-0.17226115,0.7055721,0.9365869,0.42832762,0.2969802,0.7191337,0.6139552,0.36092168,0.41628066,0.6755863,0.27856693,0.13383803,0.34472325,0.26050922,805.8608,803.44324,806.6667,800.2198,703.5165,0.50390625,0.064453125,0.85162353515625,4.224395751953125,-3.013153076171875,-1.278533935546875,1.0,1.0,1.0,1.0,1.0,25.0,
2023-09-07 23:45:53.501,0.9554059,0.26374054,-0.19194776,0.7404243,0.78760874,0.34396812,-0.17226115,0.7055721,0.9365869,0.42832762,0.2969802,0.7191337,0.6139552,0.36092168,0.41628066,0.6755863,0.27856693,0.13383803,0.34472325,0.26050922,792.5641,788.5348,793.36993,796.1905,648.71796,0.49163818359375,0.06671142578125,0.8560791015625,4.224395751953125,-2.1234130859375,-1.173858642578125,1.0,1.0,1.0,1.0,1.0,25.0,
2023-09-07 23:45:53.501,0.9326626,0.24492697,-0.18942311,0.7200031,0.7675653,0.34151423,-0.131639,0.6832707,0.9365869,0.42832762,0.2965063,0.7191337,0.60162693,0.36998746,0.4189016,0.6620868,0.2910936,0.13941309,0.3334685,0.2866797,796.99634,790.14655,793.7729,807.8755,840.5128,0.49163818359375,0.06671142578125,0.8560791015625,4.224395751953125,-2.1234130859375,-1.173858642578125,1.0,1.0,1.0,1.0,1.0,25.0,
2023-09-07 23:45:53.539,0.9326626,0.24492697,-0.18942311,0.7200031,0.7675653,0.34151423,-0.131639,0.6832707,0.9365869,0.42832762,0.2965063,0.7191337,0.60162693,0.36998746,0.4189016,0.6620868,0.2910936,0.13941309,0.3334685,0.2866797,809.4872,797.8022,799.81683,805.8608,763.5531,0.49786376953125,0.06134033203125,0.8565673828125,4.613189697265625,-3.6187744140625,-1.009368896484375,1.0,1.0,1.0,1.0,1.0,25.0,
2023-09-07 23:45:53.568,0.9326626,0.24492697,-0.18942311,0.7200031,0.7675653,0.34151423,-0.131639,0.6832707,0.9365869,0.42832762,0.2965063,0.7191337,0.60162693,0.36998746,0.4189016,0.6620868,0.2910936,0.13941309,0.3334685,0.2866797,803.44324,792.5641,790.54944,806.26373,882.4176,0.50689697265625,0.06298828125,0.8536376953125,5.0543212890625,-3.6187744140625,-0.635528564453125,1.0,1.0,1.0,1.0,1.0,25.0,
2023-09-07 23:45:53.570,0.90922207,0.23346521,-0.19942199,0.7032545,0.7451127,0.32599777,-0.102466375,0.66084427,0.9365869,0.42832762,0.2965063,0.7191337,0.59168136,0.38052708,0.41760275,0.6515941,0.29941598,0.14122835,0.32424292,0.30400392,788.5348,795.78754,786.1172,808.2784,707.5458,0.50689697265625,0.06298828125,0.8536376953125,5.0543212890625,-3.6187744140625,-0.635528564453125,1.0,1.0,1.0,1.0,1.0,25.0,
2023-09-07 23:45:53.636,0.90922207,0.23346521,-0.19942199,0.7032545,0.7451127,0.32599777,-0.102466375,0.66084427,0.9365869,0.42832762,0.2965063,0.7191337,0.59168136,0.38052708,0.41760275,0.6515941,0.29941598,0.14122835,0.32424292,0.30400392,717.2161,781.685,791.3553,704.7253,796.1905,0.50091552734375,0.066162109375,0.8524169921875,4.822540283203125,-1.338348388671875,-0.13458251953125,1.0,1.0,1.0,1.0,1.0,25.0,
2023-09-07 23:45:53.639,0.9069978,0.22647491,-0.21895616,0.7032545,0.7345763,0.28682372,-0.09015153,0.66084427,0.9365869,0.42554855,0.2965063,0.7191337,0.5850379,0.39068976,0.4098508,0.6515941,0.2962851,0.14246978,0.31502986,0.30400392,687.8022,778.86444,803.0403,684.57874,783.2967,0.50091552734375,0.066162109375,0.8524169921875,4.822540283203125,-1.338348388671875,-0.13458251953125,1.0,1.0,1.0,1.0,1.0,25.0,
2023-09-07 23:45:53.719,0.9069978,0.22647491,-0.21895616,0.7032545,0.7345763,0.28682372,-0.09015153,0.66084427,0.9365869,0.42554855,0.2965063,0.7191337,0.5850379,0.39068976,0.4098508,0.6515941,0.2962851,0.14246978,0.31502986,0.30400392,710.7692,793.36993,801.8315,701.50183,649.92676,0.49017333984375,0.06524658203125,0.85693359375,4.358978271484375,-1.996307373046875,-0.19439697265625,1.0,1.0,1.0,1.0,1.0,25.0,
2023-09-07 23:45:53.760,0.9069978,0.22647491,-0.21895616,0.7032545,0.7345763,0.28682372,-0.09015153,0.66084427,0.9365869,0.42554855,0.2965063,0.7191337,0.5850379,0.39068976,0.4098508,0.6515941,0.2962851,0.14246978,0.31502986,0.30400392,759.5238,803.44324,801.8315,765.16486,776.04395,0.49725341796875,0.06658935546875,0.85711669921875,4.41131591796875,-2.639312744140625,-0.76263427734375,1.0,1.0,1.0,1.0,1.0,25.0,
2023-09-07 23:45:53.767,0.87494737,0.21161816,-0.24856885,0.67969215,0.68444,0.2243429,-0.08759421,0.62274253,0.9335547,0.4065368,0.2965063,0.71093524,0.5605696,0.39700872,0.39710522,0.6548856,0.29058886,0.14322674,0.29865566,0.30439466,778.86444,801.02563,781.685,796.5934,991.6117,0.49725341796875,0.06658935546875,0.85711669921875,4.41131591796875,-2.639312744140625,-0.76263427734375,1.0,1.0,1.0,1.0,1.0,25.0,
2023-09-07 23:45:53.804,0.87494737,0.21161816,-0.24856885,0.67969215,0.68444,0.2243429,-0.08759421,0.62274253,0.9335547,0.4065368,0.2965063,0.71093524,0.5605696,0.39700872,0.39710522,0.6548856,0.29058886,0.14322674,0.29865566,0.30439466,802.6374,806.26373,793.36993,801.4286,820.7692,0.4930419921875,0.0672607421875,0.84991455078125,4.5159912109375,-3.207550048828125,-0.9271240234375,1.0,1.0,1.0,1.0,1.0,25.0,
2023-09-07 23:45:53.878,0.87494737,0.21161816,-0.24856885,0.67969215,0.68444,0.2243429,-0.08759421,0.62274253,0.9335547,0.4065368,0.2965063,0.71093524,0.5605696,0.39700872,0.39710522,0.6548856,0.29058886,0.14322674,0.29865566,0.30439466,823.9927,806.26373,787.326,813.91943,635.42126,0.49383544921875,0.06573486328125,0.8558349609375,4.388885498046875,-3.461761474609375,-1.36077880859375,1.0,1.0,1.0,1.0,1.0,25.0,
2023-09-07 23:45:53.884,0.8057307,0.19498056,-0.2916944,0.6290959,0.59446853,0.15978302,-0.086726986,0.55120355,0.87266916,0.38182166,0.2965063,0.6790985,0.521546,0.3976143,0.38597035,0.6508564,0.2839498,0.14044599,0.27003056,0.30589744,831.6484,798.60803,794.57874,834.87177,927.1429,0.49383544921875,0.06573486328125,0.8558349609375,4.388885498046875,-3.461761474609375,-1.36077880859375,1.0,1.0,1.0,1.0,1.0,25.0,
2023-09-07 23:45:53.961,0.8057307,0.19498056,-0.2916944,0.6290959,0.59446853,0.15978302,-0.086726986,0.55120355,0.87266916,0.38182166,0.2965063,0.6790985,0.521546,0.3976143,0.38597035,0.6508564,0.2839498,0.14044599,0.27003056,0.30589744,826.8132,792.1612,788.1319,831.2454,885.2381,0.50506591796875,0.06085205078125,0.85931396484375,4.127197265625,-3.147735595703125,-0.91217041015625,1.0,1.0,1.0,1.0,1.0,25.0,
2023-09-07 23:45:53.968,0.70316994,0.20146054,-0.33663955,0.55311316,0.49008104,0.1352659,-0.085457094,0.4664305,0.75010246,0.39115974,0.2965063,0.6661376,0.47974414,0.3936827,0.3852122,0.639282,0.28135416,0.1300183,0.22940698,0.3115039,821.1722,790.9524,796.5934,813.91943,645.89746,0.50506591796875,0.06085205078125,0.85931396484375,4.127197265625,-3.147735595703125,-0.91217041015625,1.0,1.0,1.0,1.0,1.0,25.0,
2023-09-07 23:45:54.008,0.70316994,0.20146054,-0.33663955,0.55311316,0.49008104,0.1352659,-0.085457094,0.4664305,0.75010246,0.39115974,0.2965063,0.6661376,0.47974414,0.3936827,0.3852122,0.639282,0.28135416,0.1300183,0.22940698,0.3115039,826.4103,789.34064,800.2198,817.1429,753.8828,0.5001220703125,0.06060791015625,0.84979248046875,4.972076416015625,-2.34771728515625,-0.5084228515625,1.0,1.0,1.0,1.0,1.0,25.0,
2023-09-07 23:45:54.056,0.70316994,0.20146054,-0.33663955,0.55311316,0.49008104,0.1352659,-0.085457094,0.4664305,0.75010246,0.39115974,0.2965063,0.6661376,0.47974414,0.3936827,0.3852122,0.639282,0.28135416,0.1300183,0.22940698,0.3115039,821.5751,790.14655,778.86444,838.49817,1132.6373,0.498291015625,0.0618896484375,0.85107421875,4.837493896484375,-2.818756103515625,-0.61309814453125,1.0,1.0,1.0,1.0,1.0,25.0,
2023-09-07 23:45:54.091,0.70316994,0.20146054,-0.33663955,0.55311316,0.49008104,0.1352659,-0.085457094,0.4664305,0.75010246,0.39115974,0.2965063,0.6661376,0.47974414,0.3936827,0.3852122,0.639282,0.28135416,0.1300183,0.22940698,0.3115039,826.4103,795.78754,794.9817,811.50183,763.95605,0.48931884765625,0.0623779296875,0.8505859375,4.725341796875,-3.386993408203125,-0.635528564453125,1.0,1.0,1.0,1.0,1.0,25.0,
2023-09-07 23:45:54.092,0.5868504,0.2617578,-0.3468236,0.463337,0.4098531,0.17054139,-0.08422222,0.39805233,0.6740209,0.42258474,0.2964409,0.6602651,0.44735584,0.3900501,0.39720255,0.618248,0.288594,0.110235386,0.18111102,0.32440004,830.84247,802.6374,794.57874,823.9927,705.12823,0.48931884765625,0.0623779296875,0.8505859375,4.725341796875,-3.386993408203125,-0.635528564453125,1.0,1.0,1.0,1.0,1.0,25.0,
2023-09-07 23:45:54.193,0.5868504,0.2617578,-0.3468236,0.463337,0.4098531,0.17054139,-0.08422222,0.39805233,0.6740209,0.42258474,0.2964409,0.6602651,0.44735584,0.3900501,0.39720255,0.618248,0.288594,0.110235386,0.18111102,0.32440004,802.6374,805.8608,787.72894,804.2491,650.32965,0.49774169921875,0.0667724609375,0.85040283203125,4.80010986328125,-4.164581298828125,-0.740203857421875,1.0,1.0,1.0,1.0,1.0,25.0,
2023-09-07 23:45:54.196,0.48660365,0.3575423,-0.3042636,0.37652805,0.36480132,0.23215118,-0.081760935,0.3522563,0.6231634,0.42798835,0.2753324,0.6359647,0.42698336,0.39239824,0.414267,0.58718306,0.30729887,0.085003346,0.13200705,0.3439435,804.65204,797.8022,790.14655,808.2784,666.8498,0.49774169921875,0.0667724609375,0.85040283203125,4.80010986328125,-4.164581298828125,-0.740203857421875,1.0,1.0,1.0,1.0,1.0,25.0,
2023-09-07 23:45:54.261,0.48660365,0.3575423,-0.3042636,0.37652805,0.36480132,0.23215118,-0.081760935,0.3522563,0.6231634,0.42798835,0.2753324,0.6359647,0.42698336,0.39239824,0.414267,0.58718306,0.30729887,0.085003346,0.13200705,0.3439435,802.23444,804.2491,788.1319,801.4286,690.2198,0.5106201171875,0.0655517578125,0.86199951171875,4.254302978515625,-4.32159423828125,-0.82244873046875,1.0,1.0,1.0,1.0,1.0,25.0,
2023-09-07 23:45:54.277,0.48660365,0.3575423,-0.3042636,0.37652805,0.36480132,0.23215118,-0.081760935,0.3522563,0.6231634,0.42798835,0.2753324,0.6359647,0.42698336,0.39239824,0.414267,0.58718306,0.30729887,0.085003346,0.13200705,0.3439435,800.2198,800.2198,787.72894,803.44324,591.9048,0.50787353515625,0.06060791015625,0.8511962890625,3.985137939453125,-1.77947998046875,-0.897216796875,1.0,1.0,1.0,1.0,1.0,25.0,
2023-09-07 23:45:54.281,0.42220938,0.44958115,-0.23855844,0.30563194,0.33107743,0.2787943,-0.07708339,0.3072397,0.59731287,0.3959569,0.22091596,0.5774125,0.4125541,0.40115175,0.4269705,0.5508464,0.33434042,0.06140165,0.0901281,0.36750656,787.72894,794.57874,796.1905,798.20514,698.2784,0.50787353515625,0.06060791015625,0.8511962890625,3.985137939453125,-1.77947998046875,-0.897216796875,1.0,1.0,1.0,1.0,1.0,25.0,
2023-09-07 23:45:54.313,0.42220938,0.44958115,-0.23855844,0.30563194,0.33107743,0.2787943,-0.07708339,0.3072397,0.59731287,0.3959569,0.22091596,0.5774125,0.4125541,0.40115175,0.4269705,0.5508464,0.33434042,0.06140165,0.0901281,0.36750656,797.8022,790.14655,802.6374,807.8755,925.9341,0.499267578125,0.05816650390625,0.845703125,4.149627685546875,-2.0037841796875,-1.71966552734375,1.0,1.0,1.0,1.0,1.0,25.0,
2023-09-07 23:45:54.371,0.42220938,0.44958115,-0.23855844,0.30563194,0.33107743,0.2787943,-0.07708339,0.3072397,0.59731287,0.3959569,0.22091596,0.5774125,0.4125541,0.40115175,0.4269705,0.5508464,0.33434042,0.06140165,0.0901281,0.36750656,805.4579,794.9817,794.9817,798.60803,764.7619,0.494140625,0.06427001953125,0.8553466796875,4.673004150390625,-3.252410888671875,-0.8074951171875,1.0,1.0,1.0,1.0,1.0,25.0,
2023-09-07 23:45:54.375,0.39944327,0.5132081,-0.18136133,0.26264137,0.3081103,0.29555959,-0.07114485,0.25994653,0.5932215,0.3669889,0.20514745,0.5072321,0.40035644,0.4095901,0.4317539,0.51955664,0.36431682,0.042152036,0.06335449,0.39517754,799.41394,796.1905,794.57874,795.38464,722.4542,0.494140625,0.06427001953125,0.8553466796875,4.673004150390625,-3.252410888671875,-0.8074951171875,1.0,1.0,1.0,1.0,1.0,25.0,
2023-09-07 23:45:54.484,0.39944327,0.5132081,-0.18136133,0.26264137,0.3081103,0.29555959,-0.07114485,0.25994653,0.5932215,0.3669889,0.20514745,0.5072321,0.40035644,0.4095901,0.4317539,0.51955664,0.36431682,0.042152036,0.06335449,0.39517754,804.65204,790.54944,794.17584,793.7729,704.3223,0.5074462890625,0.06182861328125,0.85089111328125,5.1739501953125,-3.895416259765625,-0.7476806640625,1.0,1.0,1.0,1.0,1.0,25.0,
2023-09-07 23:45:54.490,0.40753278,0.5502227,-0.14203164,0.25983664,0.3071243,0.28893775,-0.06782933,0.22587763,0.5915415,0.34878242,0.1617607,0.45529112,0.39304435,0.41127825,0.43152872,0.49980897,0.3902045,0.024594506,0.054294206,0.42885923,838.0952,799.81683,794.57874,822.381,566.52014,0.5074462890625,0.06182861328125,0.85089111328125,5.1739501953125,-3.895416259765625,-0.7476806640625,1.0,1.0,1.0,1.0,1.0,25.0,
2023-09-07 23:45:54.522,0.40753278,0.5502227,-0.14203164,0.25983664,0.3071243,0.28893775,-0.06782933,0.22587763,0.5915415,0.34878242,0.1617607,0.45529112,0.39304435,0.41127825,0.43152872,0.49980897,0.3902045,0.024594506,0.054294206,0.42885923,825.6044,794.57874,802.23444,833.2601,735.7509,0.505859375,0.06219482421875,0.85650634765625,4.59075927734375,-2.6019287109375,-0.64300537109375,1.0,1.0,1.0,1.0,1.0,25.0,
2023-09-07 23:45:54.592,0.40753278,0.5502227,-0.14203164,0.25983664,0.3071243,0.28893775,-0.06782933,0.22587763,0.5915415,0.34878242,0.1617607,0.45529112,0.39304435,0.41127825,0.43152872,0.49980897,0.3902045,0.024594506,0.054294206,0.42885923,809.4872,802.6374,790.54944,810.696,689.011,0.49749755859375,0.06536865234375,0.85418701171875,4.5758056640625,-2.310333251953125,-1.21124267578125,1.0,1.0,1.0,1.0,1.0,25.0,
2023-09-07 23:45:54.599,0.43122733,0.570487,-0.11073622,0.28609988,0.3238113,0.27333942,-0.07015589,0.21278214,0.57173973,0.33663327,0.114786565,0.4307398,0.3915689,0.40476948,0.4311584,0.48656178,0.40640303,0.005140308,0.05580428,0.46464953,803.8461,803.0403,794.57874,801.4286,770.40295,0.49749755859375,0.06536865234375,0.85418701171875,4.5758056640625,-2.310333251953125,-1.21124267578125,1.0,1.0,1.0,1.0,1.0,25.0,
2023-09-07 23:45:54.631,0.43122733,0.570487,-0.11073622,0.28609988,0.3238113,0.27333942,-0.07015589,0.21278214,0.57173973,0.33663327,0.114786565,0.4307398,0.3915689,0.40476948,0.4311584,0.48656178,0.40640303,0.005140308,0.05580428,0.46464953,810.293,800.2198,795.78754,798.60803,725.2747,0.4970703125,0.06024169921875,0.8487548828125,3.81317138671875,-3.050537109375,-2.55706787109375,1.0,1.0,1.0,1.0,1.0,25.0,
2023-09-07 23:45:54.713,0.43122733,0.570487,-0.11073622,0.28609988,0.3238113,0.27333942,-0.07015589,0.21278214,0.57173973,0.33663327,0.114786565,0.4307398,0.3915689,0.40476948,0.4311584,0.48656178,0.40640303,0.005140308,0.05580428,0.46464953,796.99634,812.71063,773.6264,796.99634,756.7033,0.50079345703125,0.063720703125,0.8531494140625,4.4561767578125,-2.5421142578125,-2.130889892578125,1.0,1.0,1.0,1.0,1.0,25.0,
2023-09-07 23:45:54.715,0.43692824,0.5870496,-0.08963887,0.3140455,0.33679754,0.25838357,-0.08342888,0.21430436,0.51845825,0.3316211,0.09353367,0.4139551,0.39500397,0.39265773,0.43333513,0.47382894,0.4131338,-0.01628083,0.06068943,0.49317995,798.20514,800.6227,782.0879,795.38464,738.5714,0.50079345703125,0.063720703125,0.8531494140625,4.4561767578125,-2.5421142578125,-2.130889892578125,1.0,1.0,1.0,1.0,1.0,25.0,
2023-09-07 23:45:54.777,0.43692824,0.5870496,-0.08963887,0.3140455,0.33679754,0.25838357,-0.08342888,0.21430436,0.51845825,0.3316211,0.09353367,0.4139551,0.39500397,0.39265773,0.43333513,0.47382894,0.4131338,-0.01628083,0.06068943,0.49317995,807.0696,799.011,793.36993,823.5897,1048.8279,0.50030517578125,0.0601806640625,0.85504150390625,4.074859619140625,-2.82623291015625,-0.680389404296875,1.0,1.0,1.0,1.0,1.0,25.0,
2023-09-07 23:45:54.806,0.43692824,0.5870496,-0.08963887,0.3140455,0.33679754,0.25838357,-0.08342888,0.21430436,0.51845825,0.3316211,0.09353367,0.4139551,0.39500397,0.39265773,0.43333513,0.47382894,0.4131338,-0.01628083,0.06068943,0.49317995,794.9817,792.96704,800.6227,803.44324,804.2491,0.504150390625,0.06121826171875,0.85211181640625,4.80010986328125,-2.639312744140625,-0.874786376953125,1.0,1.0,1.0,1.0,1.0,25.0,
2023-09-07 23:45:54.808,0.43692824,0.60680455,-0.0744998,0.3140455,0.33679754,0.24568722,-0.112148866,0.21430436,0.51845825,0.3316211,0.0906109,0.4139551,0.39500397,0.37896234,0.43928364,0.47382894,0.4131338,-0.038570795,0.07083693,0.49317995,793.36993,796.99634,786.1172,801.02563,776.04395,0.504150390625,0.06121826171875,0.85211181640625,4.80010986328125,-2.639312744140625,-0.874786376953125,1.0,1.0,1.0,1.0,1.0,25.0,
2023-09-07 23:45:54.860,0.43692824,0.60680455,-0.0744998,0.3140455,0.33679754,0.24568722,-0.112148866,0.21430436,0.51845825,0.3316211,0.0906109,0.4139551,0.39500397,0.37896234,0.43928364,0.47382894,0.4131338,-0.038570795,0.07083693,0.49317995,804.65204,794.9817,783.69965,786.9231,655.16486,0.4986572265625,0.06414794921875,0.847412109375,5.323486328125,-1.562652587890625,-0.79254150390625,1.0,1.0,1.0,1.0,1.0,25.0,
2023-09-07 23:45:54.928,0.43692824,0.60680455,-0.0744998,0.3140455,0.33679754,0.24568722,-0.112148866,0.21430436,0.51845825,0.3316211,0.0906109,0.4139551,0.39500397,0.37896234,0.43928364,0.47382894,0.4131338,-0.038570795,0.07083693,0.49317995,792.1612,797.3993,793.36993,797.3993,848.5714,0.491943359375,0.0662841796875,0.85614013671875,4.687957763671875,-2.28790283203125,0.022430419921875,1.0,1.0,1.0,1.0,1.0,25.0,
2023-09-07 23:45:54.932,0.43692824,0.6235911,-0.05835855,0.3140455,0.33679754,0.23586096,-0.15150002,0.21430436,0.51845825,0.3316211,0.13170737,0.4139551,0.39500397,0.3687955,0.44960928,0.47382894,0.4131338,-0.060005333,0.09174867,0.49317995,799.81683,794.9817,798.20514,787.326,699.0842,0.491943359375,0.0662841796875,0.85614013671875,4.687957763671875,-2.28790283203125,0.022430419921875,1.0,1.0,1.0,1.0,1.0,25.0,
2023-09-07 23:45:54.994,0.43692824,0.6235911,-0.05835855,0.3140455,0.33679754,0.23586096,-0.15150002,0.21430436,0.51845825,0.3316211,0.13170737,0.4139551,0.39500397,0.3687955,0.44960928,0.47382894,0.4131338,-0.060005333,0.09174867,0.49317995,797.3993,792.1612,786.9231,788.93774,703.1135,0.499267578125,0.06463623046875,0.85614013671875,4.762725830078125,-4.149627685546875,-0.07476806640625,1.0,1.0,1.0,1.0,1.0,25.0,
2023-09-07 23:45:54.999,0.43692824,0.6324454,-0.031300664,0.3140455,0.33679754,0.23013799,-0.18656175,0.21430436,0.51845825,0.3316211,0.18080144,0.4139551,0.39500397,0.369023,0.4639897,0.47382894,0.4131338,-0.074843556,0.12231085,0.49317995,812.3077,799.011,795.78754,805.05493,726.8865,0.499267578125,0.06463623046875,0.85614013671875,4.762725830078125,-4.149627685546875,-0.07476806640625,1.0,1.0,1.0,1.0,1.0,25.0,
2023-09-07 23:45:55.040,0.43692824,0.6324454,-0.031300664,0.3140455,0.33679754,0.23013799,-0.18656175,0.21430436,0.51845825,0.3316211,0.18080144,0.4139551,0.39500397,0.369023,0.4639897,0.47382894,0.4131338,-0.074843556,0.12231085,0.49317995,797.8022,793.36993,784.5055,794.9817,704.7253,0.5074462890625,0.06427001953125,0.84869384765625,4.927215576171875,-3.0804443359375,-1.173858642578125,1.0,1.0,1.0,1.0,1.0,25.0,
2023-09-07 23:45:55.069,0.43692824,0.6324454,-0.031300664,0.3140455,0.33679754,0.23013799,-0.18656175,0.21430436,0.51845825,0.3316211,0.18080144,0.4139551,0.39500397,0.369023,0.4639897,0.47382894,0.4131338,-0.074843556,0.12231085,0.49317995,793.36993,779.2674,792.5641,786.52014,797.8022,0.5064697265625,0.06414794921875,0.8536376953125,4.74029541015625,-2.011260986328125,-0.79254150390625,1.0,1.0,1.0,1.0,1.0,25.0,
2023-09-07 23:45:55.076,0.43692824,0.62778246,0.0032707218,0.3140455,0.33679754,0.22987184,-0.20271882,0.21430436,0.51845825,0.3348124,0.2050182,0.4139551,0.39500397,0.38207948,0.48205438,0.47382894,0.4131338,-0.07534709,0.15459566,0.49317995,804.2491,790.9524,795.78754,808.2784,940.0366,0.5064697265625,0.06414794921875,0.8536376953125,4.74029541015625,-2.011260986328125,-0.79254150390625,1.0,1.0,1.0,1.0,1.0,25.0,
2023-09-07 23:45:55.107,0.43692824,0.62778246,0.0032707218,0.3140455,0.33679754,0.22987184,-0.20271882,0.21430436,0.51845825,0.3348124,0.2050182,0.4139551,0.39500397,0.38207948,0.48205438,0.47382894,0.4131338,-0.07534709,0.15459566,0.49317995,798.60803,795.38464,800.6227,806.26373,753.47986,0.49444580078125,0.06634521484375,0.85552978515625,4.358978271484375,-2.392578125,-1.099090576171875,1.0,1.0,1.0,1.0,1.0,25.0,
2023-09-07 23:45:55.173,0.43692824,0.62778246,0.0032707218,0.3140455,0.33679754,0.22987184,-0.20271882,0.21430436,0.51845825,0.3348124,0.2050182,0.4139551,0.39500397,0.38207948,0.48205438,0.47382894,0.4131338,-0.07534709,0.15459566,0.49317995,794.9817,784.5055,801.4286,804.2491,809.0842,0.50213623046875,0.05841064453125,0.85260009765625,4.42626953125,-3.1103515625,-1.143951416015625,1.0,1.0,1.0,1.0,1.0,25.0,
2023-09-07 23:45:55.181,0.43692824,0.6137655,0.03502642,0.3140455,0.33679754,0.23410377,-0.2031869,0.21430436,0.51845825,0.3163811,0.23640203,0.4139551,0.39500397,0.399784,0.50253123,0.47382894,0.4131338,-0.06195698,0.18182825,0.49317995,798.20514,799.81683,783.69965,799.41394,769.59705,0.50213623046875,0.05841064453125,0.85260009765625,4.42626953125,-3.1103515625,-1.143951416015625,1.0,1.0,1.0,1.0,1.0,25.0,
2023-09-07 23:45:55.274,0.43692824,0.6137655,0.03502642,0.3140455,0.33679754,0.23410377,-0.2031869,0.21430436,0.51845825,0.3163811,0.23640203,0.4139551,0.39500397,0.399784,0.50253123,0.47382894,0.4131338,-0.06195698,0.18182825,0.49317995,788.93774,791.3553,780.87915,796.1905,714.3956,0.50732421875,0.06170654296875,0.84283447265625,5.151519775390625,-2.79632568359375,-0.590667724609375,1.0,1.0,1.0,1.0,1.0,25.0,
2023-09-07 23:45:55.308,0.43692824,0.6137655,0.03502642,0.3140455,0.33679754,0.23410377,-0.2031869,0.21430436,0.51845825,0.3163811,0.23640203,0.4139551,0.39500397,0.399784,0.50253123,0.47382894,0.4131338,-0.06195698,0.18182825,0.49317995,791.75824,794.57874,803.44324,794.57874,660.80585,0.5008544921875,0.0723876953125,0.859130859375,5.136566162109375,-2.22808837890625,-0.411224365234375,1.0,1.0,1.0,1.0,1.0,25.0,
2023-09-07 23:45:55.309,1.0943232,0.59831756,0.05563885,1.1441597,0.7909634,0.23957057,-0.203726,0.8275635,0.5995048,0.2912273,0.25238487,0.58713144,0.42819872,0.41025248,0.5222178,0.767684,0.17814018,-0.04350188,0.20324796,0.38885748,799.81683,792.96704,807.47253,795.78754,664.43225,0.5008544921875,0.0723876953125,0.859130859375,5.136566162109375,-2.22808837890625,-0.411224365234375,1.0,1.0,1.0,1.0,1.0,25.0,
2023-09-07 23:45:55.342,1.0943232,0.59831756,0.05563885,1.1441597,0.7909634,0.23957057,-0.203726,0.8275635,0.5995048,0.2912273,0.25238487,0.58713144,0.42819872,0.41025248,0.5222178,0.767684,0.17814018,-0.04350188,0.20324796,0.38885748,747.8388,786.52014,793.7729,734.94507,649.92676,0.4984130859375,0.06719970703125,0.851806640625,4.000091552734375,-1.854248046875,-0.5682373046875,1.0,1.0,1.0,1.0,1.0,25.0,
2023-09-07 23:45:55.413,1.0943232,0.59831756,0.05563885,1.1441597,0.7909634,0.23957057,-0.203726,0.8275635,0.5995048,0.2912273,0.25238487,0.58713144,0.42819872,0.41025248,0.5222178,0.767684,0.17814018,-0.04350188,0.20324796,0.38885748,770.80585,790.54944,785.7143,779.67035,664.0293,0.4969482421875,0.06353759765625,0.85235595703125,4.5159912109375,-2.13836669921875,-1.39068603515625,1.0,1.0,1.0,1.0,1.0,25.0,
2023-09-07 23:45:55.415,1.0135695,0.58673066,0.065338634,1.0609746,0.7275158,0.23998061,-0.21578506,0.77438015,0.6137908,0.28641257,0.25238487,0.58713144,0.42463624,0.40845177,0.53654504,0.7549577,0.16596422,-0.027728202,0.2180877,0.38828892,775.64105,792.1612,788.93774,771.2088,676.9231,0.4969482421875,0.06353759765625,0.85235595703125,4.5159912109375,-2.13836669921875,-1.39068603515625,1.0,1.0,1.0,1.0,1.0,25.0,
2023-09-07 23:45:55.507,1.0135695,0.58673066,0.065338634,1.0609746,0.7275158,0.23998061,-0.21578506,0.77438015,0.6137908,0.28641257,0.25238487,0.58713144,0.42463624,0.40845177,0.53654504,0.7549577,0.16596422,-0.027728202,0.2180877,0.38828892,790.9524,795.38464,792.1612,796.1905,817.9487,0.4989013671875,0.06781005859375,0.854736328125,4.822540283203125,-2.52716064453125,-1.697235107421875,1.0,1.0,1.0,1.0,1.0,25.0,
2023-09-07 23:45:55.511,0.96140105,0.5768978,0.06775193,0.9992402,0.6757477,0.22346908,-0.23814431,0.7367513,0.68858063,0.28641257,0.25238487,0.6056995,0.42923045,0.39803806,0.54151356,0.72870535,0.1562526,-0.0180355,0.22209904,0.38052353,798.20514,806.26373,795.38464,800.2198,757.50916,0.4989013671875,0.06781005859375,0.854736328125,4.822540283203125,-2.52716064453125,-1.697235107421875,1.0,1.0,1.0,1.0,1.0,25.0,
2023-09-07 23:45:55.544,0.96140105,0.5768978,0.06775193,0.9992402,0.6757477,0.22346908,-0.23814431,0.7367513,0.68858063,0.28641257,0.25238487,0.6056995,0.42923045,0.39803806,0.54151356,0.72870535,0.1562526,-0.0180355,0.22209904,0.38052353,798.20514,796.5934,795.78754,803.8461,923.5165,0.49713134765625,0.06689453125,0.8583984375,4.4561767578125,-2.61688232421875,-0.934600830078125,1.0,1.0,1.0,1.0,1.0,25.0,
2023-09-07 23:45:55.619,0.96140105,0.5768978,0.06775193,0.9992402,0.6757477,0.22346908,-0.23814431,0.7367513,0.68858063,0.28641257,0.25238487,0.6056995,0.42923045,0.39803806,0.54151356,0.72870535,0.1562526,-0.0180355,0.22209904,0.38052353,794.9817,794.9817,789.34064,799.011,772.8205,0.49871826171875,0.0614013671875,0.8555908203125,4.403839111328125,-2.310333251953125,-0.785064697265625,1.0,1.0,1.0,1.0,1.0,25.0,
2023-09-07 23:45:55.623,0.96190065,0.54949266,0.059687797,0.9870585,0.65951264,0.17884502,-0.25966245,0.7394912,0.7756858,0.28172246,0.25013283,0.6619311,0.43650994,0.38445503,0.5379895,0.6948104,0.155145,-0.015149683,0.21245675,0.36618504,794.57874,790.14655,777.25275,798.60803,949.707,0.49871826171875,0.0614013671875,0.8555908203125,4.403839111328125,-2.310333251953125,-0.785064697265625,1.0,1.0,1.0,1.0,1.0,25.0,
2023-09-07 23:45:55.658,0.96190065,0.54949266,0.059687797,0.9870585,0.65951264,0.17884502,-0.25966245,0.7394912,0.7756858,0.28172246,0.25013283,0.6619311,0.43650994,0.38445503,0.5379895,0.6948104,0.155145,-0.015149683,0.21245675,0.36618504,801.4286,801.4286,801.8315,797.3993,733.73627,0.49237060546875,0.06121826171875,0.85186767578125,4.6954345703125,-2.026214599609375,-0.695343017578125,1.0,1.0,1.0,1.0,1.0,25.0,
2023-09-07 23:45:55.704,0.96190065,0.54949266,0.059687797,0.9870585,0.65951264,0.17884502,-0.25966245,0.7394912,0.7756858,0.28172246,0.25013283,0.6619311,0.43650994,0.38445503,0.5379895,0.6948104,0.155145,-0.015149683,0.21245675,0.36618504,794.57874,807.0696,799.41394,798.60803,632.6007,0.49407958984375,0.0655517578125,0.85589599609375,5.121612548828125,-3.162689208984375,-0.22430419921875,1.0,1.0,1.0,1.0,1.0,25.0,
2023-09-07 23:45:55.710,1.0100797,0.49438444,0.038835123,1.0263674,0.6845184,0.10753636,-0.27106893,0.7805351,0.8484076,0.24776904,0.25013283,0.8164081,0.44274673,0.37001157,0.533144,0.6619483,0.15615901,-0.019125197,0.1946322,0.34828022,792.1612,801.4286,792.96704,790.54944,664.43225,0.49407958984375,0.0655517578125,0.85589599609375,5.121612548828125,-3.162689208984375,-0.22430419921875,1.0,1.0,1.0,1.0,1.0,25.0,
2023-09-07 23:45:55.807,1.0100797,0.49438444,0.038835123,1.0263674,0.6845184,0.10753636,-0.27106893,0.7805351,0.8484076,0.24776904,0.25013283,0.8164081,0.44274673,0.37001157,0.533144,0.6619483,0.15615901,-0.019125197,0.1946322,0.34828022,789.7436,801.4286,790.54944,781.685,575.38464,0.49554443359375,0.06671142578125,0.857177734375,4.822540283203125,-3.536529541015625,-0.43365478515625,1.0,1.0,1.0,1.0,1.0,25.0,
2023-09-07 23:45:55.814,1.0732596,0.41519254,0.010044292,1.0857176,0.7231034,0.026376726,-0.26946005,0.8287009,0.8881373,0.15811251,0.25013283,0.9132545,0.4462384,0.35816413,0.53482395,0.6340541,0.1524297,-0.026420994,0.1789723,0.3304577,793.7729,800.6227,789.7436,792.96704,568.5348,0.49554443359375,0.06671142578125,0.857177734375,4.822540283203125,-3.536529541015625,-0.43365478515625,1.0,1.0,1.0,1.0,1.0,25.0,
2023-09-07 23:45:55.845,1.0732596,0.41519254,0.010044292,1.0857176,0.7231034,0.026376726,-0.26946005,0.8287009,0.8881373,0.15811251,0.25013283,0.9132545,0.4462384,0.35816413,0.53482395,0.6340541,0.1524297,-0.026420994,0.1789723,0.3304577,792.5641,796.5934,790.9524,800.2198,832.4542,0.5059814453125,0.06488037109375,0.84906005859375,4.732818603515625,-3.3197021484375,-0.83740234375,1.0,1.0,1.0,1.0,1.0,25.0,
2023-09-07 23:45:55.860,1.0732596,0.41519254,0.010044292,1.0857176,0.7231034,0.026376726,-0.26946005,0.8287009,0.8881373,0.15811251,0.25013283,0.9132545,0.4462384,0.35816413,0.53482395,0.6340541,0.1524297,-0.026420994,0.1789723,0.3304577,803.44324,804.2491,791.75824,799.011,848.5714,0.5032958984375,0.0654296875,0.85784912109375,4.224395751953125,-2.7813720703125,-1.30096435546875,1.0,1.0,1.0,1.0,1.0,25.0,
2023-09-07 23:45:55.930,1.0732596,0.41519254,0.010044292,1.0857176,0.7231034,0.026376726,-0.26946005,0.8287009,0.8881373,0.15811251,0.25013283,0.9132545,0.4462384,0.35816413,0.53482395,0.6340541,0.1524297,-0.026420994,0.1789723,0.3304577,819.15753,805.05493,796.99634,803.44324,693.0403,0.49798583984375,0.06451416015625,0.84893798828125,5.001983642578125,-1.8243408203125,-1.039276123046875,1.0,1.0,1.0,1.0,1.0,25.0,
2023-09-07 23:45:55.931,1.1236016,0.33573884,-0.018717432,1.1351013,0.7453136,-0.037367504,-0.25918937,0.85722387,0.8976944,0.11106379,0.25283548,0.92253596,0.4466026,0.35340083,0.5439378,0.61054504,0.14481653,-0.031339604,0.17179208,0.31264925,815.9341,808.2784,798.20514,815.9341,726.4835,0.49798583984375,0.06451416015625,0.84893798828125,5.001983642578125,-1.8243408203125,-1.039276123046875,1.0,1.0,1.0,1.0,1.0,25.0,
2023-09-07 23:45:56.043,1.1236016,0.33573884,-0.018717432,1.1351013,0.7453136,-0.037367504,-0.25918937,0.85722387,0.8976944,0.11106379,0.25283548,0.92253596,0.4466026,0.35340083,0.5439378,0.61054504,0.14481653,-0.031339604,0.17179208,0.31264925,805.4579,801.4286,799.81683,811.50183,909.81683,0.49884033203125,0.05938720703125,0.85516357421875,4.50103759765625,-3.342132568359375,-0.897216796875,1.0,1.0,1.0,1.0,1.0,25.0,
2023-09-07 23:45:56.046,1.1423671,0.28314263,-0.043686077,1.154788,0.74081564,-0.068762556,-0.24616382,0.8594128,0.8976944,0.101283446,0.24921893,0.92253596,0.44387597,0.35593635,0.5548331,0.58904845,0.13713059,-0.03257907,0.17094404,0.2936852,799.81683,793.7729,799.41394,814.3223,828.4249,0.49884033203125,0.05938720703125,0.85516357421875,4.50103759765625,-3.342132568359375,-0.897216796875,1.0,1.0,1.0,1.0,1.0,25.0,
2023-09-07 23:45:56.084,1.1423671,0.28314263,-0.043686077,1.154788,0.74081564,-0.068762556,-0.24616382,0.8594128,0.8976944,0.101283446,0.24921893,0.92253596,0.44387597,0.35593635,0.5548331,0.58904845,0.13713059,-0.03257907,0.17094404,0.2936852,799.011,804.2491,803.8461,797.8022,639.45056,0.50067138671875,0.06103515625,0.85614013671875,4.912261962890625,-3.072967529296875,-0.635528564453125,1.0,1.0,1.0,1.0,1.0,25.0,
2023-09-07 23:45:56.114,1.1423671,0.28314263,-0.043686077,1.154788,0.74081564,-0.068762556,-0.24616382,0.8594128,0.8976944,0.101283446,0.24921893,0.92253596,0.44387597,0.35593635,0.5548331,0.58904845,0.13713059,-0.03257907,0.17094404,0.2936852,793.7729,805.05493,799.011,802.23444,741.39197,0.49615478515625,0.068603515625,0.8583984375,5.2935791015625,-2.22808837890625,-0.657958984375,1.0,1.0,1.0,1.0,1.0,25.0,
2023-09-07 23:45:56.117,1.1423671,0.26276746,-0.069679655,1.1470206,0.74081564,-0.07270397,-0.23654255,0.8420337,0.8976944,0.101283446,0.2464985,0.92253596,0.44387597,0.36105266,0.5618306,0.56808686,0.13713059,-0.035948668,0.17273606,0.27407357,791.75824,793.7729,805.05493,811.0989,947.28937,0.49615478515625,0.068603515625,0.8583984375,5.2935791015625,-2.22808837890625,-0.657958984375,1.0,1.0,1.0,1.0,1.0,25.0,
2023-09-07 23:45:56.166,1.1423671,0.26276746,-0.069679655,1.1470206,0.74081564,-0.07270397,-0.23654255,0.8420337,0.8976944,0.101283446,0.2464985,0.92253596,0.44387597,0.36105266,0.5618306,0.56808686,0.13713059,-0.035948668,0.17273606,0.27407357,805.8608,798.20514,799.41394,801.4286,656.77655,0.4993896484375,0.068115234375,0.8526611328125,4.59075927734375,-3.162689208984375,-0.2691650390625,1.0,1.0,1.0,1.0,1.0,25.0,
