TimeStamp,Delta_TP9,Delta_AF7,Delta_AF8,Delta_TP10,Theta_TP9,Theta_AF7,Theta_AF8,Theta_TP10,Alpha_TP9,Alpha_AF7,Alpha_AF8,Alpha_TP10,Beta_TP9,Beta_AF7,Beta_AF8,Beta_TP10,Gamma_TP9,Gamma_AF7,Gamma_AF8,Gamma_TP10,RAW_TP9,RAW_AF7,RAW_AF8,RAW_TP10,AUX_RIGHT,Accelerometer_X,Accelerometer_Y,Accelerometer_Z,Gyro_X,Gyro_Y,Gyro_Z,HeadBandOn,HSI_TP9,HSI_AF7,HSI_AF8,HSI_TP10,Battery,Elements
2023-09-07 23:53:48.030,0.37186202,0.6421623,0.1755537,0.7204601,0.09065749,0.09760205,-0.05375646,0.03191231,0.43704504,0.3910984,-0.007897018,1.1347703,0.32334757,0.56260896,0.7466629,1.1861435,0.6956482,0.41557494,0.6842058,0.61939865,776.4469,792.5641,792.96704,789.7436,824.3956,0.50567626953125,0.005126953125,0.86029052734375,6.62445068359375,-3.671112060546875,-1.36077880859375,1.0,1.0,1.0,1.0,1.0,25.0,
2023-09-07 23:53:48.070,0.37186202,0.56351274,0.1592338,0.7204601,0.09065749,0.079384,-0.03525487,0.03191231,0.43704504,0.3910984,0.007685568,1.1347703,0.32334757,0.581217,0.72119,1.1861435,0.6956482,0.42651594,0.6774793,0.61939865,777.25275,793.36993,778.0586,791.75824,815.12823,0.50567626953125,0.005126953125,0.86029052734375,6.62445068359375,-3.671112060546875,-1.36077880859375,1.0,1.0,1.0,1.0,1.0,25.0,
2023-09-07 23:53:48.119,0.37186202,0.56351274,0.1592338,0.7204601,0.09065749,0.079384,-0.03525487,0.03191231,0.43704504,0.3910984,0.007685568,1.1347703,0.32334757,0.581217,0.72119,1.1861435,0.6956482,0.42651594,0.6774793,0.61939865,800.6227,805.8608,793.7729,809.89014,701.0989,0.50799560546875,-0.00225830078125,0.86065673828125,5.0543212890625,-3.267364501953125,-1.831817626953125,1.0,1.0,1.0,1.0,1.0,25.0,
2023-09-07 23:53:48.152,0.37186202,0.56351274,0.1592338,0.7204601,0.09065749,0.079384,-0.03525487,0.03191231,0.43704504,0.3910984,0.007685568,1.1347703,0.32334757,0.581217,0.72119,1.1861435,0.6956482,0.42651594,0.6774793,0.61939865,805.8608,780.87915,804.65204,801.4286,672.0879,0.51995849609375,0.0052490234375,0.8577880859375,4.91973876953125,-1.502838134765625,-0.52337646484375,1.0,1.0,1.0,1.0,1.0,25.0,
2023-09-07 23:53:48.156,0.37186202,0.47397184,0.15473776,0.7204601,0.09065749,0.06736309,-0.0019078825,0.03191231,0.43704504,0.3910984,0.009054952,1.1347703,0.32334757,0.59220713,0.6921038,1.1861435,0.6956482,0.42946255,0.6764992,0.61939865,782.0879,803.0403,793.36993,793.7729,720.84247,0.51995849609375,0.0052490234375,0.8577880859375,4.91973876953125,-1.502838134765625,-0.52337646484375,1.0,1.0,1.0,1.0,1.0,25.0,
2023-09-07 23:53:48.213,0.37186202,0.47397184,0.15473776,0.7204601,0.09065749,0.06736309,-0.0019078825,0.03191231,0.43704504,0.3910984,0.009054952,1.1347703,0.32334757,0.59220713,0.6921038,1.1861435,0.6956482,0.42946255,0.6764992,0.61939865,795.78754,798.20514,793.36993,806.26373,605.6044,0.49188232421875,0.01385498046875,0.86474609375,6.05621337890625,0.740203857421875,0.70281982421875,1.0,1.0,1.0,1.0,1.0,25.0,
2023-09-07 23:53:48.245,0.37186202,0.47397184,0.15473776,0.7204601,0.09065749,0.06736309,-0.0019078825,0.03191231,0.43704504,0.3910984,0.009054952,1.1347703,0.32334757,0.59220713,0.6921038,1.1861435,0.6956482,0.42946255,0.6764992,0.61939865,779.2674,805.05493,790.54944,805.8608,684.17584,0.47564697265625,0.01153564453125,0.85723876953125,5.196380615234375,0.31402587890625,-1.375732421875,1.0,1.0,1.0,1.0,1.0,25.0,
2023-09-07 23:53:48.250,0.37186202,0.39348128,0.15112527,0.7204601,0.09065749,0.06822172,0.03068888,0.03191231,0.43704504,0.3910984,0.009197741,1.1347703,0.32334757,0.596069,0.6681577,1.1861435,0.6956482,0.42967832,0.68254834,0.61939865,782.49084,788.5348,782.0879,805.05493,830.4396,0.47564697265625,0.01153564453125,0.85723876953125,5.196380615234375,0.31402587890625,-1.375732421875,1.0,1.0,1.0,1.0,1.0,25.0,
2023-09-07 23:53:48.338,0.37186202,0.39348128,0.15112527,0.7204601,0.09065749,0.06822172,0.03068888,0.03191231,0.43704504,0.3910984,0.009197741,1.1347703,0.32334757,0.596069,0.6681577,1.1861435,0.6956482,0.42967832,0.68254834,0.61939865,810.696,790.54944,792.96704,795.78754,747.03296,0.48016357421875,0.00396728515625,0.86407470703125,4.478607177734375,-1.951446533203125,-2.265472412109375,1.0,1.0,1.0,1.0,1.0,25.0,
2023-09-07 23:53:48.344,0.37186202,0.33474797,0.13922131,0.7204601,0.09065749,0.07569634,0.05145045,0.03191231,0.43704504,0.3910984,0.010445789,1.1347703,0.32334757,0.5967122,0.6517677,1.1861435,0.6956482,0.43262616,0.68942934,0.61939865,785.7143,801.8315,805.05493,817.5458,1268.022,0.48016357421875,0.00396728515625,0.86407470703125,4.478607177734375,-1.951446533203125,-2.265472412109375,1.0,1.0,1.0,1.0,1.0,25.0,
2023-09-07 23:53:48.391,0.37186202,0.33474797,0.13922131,0.7204601,0.09065749,0.07569634,0.05145045,0.03191231,0.43704504,0.3910984,0.010445789,1.1347703,0.32334757,0.5967122,0.6517677,1.1861435,0.6956482,0.43262616,0.68942934,0.61939865,784.90845,794.9817,794.57874,793.7729,734.1392,0.4896240234375,0.0146484375,0.87530517578125,4.344024658203125,-2.04864501953125,-0.777587890625,1.0,1.0,1.0,1.0,1.0,25.0,
2023-09-07 23:53:48.443,0.37186202,0.33474797,0.13922131,0.7204601,0.09065749,0.07569634,0.05145045,0.03191231,0.43704504,0.3910984,0.010445789,1.1347703,0.32334757,0.5967122,0.6517677,1.1861435,0.6956482,0.43262616,0.68942934,0.61939865,786.1172,794.17584,797.3993,776.04395,757.50916,0.484375,0.0111083984375,0.87017822265625,4.015045166015625,0.246734619140625,0.31402587890625,1.0,1.0,1.0,1.0,1.0,25.0,
2023-09-07 23:53:48.452,0.37186202,0.30007374,0.11883845,0.7204601,0.09065749,0.079521544,0.059430875,0.03191231,0.43704504,0.38267094,0.005549537,1.1347703,0.32334757,0.59961677,0.64234865,1.1861435,0.6956482,0.44038358,0.6923082,0.61939865,793.36993,790.14655,803.8461,809.0842,1020.2198,0.484375,0.0111083984375,0.87017822265625,4.015045166015625,0.246734619140625,0.31402587890625,1.0,1.0,1.0,1.0,1.0,25.0,
2023-09-07 23:53:48.495,0.37186202,0.30007374,0.11883845,0.7204601,0.09065749,0.079521544,0.059430875,0.03191231,0.43704504,0.38267094,0.005549537,1.1347703,0.32334757,0.59961677,0.64234865,1.1861435,0.6956482,0.44038358,0.6923082,0.61939865,799.011,784.5055,803.0403,813.1135,1166.4835,0.4639892578125,0.00091552734375,0.85870361328125,4.314117431640625,-0.770111083984375,-1.016845703125,1.0,1.0,1.0,1.0,1.0,25.0,
2023-09-07 23:53:48.500,0.37186202,0.30007374,0.11883845,0.7204601,0.09065749,0.079521544,0.059430875,0.03191231,0.43704504,0.38267094,0.005549537,1.1347703,0.32334757,0.59961677,0.64234865,1.1861435,0.6956482,0.44038358,0.6923082,0.61939865,780.87915,800.2198,794.17584,780.87915,753.47986,0.4632568359375,0.00653076171875,0.8614501953125,5.689849853515625,-3.0206298828125,-3.46923828125,1.0,1.0,1.0,1.0,1.0,25.0,
2023-09-07 23:53:48.562,0.37186202,0.28038836,0.09552096,0.7204601,0.09065749,0.07753228,0.05848987,0.03191231,0.43704504,0.36863002,-0.02966964,1.1347703,0.32334757,0.6081257,0.6402219,1.1861435,0.6956482,0.4528262,0.6903146,0.61939865,788.5348,799.81683,799.81683,790.14655,630.58606,0.4632568359375,0.00653076171875,0.8614501953125,5.689849853515625,-3.0206298828125,-3.46923828125,1.0,1.0,1.0,1.0,1.0,25.0,
2023-09-07 23:53:48.611,0.37186202,0.28038836,0.09552096,0.7204601,0.09065749,0.07753228,0.05848987,0.03191231,0.43704504,0.36863002,-0.02966964,1.1347703,0.32334757,0.6081257,0.6402219,1.1861435,0.6956482,0.4528262,0.6903146,0.61939865,790.9524,809.89014,778.46155,774.43225,660.80585,0.4761962890625,0.02069091796875,0.87445068359375,4.9346923828125,-5.076751708984375,-2.1533203125,1.0,1.0,1.0,1.0,1.0,25.0,
2023-09-07 23:53:48.649,0.37186202,0.28038836,0.09552096,0.7204601,0.09065749,0.07753228,0.05848987,0.03191231,0.43704504,0.36863002,-0.02966964,1.1347703,0.32334757,0.6081257,0.6402219,1.1861435,0.6956482,0.4528262,0.6903146,0.61939865,799.81683,799.011,797.3993,782.49084,648.315,0.468994140625,0.02593994140625,0.86767578125,3.775787353515625,-3.895416259765625,-3.162689208984375,1.0,1.0,1.0,1.0,1.0,25.0,
2023-09-07 23:53:48.767,0.2056636,0.22563699,0.03538902,0.30855277,0.37041807,0.07155478,0.046539895,0.33895087,0.34454268,0.35236812,-0.079725295,0.39276683,0.83289295,0.62974924,0.6470245,0.82812315,0.625657,0.47541532,0.64326394,0.57570565,797.3993,807.0696,790.54944,790.9524,772.01465,0.4884033203125,0.01031494140625,0.86651611328125,2.49725341796875,-5.181427001953125,-1.3458251953125,1.0,1.0,1.0,1.0,1.0,25.0,
2023-09-07 23:53:48.806,0.2056636,0.22563699,0.03538902,0.30855277,0.37041807,0.07155478,0.046539895,0.33895087,0.34454268,0.35236812,-0.079725295,0.39276683,0.83289295,0.62974924,0.6470245,0.82812315,0.625657,0.47541532,0.64326394,0.57570565,796.99634,799.41394,798.60803,816.7399,714.3956,0.49053955078125,0.00213623046875,0.86151123046875,3.3795166015625,-4.119720458984375,-1.80938720703125,1.0,1.0,1.0,1.0,1.0,25.0,
2023-09-07 23:53:48.850,0.20038663,0.162825,-0.0372561,0.26667613,0.41093844,0.06641772,0.04243079,0.35150626,0.4549493,0.34944347,-0.079725295,0.40746376,0.83718,0.6303054,0.6358481,0.8426488,0.6447738,0.47284153,0.56172115,0.55570346,766.3736,799.011,796.5934,804.2491,1113.6996,0.49053955078125,0.00213623046875,0.86151123046875,3.3795166015625,-4.119720458984375,-1.80938720703125,1.0,1.0,1.0,1.0,1.0,25.0,
2023-09-07 23:53:48.880,0.20038663,0.162825,-0.0372561,0.26667613,0.41093844,0.06641772,0.04243079,0.35150626,0.4549493,0.34944347,-0.079725295,0.40746376,0.83718,0.6303054,0.6358481,0.8426488,0.6447738,0.47284153,0.56172115,0.55570346,807.47253,799.41394,807.0696,796.5934,641.8681,0.4974365234375,0.00506591796875,0.8570556640625,3.8580322265625,-3.386993408203125,-2.729034423828125,1.0,1.0,1.0,1.0,1.0,25.0,
2023-09-07 23:53:48.953,0.20038663,0.162825,-0.0372561,0.26667613,0.41093844,0.06641772,0.04243079,0.35150626,0.4549493,0.34944347,-0.079725295,0.40746376,0.83718,0.6303054,0.6358481,0.8426488,0.6447738,0.47284153,0.56172115,0.55570346,784.5055,794.17584,792.5641,793.36993,628.5714,0.50067138671875,0.00335693359375,0.8636474609375,5.046844482421875,-2.82623291015625,-1.472930908203125,1.0,1.0,1.0,1.0,1.0,25.0,
2023-09-07 23:53:48.961,0.20589921,0.06753804,-0.044838566,0.2740042,0.43674317,0.057083696,0.019478414,0.34797564,0.50367045,0.34796977,-0.079076424,0.4381868,0.8399279,0.6189599,0.6366895,0.84934103,0.6788176,0.4592068,0.5501998,0.5460549,777.6557,796.99634,796.1905,791.3553,730.5128,0.50067138671875,0.00335693359375,0.8636474609375,5.046844482421875,-2.82623291015625,-1.472930908203125,1.0,1.0,1.0,1.0,1.0,25.0,
2023-09-07 23:53:48.993,0.20589921,0.06753804,-0.044838566,0.2740042,0.43674317,0.057083696,0.019478414,0.34797564,0.50367045,0.34796977,-0.079076424,0.4381868,0.8399279,0.6189599,0.6366895,0.84934103,0.6788176,0.4592068,0.5501998,0.5460549,779.67035,797.3993,785.31134,790.54944,696.6667,0.493896484375,0.0074462890625,0.86077880859375,5.316009521484375,-1.7047119140625,-0.052337646484375,1.0,1.0,1.0,1.0,1.0,25.0,
2023-09-07 23:53:49.042,0.20589921,0.06753804,-0.044838566,0.2740042,0.43674317,0.057083696,0.019478414,0.34797564,0.50367045,0.34796977,-0.079076424,0.4381868,0.8399279,0.6189599,0.6366895,0.84934103,0.6788176,0.4592068,0.5501998,0.5460549,795.78754,800.2198,790.9524,786.52014,708.3516,0.5030517578125,0.00244140625,0.8507080078125,4.20196533203125,-1.435546875,0.605621337890625,1.0,1.0,1.0,1.0,1.0,25.0,
2023-09-07 23:53:49.052,0.20568451,-0.041544776,-0.037507992,0.33666408,0.439407,0.046286583,-4.2922275e-05,0.32703245,0.50367045,0.3358345,-0.07489271,0.46592706,0.841236,0.5979687,0.63421655,0.8548032,0.70572317,0.44007635,0.5458926,0.54624224,780.4762,811.0989,799.011,804.2491,650.7326,0.5030517578125,0.00244140625,0.8507080078125,4.20196533203125,-1.435546875,0.605621337890625,1.0,1.0,1.0,1.0,1.0,25.0,
2023-09-07 23:53:49.125,0.20568451,-0.041544776,-0.037507992,0.33666408,0.439407,0.046286583,-4.2922275e-05,0.32703245,0.50367045,0.3358345,-0.07489271,0.46592706,0.841236,0.5979687,0.63421655,0.8548032,0.70572317,0.44007635,0.5458926,0.54624224,777.6557,780.87915,795.78754,781.685,777.25275,0.4893798828125,0.0106201171875,0.87017822265625,5.42816162109375,0.46356201171875,2.878570556640625,1.0,1.0,1.0,1.0,1.0,25.0,
2023-09-07 23:53:49.160,0.20568451,-0.041544776,-0.037507992,0.33666408,0.439407,0.046286583,-4.2922275e-05,0.32703245,0.50367045,0.3358345,-0.07489271,0.46592706,0.841236,0.5979687,0.63421655,0.8548032,0.70572317,0.44007635,0.5458926,0.54624224,776.04395,809.4872,803.44324,799.011,663.6264,0.47064208984375,0.0128173828125,0.866455078125,4.687957763671875,0.19439697265625,1.413116455078125,1.0,1.0,1.0,1.0,1.0,25.0,
2023-09-07 23:53:49.161,0.19586898,-0.13562651,-0.011487643,0.41561458,0.42462227,0.03764103,-0.01877575,0.29769763,0.50367045,0.33465397,-0.06174263,0.4661882,0.8386344,0.5737705,0.6308055,0.86214465,0.71844447,0.41926074,0.5446688,0.5535403,780.87915,796.5934,799.011,810.696,689.41394,0.47064208984375,0.0128173828125,0.866455078125,4.687957763671875,0.19439697265625,1.413116455078125,1.0,1.0,1.0,1.0,1.0,25.0,
2023-09-07 23:53:49.230,0.19586898,-0.13562651,-0.011487643,0.41561458,0.42462227,0.03764103,-0.01877575,0.29769763,0.50367045,0.33465397,-0.06174263,0.4661882,0.8386344,0.5737705,0.6308055,0.86214465,0.71844447,0.41926074,0.5446688,0.5535403,777.6557,809.89014,780.87915,794.17584,732.9304,0.4676513671875,0.00885009765625,0.8651123046875,3.93280029296875,-1.248626708984375,-0.201873779296875,1.0,1.0,1.0,1.0,1.0,25.0,
2023-09-07 23:53:49.265,0.19586898,-0.13562651,-0.011487643,0.41561458,0.42462227,0.03764103,-0.01877575,0.29769763,0.50367045,0.33465397,-0.06174263,0.4661882,0.8386344,0.5737705,0.6308055,0.86214465,0.71844447,0.41926074,0.5446688,0.5535403,782.0879,800.2198,797.3993,799.81683,792.5641,0.469482421875,0.006103515625,0.8651123046875,4.493560791015625,-1.48040771484375,-0.28411865234375,1.0,1.0,1.0,1.0,1.0,25.0,
2023-09-07 23:53:49.268,0.18646386,-0.1937677,0.0027315693,0.48792806,0.40673456,0.034075897,-0.042588376,0.27993867,0.50367045,0.32574973,-0.048027325,0.4661882,0.82908714,0.55185765,0.6040767,0.86802197,0.71997744,0.3956757,0.5010279,0.56297153,792.1612,784.10254,794.57874,811.9048,915.8608,0.469482421875,0.006103515625,0.8651123046875,4.493560791015625,-1.48040771484375,-0.28411865234375,1.0,1.0,1.0,1.0,1.0,25.0,
2023-09-07 23:53:49.302,0.18646386,-0.1937677,0.0027315693,0.48792806,0.40673456,0.034075897,-0.042588376,0.27993867,0.50367045,0.32574973,-0.048027325,0.4661882,0.82908714,0.55185765,0.6040767,0.86802197,0.71997744,0.3956757,0.5010279,0.56297153,788.93774,793.7729,803.0403,795.38464,633.00366,0.47479248046875,0.00250244140625,0.86724853515625,4.643096923828125,-2.91595458984375,0.351409912109375,1.0,1.0,1.0,1.0,1.0,25.0,
2023-09-07 23:53:49.361,0.18088253,-0.21493594,0.04264707,0.5322296,0.3973242,0.038761076,-0.081242174,0.2861763,0.50473267,0.29358813,-0.056083143,0.47949716,0.81322175,0.53162587,0.5906052,0.86751497,0.71706945,0.36825937,0.47552943,0.5686335,781.685,790.14655,804.2491,803.0403,1052.0513,0.47479248046875,0.00250244140625,0.86724853515625,4.643096923828125,-2.91595458984375,0.351409912109375,1.0,1.0,1.0,1.0,1.0,25.0,
2023-09-07 23:53:49.465,0.18088253,-0.21493594,0.04264707,0.5322296,0.3973242,0.038761076,-0.081242174,0.2861763,0.50473267,0.29358813,-0.056083143,0.47949716,0.81322175,0.53162587,0.5906052,0.86751497,0.71706945,0.36825937,0.47552943,0.5686335,759.12085,800.2198,787.72894,792.96704,722.4542,0.4873046875,0.00506591796875,0.87103271484375,5.1739501953125,-4.553375244140625,0.897216796875,1.0,1.0,1.0,1.0,1.0,25.0,
2023-09-07 23:53:49.475,0.18088253,-0.21493594,0.04264707,0.5322296,0.3973242,0.038761076,-0.081242174,0.2861763,0.50473267,0.29358813,-0.056083143,0.47949716,0.81322175,0.53162587,0.5906052,0.86751497,0.71706945,0.36825937,0.47552943,0.5686335,800.2198,786.52014,770.80585,805.8608,669.2674,0.4852294921875,0.0093994140625,0.863525390625,5.166473388671875,-3.36456298828125,2.788848876953125,1.0,1.0,1.0,1.0,1.0,25.0,
2023-09-07 23:53:49.481,0.17358716,-0.21679083,0.07463437,0.5478847,0.39529347,0.053132687,-0.12414109,0.30673894,0.5234542,0.28084332,-0.029576669,0.5208593,0.79602885,0.50859076,0.58696574,0.8587992,0.71361345,0.34051368,0.4554429,0.56649464,791.3553,797.8022,794.17584,813.5165,851.79486,0.4852294921875,0.0093994140625,0.863525390625,5.166473388671875,-3.36456298828125,2.788848876953125,1.0,1.0,1.0,1.0,1.0,25.0,
2023-09-07 23:53:49.521,0.17358716,-0.21679083,0.07463437,0.5478847,0.39529347,0.053132687,-0.12414109,0.30673894,0.5234542,0.28084332,-0.029576669,0.5208593,0.79602885,0.50859076,0.58696574,0.8587992,0.71361345,0.34051368,0.4554429,0.56649464,803.44324,797.3993,791.75824,818.3516,996.4469,0.48919677734375,0.00555419921875,0.86376953125,3.90289306640625,-3.760833740234375,3.2000732421875,1.0,1.0,1.0,1.0,1.0,25.0,
2023-09-07 23:53:49.552,0.17358716,-0.21679083,0.07463437,0.5478847,0.39529347,0.053132687,-0.12414109,0.30673894,0.5234542,0.28084332,-0.029576669,0.5208593,0.79602885,0.50859076,0.58696574,0.8587992,0.71361345,0.34051368,0.4554429,0.56649464,784.5055,804.2491,807.8755,803.0403,779.2674,0.489501953125,-0.001708984375,0.86199951171875,3.96270751953125,-3.050537109375,2.87109375,1.0,1.0,1.0,1.0,1.0,25.0,
2023-09-07 23:53:49.558,0.16556664,-0.22049336,0.091310166,0.5451183,0.39093465,0.07250193,-0.15348545,0.32504806,0.5578992,0.23136432,0.021534178,0.5525122,0.7833746,0.4808542,0.5892219,0.84416443,0.70949465,0.3166244,0.43211603,0.5571898,786.9231,798.20514,795.78754,805.4579,633.00366,0.489501953125,-0.001708984375,0.86199951171875,3.96270751953125,-3.050537109375,2.87109375,1.0,1.0,1.0,1.0,1.0,25.0,
2023-09-07 23:53:49.622,0.16556664,-0.22049336,0.091310166,0.5451183,0.39093465,0.07250193,-0.15348545,0.32504806,0.5578992,0.23136432,0.021534178,0.5525122,0.7833746,0.4808542,0.5892219,0.84416443,0.70949465,0.3166244,0.43211603,0.5571898,797.8022,794.17584,792.1612,801.02563,702.71063,0.4871826171875,-0.00213623046875,0.86328125,5.6524658203125,-2.452392578125,2.893524169921875,1.0,1.0,1.0,1.0,1.0,25.0,
2023-09-07 23:53:49.627,0.16199468,-0.23131002,0.104963884,0.5355071,0.37928012,0.08694562,-0.15779561,0.33448586,0.5926352,0.1680444,0.03860763,0.5665051,0.77735156,0.45169213,0.5955785,0.82853943,0.7023799,0.2967107,0.40088314,0.545164,784.10254,801.8315,801.4286,798.60803,849.7802,0.4871826171875,-0.00213623046875,0.86328125,5.6524658203125,-2.452392578125,2.893524169921875,1.0,1.0,1.0,1.0,1.0,25.0,
2023-09-07 23:53:49.719,0.16199468,-0.23131002,0.104963884,0.5355071,0.37928012,0.08694562,-0.15779561,0.33448586,0.5926352,0.1680444,0.03860763,0.5665051,0.77735156,0.45169213,0.5955785,0.82853943,0.7023799,0.2967107,0.40088314,0.545164,773.6264,802.6374,795.78754,775.2381,649.92676,0.47845458984375,0.003662109375,0.86602783203125,5.30853271484375,-1.62994384765625,2.893524169921875,1.0,1.0,1.0,1.0,1.0,25.0,
2023-09-07 23:53:49.748,0.16199468,-0.23131002,0.104963884,0.5355071,0.37928012,0.08694562,-0.15779561,0.33448586,0.5926352,0.1680444,0.03860763,0.5665051,0.77735156,0.45169213,0.5955785,0.82853943,0.7023799,0.2967107,0.40088314,0.545164,801.02563,797.8022,794.17584,792.96704,627.3626,0.46685791015625,-0.00628662109375,0.86639404296875,4.80010986328125,-2.624359130859375,1.30096435546875,1.0,1.0,1.0,1.0,1.0,25.0,
2023-09-07 23:53:49.802,0.16199468,-0.23131002,0.104963884,0.5355071,0.37928012,0.08694562,-0.15779561,0.33448586,0.5926352,0.1680444,0.03860763,0.5665051,0.77735156,0.45169213,0.5955785,0.82853943,0.7023799,0.2967107,0.40088314,0.545164,784.5055,790.14655,795.38464,805.05493,743.4066,0.48223876953125,-0.00836181640625,0.86328125,5.203857421875,-3.955230712890625,0.067291259765625,1.0,1.0,1.0,1.0,1.0,25.0,
2023-09-07 23:53:49.803,0.15618373,-0.24974798,0.11508169,0.5334054,0.3629061,0.084947824,-0.14826795,0.35522267,0.6127349,0.1949438,0.04338127,0.52408475,0.7759892,0.42452,0.60684913,0.8106412,0.69092447,0.28073016,0.36320093,0.5156459,805.8608,799.41394,799.81683,810.293,842.52747,0.48223876953125,-0.00836181640625,0.86328125,5.203857421875,-3.955230712890625,0.067291259765625,1.0,1.0,1.0,1.0,1.0,25.0,
2023-09-07 23:53:49.867,0.15618373,-0.24974798,0.11508169,0.5334054,0.3629061,0.084947824,-0.14826795,0.35522267,0.6127349,0.1949438,0.04338127,0.52408475,0.7759892,0.42452,0.60684913,0.8106412,0.69092447,0.28073016,0.36320093,0.5156459,799.81683,800.6227,802.6374,815.12823,745.42126,0.4788818359375,-0.0133056640625,0.8668212890625,5.7122802734375,-3.2598876953125,2.03369140625,1.0,1.0,1.0,1.0,1.0,25.0,
2023-09-07 23:53:49.921,0.14784928,-0.2799782,0.118944615,0.5159623,0.34755492,0.060575493,-0.14307262,0.35191897,0.6200593,0.213905,0.04861685,0.53330237,0.7755539,0.39880985,0.6218686,0.8025041,0.67690194,0.26915836,0.32526955,0.5141492,785.7143,801.02563,795.78754,792.1612,682.1612,0.4788818359375,-0.0133056640625,0.8668212890625,5.7122802734375,-3.2598876953125,2.03369140625,1.0,1.0,1.0,1.0,1.0,25.0,
2023-09-07 23:53:49.934,0.14784928,-0.2799782,0.118944615,0.5159623,0.34755492,0.060575493,-0.14307262,0.35191897,0.6200593,0.213905,0.04861685,0.53330237,0.7755539,0.39880985,0.6218686,0.8025041,0.67690194,0.26915836,0.32526955,0.5141492,786.1172,791.75824,779.2674,804.65204,759.5238,0.4759521484375,-0.0147705078125,0.85693359375,6.53472900390625,-4.0673828125,1.443023681640625,1.0,1.0,1.0,1.0,1.0,25.0,
2023-09-07 23:53:49.974,0.14784928,-0.2799782,0.118944615,0.5159623,0.34755492,0.060575493,-0.14307262,0.35191897,0.6200593,0.213905,0.04861685,0.53330237,0.7755539,0.39880985,0.6218686,0.8025041,0.67690194,0.26915836,0.32526955,0.5141492,780.07324,800.2198,786.52014,811.50183,688.60803,0.4947509765625,-0.00933837890625,0.8594970703125,7.53662109375,-4.239349365234375,1.4654541015625,1.0,1.0,1.0,1.0,1.0,25.0,
2023-09-07 23:53:49.979,0.11253749,-0.32649338,0.118293054,0.49870184,0.3388093,0.016654765,-0.15136866,0.34816104,0.6210828,0.22729734,0.04736312,0.5521822,0.7690748,0.37189004,0.6370142,0.804865,0.65832824,0.26160055,0.29525283,0.51316506,808.68134,813.5165,793.7729,806.6667,735.34796,0.4947509765625,-0.00933837890625,0.8594970703125,7.53662109375,-4.239349365234375,1.4654541015625,1.0,1.0,1.0,1.0,1.0,25.0,
2023-09-07 23:53:50.013,0.11253749,-0.32649338,0.118293054,0.49870184,0.3388093,0.016654765,-0.15136866,0.34816104,0.6210828,0.22729734,0.04736312,0.5521822,0.7690748,0.37189004,0.6370142,0.804865,0.65832824,0.26160055,0.29525283,0.51316506,774.0293,800.6227,785.7143,786.52014,730.5128,0.49200439453125,-0.00830078125,0.86773681640625,8.725433349609375,-3.6785888671875,2.459869384765625,1.0,1.0,1.0,1.0,1.0,25.0,
2023-09-07 23:53:50.057,0.11253749,-0.32649338,0.118293054,0.49870184,0.3388093,0.016654765,-0.15136866,0.34816104,0.6210828,0.22729734,0.04736312,0.5521822,0.7690748,0.37189004,0.6370142,0.804865,0.65832824,0.26160055,0.29525283,0.51316506,776.4469,800.2198,799.41394,795.78754,730.5128,0.48577880859375,-0.00494384765625,0.85772705078125,8.800201416015625,-4.42626953125,2.67669677734375,1.0,1.0,1.0,1.0,1.0,25.0,
2023-09-07 23:53:50.061,0.08748407,-0.38292232,0.11287636,0.47933868,0.32568723,-0.036896892,-0.16818544,0.33509338,0.6171476,0.22729734,0.046028532,0.5930977,0.7578402,0.34383026,0.6477784,0.8005038,0.6569037,0.25319317,0.27660784,0.52095586,777.25275,799.011,787.326,790.9524,786.1172,0.48577880859375,-0.00494384765625,0.85772705078125,8.800201416015625,-4.42626953125,2.67669677734375,1.0,1.0,1.0,1.0,1.0,25.0,
2023-09-07 23:53:50.120,0.08748407,-0.38292232,0.11287636,0.47933868,0.32568723,-0.036896892,-0.16818544,0.33509338,0.6171476,0.22729734,0.046028532,0.5930977,0.7578402,0.34383026,0.6477784,0.8005038,0.6569037,0.25319317,0.27660784,0.52095586,731.7216,789.7436,796.99634,746.63007,657.1795,0.50030517578125,-0.0030517578125,0.86077880859375,11.05072021484375,-4.90478515625,3.252410888671875,1.0,1.0,1.0,1.0,1.0,25.0,
2023-09-07 23:53:50.168,0.0883577,-0.4256616,0.10940012,0.49241805,0.32132474,-0.08536624,-0.18262708,0.32629198,0.60245574,0.22729734,0.045034293,0.5930977,0.7520974,0.3187844,0.6503253,0.7952222,0.66568667,0.23952223,0.2666907,0.52388346,766.77655,808.2784,782.8938,773.22345,756.7033,0.50030517578125,-0.0030517578125,0.86077880859375,11.05072021484375,-4.90478515625,3.252410888671875,1.0,1.0,1.0,1.0,1.0,25.0,
2023-09-07 23:53:50.194,0.0883577,-0.4256616,0.10940012,0.49241805,0.32132474,-0.08536624,-0.18262708,0.32629198,0.60245574,0.22729734,0.045034293,0.5930977,0.7520974,0.3187844,0.6503253,0.7952222,0.66568667,0.23952223,0.2666907,0.52388346,807.47253,790.9524,798.60803,812.3077,832.0513,0.4962158203125,0.0126953125,0.8634033203125,11.14044189453125,-2.953338623046875,2.968292236328125,1.0,1.0,1.0,1.0,1.0,25.0,
2023-09-07 23:53:50.287,0.0883577,-0.4256616,0.10940012,0.49241805,0.32132474,-0.08536624,-0.18262708,0.32629198,0.60245574,0.22729734,0.045034293,0.5930977,0.7520974,0.3187844,0.6503253,0.7952222,0.66568667,0.23952223,0.2666907,0.52388346,803.44324,784.5055,809.4872,801.02563,688.20514,0.4884033203125,0.0247802734375,0.86444091796875,9.503021240234377,-1.712188720703125,1.472930908203125,1.0,1.0,1.0,1.0,1.0,25.0,
2023-09-07 23:53:50.293,0.088582106,-0.40545195,0.109438516,0.5144101,0.3076944,-0.11569987,-0.18781112,0.31626436,0.57983357,0.22729734,0.05068336,0.5930977,0.7439182,0.30017996,0.64466476,0.78441715,0.67260474,0.2205992,0.26379314,0.53008235,825.6044,788.5348,792.1612,816.7399,729.304,0.4884033203125,0.0247802734375,0.86444091796875,9.503021240234377,-1.712188720703125,1.472930908203125,1.0,1.0,1.0,1.0,1.0,25.0,
2023-09-07 23:53:50.322,0.088582106,-0.40545195,0.109438516,0.5144101,0.3076944,-0.11569987,-0.18781112,0.31626436,0.57983357,0.22729734,0.05068336,0.5930977,0.7439182,0.30017996,0.64466476,0.78441715,0.67260474,0.2205992,0.26379314,0.53008235,822.381,820.3663,795.38464,827.619,750.65936,0.48846435546875,0.02716064453125,0.8717041015625,5.854339599609375,-1.801910400390625,-0.874786376953125,1.0,1.0,1.0,1.0,1.0,25.0,
2023-09-07 23:53:50.334,0.088582106,-0.40545195,0.109438516,0.5144101,0.3076944,-0.11569987,-0.18781112,0.31626436,0.57983357,0.22729734,0.05068336,0.5930977,0.7439182,0.30017996,0.64466476,0.78441715,0.67260474,0.2205992,0.26379314,0.53008235,808.68134,809.4872,809.89014,814.3223,1145.9341,0.48651123046875,0.02294921875,0.86090087890625,3.850555419921875,-2.75146484375,-1.861724853515625,1.0,1.0,1.0,1.0,1.0,25.0,
2023-09-07 23:53:50.366,0.080164164,-0.30112857,0.11061012,0.53974414,0.28081015,-0.1203224,-0.18332824,0.30752537,0.5676994,0.22729734,0.089136615,0.5930977,0.73335886,0.28693613,0.637553,0.7722489,0.6689891,0.19910298,0.2694086,0.53687704,791.3553,814.3223,802.23444,825.2015,612.8571,0.48651123046875,0.02294921875,0.86090087890625,3.850555419921875,-2.75146484375,-1.861724853515625,1.0,1.0,1.0,1.0,1.0,25.0,
2023-09-07 23:53:50.442,0.080164164,-0.30112857,0.11061012,0.53974414,0.28081015,-0.1203224,-0.18332824,0.30752537,0.5676994,0.22729734,0.089136615,0.5930977,0.73335886,0.28693613,0.637553,0.7722489,0.6689891,0.19910298,0.2694086,0.53687704,801.4286,807.0696,797.3993,821.5751,647.9121,0.48907470703125,0.01715087890625,0.85931396484375,3.775787353515625,-2.94586181640625,-2.811279296875,1.0,1.0,1.0,1.0,1.0,25.0,
2023-09-07 23:53:50.478,0.080164164,-0.30112857,0.11061012,0.53974414,0.28081015,-0.1203224,-0.18332824,0.30752537,0.5676994,0.22729734,0.089136615,0.5930977,0.73335886,0.28693613,0.637553,0.7722489,0.6689891,0.19910298,0.2694086,0.53687704,799.81683,796.1905,809.89014,809.0842,689.41394,0.491455078125,0.01483154296875,0.86041259765625,3.536529541015625,-3.072967529296875,-2.7813720703125,1.0,1.0,1.0,1.0,1.0,25.0,
2023-09-07 23:53:50.481,0.06325628,-0.137293,0.11015564,0.5553793,0.2460976,-0.10430024,-0.17357185,0.3057903,0.53724,0.22729734,0.1307345,0.59246784,0.7206017,0.2775878,0.64009845,0.76008534,0.6525542,0.17634419,0.2839392,0.5414451,828.8278,799.011,799.81683,832.4542,691.02563,0.491455078125,0.01483154296875,0.86041259765625,3.536529541015625,-3.072967529296875,-2.7813720703125,1.0,1.0,1.0,1.0,1.0,25.0,
2023-09-07 23:53:50.526,0.06325628,-0.137293,0.11015564,0.5553793,0.2460976,-0.10430024,-0.17357185,0.3057903,0.53724,0.22729734,0.1307345,0.59246784,0.7206017,0.2775878,0.64009845,0.76008534,0.6525542,0.17634419,0.2839392,0.5414451,804.2491,804.65204,809.4872,825.6044,737.76556,0.48797607421875,0.010009765625,0.857421875,4.3365478515625,-3.84307861328125,-1.114044189453125,1.0,1.0,1.0,1.0,1.0,25.0,
2023-09-07 23:53:50.558,0.06325628,-0.137293,0.11015564,0.5553793,0.2460976,-0.10430024,-0.17357185,0.3057903,0.53724,0.22729734,0.1307345,0.59246784,0.7206017,0.2775878,0.64009845,0.76008534,0.6525542,0.17634419,0.2839392,0.5414451,782.8938,799.41394,789.7436,784.10254,753.0769,0.4927978515625,0.00775146484375,0.8565673828125,5.7122802734375,-3.895416259765625,0.411224365234375,1.0,1.0,1.0,1.0,1.0,25.0,
2023-09-07 23:53:50.561,0.04625048,0.017744916,0.10259478,0.54781264,0.21839654,-0.082886435,-0.16216435,0.31917715,0.4580162,0.22489427,0.1618931,0.5923417,0.7053987,0.27582642,0.6579997,0.7444994,0.62855506,0.15457574,0.30829492,0.5408297,812.71063,808.2784,799.41394,813.1135,846.55676,0.4927978515625,0.00775146484375,0.8565673828125,5.7122802734375,-3.895416259765625,0.411224365234375,1.0,1.0,1.0,1.0,1.0,25.0,
2023-09-07 23:53:50.655,0.04625048,0.017744916,0.10259478,0.54781264,0.21839654,-0.082886435,-0.16216435,0.31917715,0.4580162,0.22489427,0.1618931,0.5923417,0.7053987,0.27582642,0.6579997,0.7444994,0.62855506,0.15457574,0.30829492,0.5408297,797.8022,801.4286,803.0403,800.6227,758.315,0.49371337890625,0.0157470703125,0.8533935546875,6.811370849609375,-3.84307861328125,1.786956787109375,1.0,1.0,1.0,1.0,1.0,25.0,
2023-09-07 23:53:50.667,0.037206784,0.12871327,0.07703096,0.51168555,0.20774525,-0.067758076,-0.15086588,0.3463144,0.40946236,0.20398214,0.18719156,0.58648497,0.690581,0.28384516,0.68311745,0.72034216,0.604829,0.14093369,0.3428133,0.5326969,792.96704,803.44324,788.93774,806.26373,990.80585,0.49371337890625,0.0157470703125,0.8533935546875,6.811370849609375,-3.84307861328125,1.786956787109375,1.0,1.0,1.0,1.0,1.0,25.0,
2023-09-07 23:53:50.740,0.037206784,0.12871327,0.07703096,0.51168555,0.20774525,-0.067758076,-0.15086588,0.3463144,0.40946236,0.20398214,0.18719156,0.58648497,0.690581,0.28384516,0.68311745,0.72034216,0.604829,0.14093369,0.3428133,0.5326969,796.99634,789.34064,800.2198,821.1722,1172.1245,0.48883056640625,0.01580810546875,0.85986328125,6.063690185546875,-3.45428466796875,0.73272705078125,1.0,1.0,1.0,1.0,1.0,25.0,
2023-09-07 23:53:50.787,0.037206784,0.12871327,0.07703096,0.51168555,0.20774525,-0.067758076,-0.15086588,0.3463144,0.40946236,0.20398214,0.18719156,0.58648497,0.690581,0.28384516,0.68311745,0.72034216,0.604829,0.14093369,0.3428133,0.5326969,790.14655,794.57874,782.8938,794.9817,689.81683,0.49200439453125,0.024169921875,0.86175537109375,5.63751220703125,-3.147735595703125,-0.919647216796875,1.0,1.0,1.0,1.0,1.0,25.0,
2023-09-07 23:53:50.793,0.028257972,0.19395877,0.02745365,0.43765903,0.20505975,-0.05964258,-0.14123428,0.37080726,0.38072217,0.17264573,0.19463079,0.586361,0.6834086,0.2970266,0.7015416,0.6879496,0.5859474,0.14276831,0.3833082,0.5172526,804.2491,805.4579,785.31134,802.23444,655.56775,0.49200439453125,0.024169921875,0.86175537109375,5.63751220703125,-3.147735595703125,-0.919647216796875,1.0,1.0,1.0,1.0,1.0,25.0,
2023-09-07 23:53:50.856,0.028257972,0.19395877,0.02745365,0.43765903,0.20505975,-0.05964258,-0.14123428,0.37080726,0.38072217,0.17264573,0.19463079,0.586361,0.6834086,0.2970266,0.7015416,0.6879496,0.5859474,0.14276831,0.3833082,0.5172526,801.02563,794.57874,782.0879,795.38464,595.5311,0.4925537109375,0.0283203125,0.8671875,4.05242919921875,-1.413116455078125,-3.1402587890625,1.0,1.0,1.0,1.0,1.0,25.0,
2023-09-07 23:53:50.887,0.028257972,0.19395877,0.02745365,0.43765903,0.20505975,-0.05964258,-0.14123428,0.37080726,0.38072217,0.17264573,0.19463079,0.586361,0.6834086,0.2970266,0.7015416,0.6879496,0.5859474,0.14276831,0.3833082,0.5172526,790.54944,792.1612,803.8461,805.4579,673.2967,0.4896240234375,0.01568603515625,0.86224365234375,2.25799560546875,-0.179443359375,-4.000091552734375,1.0,1.0,1.0,1.0,1.0,25.0,
2023-09-07 23:53:50.895,0.012098766,0.22553498,-0.035462666,0.33693278,0.18926667,-0.054035954,-0.13701423,0.37449586,0.3646496,0.15624915,0.18696372,0.5841424,0.68976086,0.30810893,0.7060234,0.65613985,0.5688207,0.16036403,0.4217626,0.5000802,793.36993,806.26373,795.78754,796.1905,747.8388,0.4896240234375,0.01568603515625,0.86224365234375,2.25799560546875,-0.179443359375,-4.000091552734375,1.0,1.0,1.0,1.0,1.0,25.0,
2023-09-07 23:53:50.960,0.012098766,0.22553498,-0.035462666,0.33693278,0.18926667,-0.054035954,-0.13701423,0.37449586,0.3646496,0.15624915,0.18696372,0.5841424,0.68976086,0.30810893,0.7060234,0.65613985,0.5688207,0.16036403,0.4217626,0.5000802,787.72894,796.1905,788.5348,795.38464,718.022,0.48931884765625,0.01593017578125,0.863037109375,2.833709716796875,-0.28411865234375,-4.23187255859375,1.0,1.0,1.0,1.0,1.0,25.0,
2023-09-07 23:53:51.035,0.012098766,0.22553498,-0.035462666,0.33693278,0.18926667,-0.054035954,-0.13701423,0.37449586,0.3646496,0.15624915,0.18696372,0.5841424,0.68976086,0.30810893,0.7060234,0.65613985,0.5688207,0.16036403,0.4217626,0.5000802,802.6374,799.41394,799.81683,810.696,749.45056,0.49151611328125,0.02001953125,0.86151123046875,3.12530517578125,-0.46356201171875,-4.299163818359375,1.0,1.0,1.0,1.0,1.0,25.0,
2023-09-07 23:53:51.036,-0.0029767756,0.24067451,-0.09966819,0.23470797,0.14896616,-0.049714167,-0.14561449,0.352924,0.3636697,0.15720865,0.17974693,0.57478446,0.706693,0.3144605,0.6993022,0.63848275,0.547747,0.18638799,0.45238566,0.49263698,808.2784,795.78754,791.75824,809.0842,723.663,0.49151611328125,0.02001953125,0.86151123046875,3.12530517578125,-0.46356201171875,-4.299163818359375,1.0,1.0,1.0,1.0,1.0,25.0,
2023-09-07 23:53:51.088,-0.0029767756,0.24067451,-0.09966819,0.23470797,0.14896616,-0.049714167,-0.14561449,0.352924,0.3636697,0.15720865,0.17974693,0.57478446,0.706693,0.3144605,0.6993022,0.63848275,0.547747,0.18638799,0.45238566,0.49263698,794.17584,809.89014,797.3993,805.4579,701.9048,0.4859619140625,0.01934814453125,0.86395263671875,3.2000732421875,-1.906585693359375,-4.239349365234375,1.0,1.0,1.0,1.0,1.0,25.0,
2023-09-07 23:53:51.102,-0.0029767756,0.24067451,-0.09966819,0.23470797,0.14896616,-0.049714167,-0.14561449,0.352924,0.3636697,0.15720865,0.17974693,0.57478446,0.706693,0.3144605,0.6993022,0.63848275,0.547747,0.18638799,0.45238566,0.49263698,785.31134,801.8315,813.5165,794.57874,683.36993,0.4913330078125,0.02642822265625,0.86444091796875,3.3197021484375,-3.102874755859375,-3.536529541015625,1.0,1.0,1.0,1.0,1.0,25.0,
2023-09-07 23:53:51.105,-0.018170742,0.2515536,-0.14682198,0.14990175,0.09816128,-0.048888277,-0.17247233,0.31648368,0.3636697,0.1647431,0.17974693,0.57182395,0.7233018,0.31813896,0.68828183,0.6432022,0.52095366,0.21255133,0.4754201,0.50473726,800.6227,787.72894,795.38464,810.696,761.53845,0.4913330078125,0.02642822265625,0.86444091796875,3.3197021484375,-3.102874755859375,-3.536529541015625,1.0,1.0,1.0,1.0,1.0,25.0,
2023-09-07 23:53:51.176,-0.018170742,0.2515536,-0.14682198,0.14990175,0.09816128,-0.048888277,-0.17247233,0.31648368,0.3636697,0.1647431,0.17974693,0.57182395,0.7233018,0.31813896,0.68828183,0.6432022,0.52095366,0.21255133,0.4754201,0.50473726,790.54944,799.011,794.57874,790.9524,693.44324,0.483154296875,0.02117919921875,0.8594970703125,2.85614013671875,-3.282318115234375,-3.327178955078125,1.0,1.0,1.0,1.0,1.0,25.0,
2023-09-07 23:53:51.216,-0.05961653,0.26235238,-0.17087932,0.06330543,0.06584324,-0.045394156,-0.21200165,0.27866232,0.36278886,0.19424352,0.15922056,0.5557496,0.72947496,0.32202595,0.67781496,0.66412646,0.49666655,0.23333016,0.4940437,0.53645474,798.20514,796.99634,801.4286,791.75824,796.99634,0.483154296875,0.02117919921875,0.8594970703125,2.85614013671875,-3.282318115234375,-3.327178955078125,1.0,1.0,1.0,1.0,1.0,25.0,
2023-09-07 23:53:51.255,-0.05961653,0.26235238,-0.17087932,0.06330543,0.06584324,-0.045394156,-0.21200165,0.27866232,0.36278886,0.19424352,0.15922056,0.5557496,0.72947496,0.32202595,0.67781496,0.66412646,0.49666655,0.23333016,0.4940437,0.53645474,782.49084,804.65204,803.44324,801.4286,618.9011,0.48760986328125,0.02203369140625,0.86572265625,2.848663330078125,-4.26177978515625,-3.102874755859375,1.0,1.0,1.0,1.0,1.0,25.0,
2023-09-07 23:53:51.315,-0.05961653,0.26235238,-0.17087932,0.06330543,0.06584324,-0.045394156,-0.21200165,0.27866232,0.36278886,0.19424352,0.15922056,0.5557496,0.72947496,0.32202595,0.67781496,0.66412646,0.49666655,0.23333016,0.4940437,0.53645474,792.1612,805.4579,799.41394,801.8315,681.3553,0.49456787109375,0.0118408203125,0.86163330078125,3.072967529296875,-3.8580322265625,-2.79632568359375,1.0,1.0,1.0,1.0,1.0,25.0,
2023-09-07 23:53:51.320,-0.05961653,0.2704834,-0.1720949,0.06330543,0.06584324,-0.028806709,-0.24455537,0.27866232,0.36278886,0.2179476,0.15377529,0.5557496,0.72947496,0.32778576,0.6690072,0.66412646,0.49666655,0.24584034,0.5084124,0.53645474,796.99634,790.54944,799.81683,778.86444,653.5531,0.49456787109375,0.0118408203125,0.86163330078125,3.072967529296875,-3.8580322265625,-2.79632568359375,1.0,1.0,1.0,1.0,1.0,25.0,
2023-09-07 23:53:51.355,-0.05961653,0.2704834,-0.1720949,0.06330543,0.06584324,-0.028806709,-0.24455537,0.27866232,0.36278886,0.2179476,0.15377529,0.5557496,0.72947496,0.32778576,0.6690072,0.66412646,0.49666655,0.24584034,0.5084124,0.53645474,770.0,796.5934,783.69965,789.34064,733.73627,0.4881591796875,0.0113525390625,0.859130859375,3.626251220703125,-3.865509033203125,-2.145843505859375,1.0,1.0,1.0,1.0,1.0,25.0,
2023-09-07 23:53:51.369,-0.05961653,0.2704834,-0.1720949,0.06330543,0.06584324,-0.028806709,-0.24455537,0.27866232,0.36278886,0.2179476,0.15377529,0.5557496,0.72947496,0.32778576,0.6690072,0.66412646,0.49666655,0.24584034,0.5084124,0.53645474,783.2967,795.78754,790.54944,789.34064,864.2857,0.49493408203125,0.011962890625,0.8590087890625,3.686065673828125,-3.416900634765625,-1.435546875,1.0,1.0,1.0,1.0,1.0,25.0,
2023-09-07 23:53:51.374,-0.05961653,0.27394167,-0.15746617,0.06330543,0.06584324,0.002192817,-0.2513174,0.27866232,0.36278886,0.22198777,0.1941305,0.5557496,0.72947496,0.33624333,0.66107774,0.66412646,0.49666655,0.25005016,0.51730675,0.53645474,780.4762,788.93774,788.5348,795.38464,856.2271,0.49493408203125,0.011962890625,0.8590087890625,3.686065673828125,-3.416900634765625,-1.435546875,1.0,1.0,1.0,1.0,1.0,25.0,
2023-09-07 23:53:51.477,-0.05961653,0.27394167,-0.15746617,0.06330543,0.06584324,0.002192817,-0.2513174,0.27866232,0.36278886,0.22198777,0.1941305,0.5557496,0.72947496,0.33624333,0.66107774,0.66412646,0.49666655,0.25005016,0.51730675,0.53645474,792.5641,790.9524,788.1319,786.52014,682.96704,0.4945068359375,0.0115966796875,0.8565673828125,4.605712890625,-3.626251220703125,-0.725250244140625,1.0,1.0,1.0,1.0,1.0,25.0,
2023-09-07 23:53:51.486,-0.05961653,0.27405635,-0.13249457,0.06330543,0.06584324,0.03513163,-0.23148964,0.27866232,0.36278886,0.20965973,0.23661102,0.5557496,0.72947496,0.34810725,0.6531313,0.66412646,0.49666655,0.24859507,0.5218497,0.53645474,782.0879,790.14655,788.5348,785.31134,701.9048,0.4945068359375,0.0115966796875,0.8565673828125,4.605712890625,-3.626251220703125,-0.725250244140625,1.0,1.0,1.0,1.0,1.0,25.0,
2023-09-07 23:53:51.522,-0.05961653,0.27405635,-0.13249457,0.06330543,0.06584324,0.03513163,-0.23148964,0.27866232,0.36278886,0.20965973,0.23661102,0.5557496,0.72947496,0.34810725,0.6531313,0.66412646,0.49666655,0.24859507,0.5218497,0.53645474,796.1905,788.5348,800.6227,786.9231,691.02563,0.4993896484375,0.017578125,0.862060546875,6.482391357421875,-3.09539794921875,-0.471038818359375,1.0,1.0,1.0,1.0,1.0,25.0,
2023-09-07 23:53:51.572,-0.05961653,0.27405635,-0.13249457,0.06330543,0.06584324,0.03513163,-0.23148964,0.27866232,0.36278886,0.20965973,0.23661102,0.5557496,0.72947496,0.34810725,0.6531313,0.66412646,0.49666655,0.24859507,0.5218497,0.53645474,796.5934,810.293,797.3993,820.7692,690.2198,0.50201416015625,0.017578125,0.86993408203125,6.20574951171875,-2.572021484375,-0.142059326171875,1.0,1.0,1.0,1.0,1.0,25.0,
2023-09-07 23:53:51.623,-0.05961653,0.27405635,-0.13249457,0.06330543,0.06584324,0.03513163,-0.23148964,0.27866232,0.36278886,0.20965973,0.23661102,0.5557496,0.72947496,0.34810725,0.6531313,0.66412646,0.49666655,0.24859507,0.5218497,0.53645474,783.69965,800.6227,789.7436,799.011,648.315,0.50897216796875,0.01318359375,0.8544921875,5.031890869140625,-0.456085205078125,1.143951416015625,1.0,1.0,1.0,1.0,1.0,25.0,
2023-09-07 23:53:51.624,-0.05961653,0.27514508,-0.103083126,0.06330543,0.06584324,0.06104959,-0.20179908,0.27866232,0.36278886,0.17390122,0.2453925,0.5557496,0.72947496,0.36495677,0.6457582,0.66412646,0.49666655,0.24685395,0.525165,0.53645474,783.2967,799.81683,802.6374,810.293,692.6374,0.50897216796875,0.01318359375,0.8544921875,5.031890869140625,-0.456085205078125,1.143951416015625,1.0,1.0,1.0,1.0,1.0,25.0,
2023-09-07 23:53:51.677,-0.05961653,0.27514508,-0.103083126,0.06330543,0.06584324,0.06104959,-0.20179908,0.27866232,0.36278886,0.17390122,0.2453925,0.5557496,0.72947496,0.36495677,0.6457582,0.66412646,0.49666655,0.24685395,0.525165,0.53645474,790.9524,788.5348,801.4286,795.78754,617.6923,0.48382568359375,0.0213623046875,0.865478515625,5.8917236328125,0.64300537109375,1.592559814453125,1.0,1.0,1.0,1.0,1.0,25.0,
2023-09-07 23:53:51.714,0.048662078,0.279266,-0.07599798,0.076931365,0.13730842,0.08078442,-0.17644778,0.32777333,-0.048398457,0.15101798,0.2453925,0.4529205,0.42386454,0.38816345,0.6412198,0.950758,0.5918435,0.24955745,0.53043514,0.8338043,796.1905,807.0696,799.011,799.41394,645.4945,0.48382568359375,0.0213623046875,0.865478515625,5.8917236328125,0.64300537109375,1.592559814453125,1.0,1.0,1.0,1.0,1.0,25.0,
2023-09-07 23:53:51.751,0.048662078,0.279266,-0.07599798,0.076931365,0.13730842,0.08078442,-0.17644778,0.32777333,-0.048398457,0.15101798,0.2453925,0.4529205,0.42386454,0.38816345,0.6412198,0.950758,0.5918435,0.24955745,0.53043514,0.8338043,794.57874,790.9524,794.17584,791.75824,726.4835,0.46771240234375,0.02978515625,0.86651611328125,5.8917236328125,0.34393310546875,-0.725250244140625,1.0,1.0,1.0,1.0,1.0,25.0,
2023-09-07 23:53:51.807,0.048662078,0.279266,-0.07599798,0.076931365,0.13730842,0.08078442,-0.17644778,0.32777333,-0.048398457,0.15101798,0.2453925,0.4529205,0.42386454,0.38816345,0.6412198,0.950758,0.5918435,0.24955745,0.53043514,0.8338043,803.0403,798.60803,805.05493,802.23444,754.68866,0.465576171875,0.0274658203125,0.8682861328125,4.164581298828125,-1.36077880859375,-2.70660400390625,1.0,1.0,1.0,1.0,1.0,25.0,
2023-09-07 23:53:51.810,0.067850485,0.28080654,-0.05638079,0.15374026,0.08595074,0.0977506,-0.15985227,0.2732069,-0.011028897,0.16075647,0.2453925,0.480339,0.39244118,0.4160669,0.639775,0.96179694,0.5761556,0.25735018,0.5376755,0.7950496,825.6044,810.293,790.9524,797.8022,714.3956,0.465576171875,0.0274658203125,0.8682861328125,4.164581298828125,-1.36077880859375,-2.70660400390625,1.0,1.0,1.0,1.0,1.0,25.0,
2023-09-07 23:53:51.862,0.067850485,0.28080654,-0.05638079,0.15374026,0.08595074,0.0977506,-0.15985227,0.2732069,-0.011028897,0.16075647,0.2453925,0.480339,0.39244118,0.4160669,0.639775,0.96179694,0.5761556,0.25735018,0.5376755,0.7950496,794.17584,796.5934,789.34064,794.9817,1187.8389,0.47650146484375,0.02264404296875,0.86016845703125,4.18701171875,-3.27484130859375,-1.054229736328125,1.0,1.0,1.0,1.0,1.0,25.0,
2023-09-07 23:53:51.906,0.067850485,0.28080654,-0.05638079,0.15374026,0.08595074,0.0977506,-0.15985227,0.2732069,-0.011028897,0.16075647,0.2453925,0.480339,0.39244118,0.4160669,0.639775,0.96179694,0.5761556,0.25735018,0.5376755,0.7950496,793.7729,796.99634,784.90845,786.9231,733.73627,0.46923828125,0.02362060546875,0.87420654296875,4.673004150390625,-3.342132568359375,-0.142059326171875,1.0,1.0,1.0,1.0,1.0,25.0,
2023-09-07 23:53:51.912,0.07867904,0.26875365,-0.04682256,0.19067177,0.05822303,0.11003973,-0.15282166,0.22733797,0.10431342,0.1723416,0.2453925,0.5016751,0.40722036,0.44300625,0.6370132,0.9541775,0.56942374,0.26526874,0.54326177,0.76703006,788.1319,792.1612,799.41394,796.5934,1175.751,0.46923828125,0.02362060546875,0.87420654296875,4.673004150390625,-3.342132568359375,-0.142059326171875,1.0,1.0,1.0,1.0,1.0,25.0,
2023-09-07 23:53:51.988,0.07867904,0.26875365,-0.04682256,0.19067177,0.05822303,0.11003973,-0.15282166,0.22733797,0.10431342,0.1723416,0.2453925,0.5016751,0.40722036,0.44300625,0.6370132,0.9541775,0.56942374,0.26526874,0.54326177,0.76703006,792.5641,796.5934,795.38464,796.5934,666.8498,0.47381591796875,0.014404296875,0.86700439453125,3.289794921875,-4.583282470703125,-1.637420654296875,1.0,1.0,1.0,1.0,1.0,25.0,
2023-09-07 23:53:51.993,0.09913292,0.22911981,-0.049922246,0.19289239,0.052181408,0.11410906,-0.1543756,0.18548875,0.22108945,0.20228405,0.24381031,0.5168411,0.47203347,0.4630819,0.6248376,0.93514407,0.58066744,0.26843798,0.5416068,0.74787945,790.9524,792.96704,790.14655,792.1612,952.52747,0.47381591796875,0.014404296875,0.86700439453125,3.289794921875,-4.583282470703125,-1.637420654296875,1.0,1.0,1.0,1.0,1.0,25.0,
2023-09-07 23:53:52.025,0.09913292,0.22911981,-0.049922246,0.19289239,0.052181408,0.11410906,-0.1543756,0.18548875,0.22108945,0.20228405,0.24381031,0.5168411,0.47203347,0.4630819,0.6248376,0.93514407,0.58066744,0.26843798,0.5416068,0.74787945,793.36993,801.8315,799.011,786.9231,669.67035,0.49542236328125,0.01690673828125,0.8643798828125,4.598236083984375,-4.5458984375,-1.09161376953125,1.0,1.0,1.0,1.0,1.0,25.0,
2023-09-07 23:53:52.054,0.09913292,0.22911981,-0.049922246,0.19289239,0.052181408,0.11410906,-0.1543756,0.18548875,0.22108945,0.20228405,0.24381031,0.5168411,0.47203347,0.4630819,0.6248376,0.93514407,0.58066744,0.26843798,0.5416068,0.74787945,790.54944,800.6227,799.41394,796.1905,669.67035,0.49871826171875,0.01702880859375,0.8653564453125,3.84307861328125,-3.648681640625,0.97198486328125,1.0,1.0,1.0,1.0,1.0,25.0,
2023-09-07 23:53:52.061,0.14701052,0.16183525,-0.06386928,0.17336516,0.06653438,0.11277457,-0.16132456,0.14275442,0.30284396,0.21389498,0.24287221,0.53408104,0.5563697,0.4734345,0.5981857,0.91300875,0.60945654,0.2659918,0.5271416,0.7320151,794.9817,787.72894,802.6374,803.0403,629.7802,0.49871826171875,0.01702880859375,0.8653564453125,3.84307861328125,-3.648681640625,0.97198486328125,1.0,1.0,1.0,1.0,1.0,25.0,
2023-09-07 23:53:52.166,0.14701052,0.16183525,-0.06386928,0.17336516,0.06653438,0.11277457,-0.16132456,0.14275442,0.30284396,0.21389498,0.24287221,0.53408104,0.5563697,0.4734345,0.5981857,0.91300875,0.60945654,0.2659918,0.5271416,0.7320151,784.10254,791.75824,811.50183,800.2198,863.8828,0.49005126953125,0.01873779296875,0.858642578125,4.5758056640625,-3.087921142578125,0.755157470703125,1.0,1.0,1.0,1.0,1.0,25.0,
2023-09-07 23:53:52.177,0.14701052,0.16183525,-0.06386928,0.17336516,0.06653438,0.11277457,-0.16132456,0.14275442,0.30284396,0.21389498,0.24287221,0.53408104,0.5563697,0.4734345,0.5981857,0.91300875,0.60945654,0.2659918,0.5271416,0.7320151,799.011,793.7729,798.20514,801.8315,677.72894,0.4898681640625,0.0260009765625,0.86236572265625,4.658050537109375,-2.459869384765625,-0.082244873046875,1.0,1.0,1.0,1.0,1.0,25.0,
2023-09-07 23:53:52.220,0.20439345,0.08616892,-0.07691947,0.14015786,0.09466345,0.11151795,-0.16687784,0.10073882,0.34710297,0.21252461,0.24287221,0.5601543,0.62691957,0.47513002,0.5614582,0.89521146,0.6412298,0.26046357,0.49794003,0.7160344,806.26373,812.3077,776.8498,796.99634,669.2674,0.4898681640625,0.0260009765625,0.86236572265625,4.658050537109375,-2.459869384765625,-0.082244873046875,1.0,1.0,1.0,1.0,1.0,25.0,
2023-09-07 23:53:52.264,0.20439345,0.08616892,-0.07691947,0.14015786,0.09466345,0.11151795,-0.16687784,0.10073882,0.34710297,0.21252461,0.24287221,0.5601543,0.62691957,0.47513002,0.5614582,0.89521146,0.6412298,0.26046357,0.49794003,0.7160344,798.20514,794.9817,781.685,797.3993,700.293,0.476806640625,0.021484375,0.85809326171875,3.386993408203125,-2.878570556640625,-0.4486083984375,1.0,1.0,1.0,1.0,1.0,25.0,
2023-09-07 23:53:52.311,0.20439345,0.08616892,-0.07691947,0.14015786,0.09466345,0.11151795,-0.16687784,0.10073882,0.34710297,0.21252461,0.24287221,0.5601543,0.62691957,0.47513002,0.5614582,0.89521146,0.6412298,0.26046357,0.49794003,0.7160344,793.7729,798.60803,802.23444,792.1612,637.8388,0.48431396484375,0.01080322265625,0.855224609375,3.058013916015625,-4.38140869140625,-1.74957275390625,1.0,1.0,1.0,1.0,1.0,25.0,
2023-09-07 23:53:52.313,0.25007847,0.03508589,-0.07563093,0.10290233,0.12713018,0.11125349,-0.16658832,0.063404195,0.3502728,0.21010123,0.22761221,0.56143737,0.6683584,0.47205856,0.52889884,0.8849122,0.6611652,0.25226396,0.4587379,0.69957036,771.6117,796.99634,790.14655,789.7436,721.6484,0.48431396484375,0.01080322265625,0.855224609375,3.058013916015625,-4.38140869140625,-1.74957275390625,1.0,1.0,1.0,1.0,1.0,25.0,
2023-09-07 23:53:52.373,0.25007847,0.03508589,-0.07563093,0.10290233,0.12713018,0.11125349,-0.16658832,0.063404195,0.3502728,0.21010123,0.22761221,0.56143737,0.6683584,0.47205856,0.52889884,0.8849122,0.6611652,0.25226396,0.4587379,0.69957036,799.81683,803.8461,801.02563,805.8608,674.90845,0.49658203125,0.01080322265625,0.86041259765625,3.641204833984375,-4.314117431640625,-1.4056396484375,1.0,1.0,1.0,1.0,1.0,25.0,
2023-09-07 23:53:52.413,0.25007847,0.03508589,-0.07563093,0.10290233,0.12713018,0.11125349,-0.16658832,0.063404195,0.3502728,0.21010123,0.22761221,0.56143737,0.6683584,0.47205856,0.52889884,0.8849122,0.6611652,0.25226396,0.4587379,0.69957036,793.36993,803.8461,790.9524,796.5934,774.83514,0.49652099609375,0.0062255859375,0.85894775390625,3.24493408203125,-3.70849609375,-0.76263427734375,1.0,1.0,1.0,1.0,1.0,25.0,
2023-09-07 23:53:52.418,0.26740918,0.02549627,-0.052327484,0.06931647,0.1594243,0.11020719,-0.16291682,0.033819266,0.35525793,0.21010123,0.1936911,0.56143737,0.6819309,0.46898326,0.5141843,0.8798723,0.66423374,0.23846135,0.41917068,0.6840414,793.36993,798.20514,786.1172,794.9817,871.53845,0.49652099609375,0.0062255859375,0.85894775390625,3.24493408203125,-3.70849609375,-0.76263427734375,1.0,1.0,1.0,1.0,1.0,25.0,
2023-09-07 23:53:52.447,0.26740918,0.02549627,-0.052327484,0.06931647,0.1594243,0.11020719,-0.16291682,0.033819266,0.35525793,0.21010123,0.1936911,0.56143737,0.6819309,0.46898326,0.5141843,0.8798723,0.66423374,0.23846135,0.41917068,0.6840414,798.60803,797.3993,793.7729,810.293,709.9634,0.4957275390625,0.0048828125,0.86444091796875,4.358978271484375,-3.282318115234375,-0.485992431640625,1.0,1.0,1.0,1.0,1.0,25.0,
2023-09-07 23:53:52.483,0.26289922,0.044183332,-0.008803149,0.042388268,0.19652206,0.11036913,-0.16318427,0.0122225,0.371931,0.23822637,0.1511429,0.56143737,0.676838,0.4685022,0.5176288,0.875062,0.65587187,0.21701725,0.3864999,0.6712995,788.5348,800.2198,794.17584,800.2198,801.4286,0.4957275390625,0.0048828125,0.86444091796875,4.358978271484375,-3.282318115234375,-0.485992431640625,1.0,1.0,1.0,1.0,1.0,25.0,
2023-09-07 23:53:52.535,0.26289922,0.044183332,-0.008803149,0.042388268,0.19652206,0.11036913,-0.16318427,0.0122225,0.371931,0.23822637,0.1511429,0.56143737,0.676838,0.4685022,0.5176288,0.875062,0.65587187,0.21701725,0.3864999,0.6712995,790.9524,792.1612,790.54944,786.52014,777.25275,0.49853515625,0.00982666015625,0.8543701171875,5.914154052734375,-2.34771728515625,-1.31591796875,1.0,1.0,1.0,1.0,1.0,25.0,
2023-09-07 23:53:52.609,0.26289922,0.044183332,-0.008803149,0.042388268,0.19652206,0.11036913,-0.16318427,0.0122225,0.371931,0.23822637,0.1511429,0.56143737,0.676838,0.4685022,0.5176288,0.875062,0.65587187,0.21701725,0.3864999,0.6712995,803.8461,799.41394,799.41394,802.6374,763.1502,0.4908447265625,0.02093505859375,0.86962890625,5.674896240234375,-2.0037841796875,-0.299072265625,1.0,1.0,1.0,1.0,1.0,25.0,
2023-09-07 23:53:52.616,0.24987489,0.06569574,0.03318423,0.021617558,0.24051137,0.11706741,-0.17193487,-0.0025807486,0.40767658,0.27782235,0.12956311,0.56143737,0.66404665,0.46978167,0.5286873,0.86725056,0.6457605,0.1907204,0.3590671,0.66302663,802.23444,800.2198,790.54944,806.26373,692.23444,0.4908447265625,0.02093505859375,0.86962890625,5.674896240234375,-2.0037841796875,-0.299072265625,1.0,1.0,1.0,1.0,1.0,25.0,
2023-09-07 23:53:52.643,0.24987489,0.06569574,0.03318423,0.021617558,0.24051137,0.11706741,-0.17193487,-0.0025807486,0.40767658,0.27782235,0.12956311,0.56143737,0.66404665,0.46978167,0.5286873,0.86725056,0.6457605,0.1907204,0.3590671,0.66302663,796.1905,789.34064,787.72894,807.0696,684.57874,0.482666015625,0.0228271484375,0.86187744140625,4.486083984375,-2.579498291015625,-0.276641845703125,1.0,1.0,1.0,1.0,1.0,25.0,
2023-09-07 23:53:52.680,0.24987489,0.06569574,0.03318423,0.021617558,0.24051137,0.11706741,-0.17193487,-0.0025807486,0.40767658,0.27782235,0.12956311,0.56143737,0.66404665,0.46978167,0.5286873,0.86725056,0.6457605,0.1907204,0.3590671,0.66302663,792.1612,796.5934,789.34064,802.23444,808.68134,0.48175048828125,0.01751708984375,0.8592529296875,3.84307861328125,-3.342132568359375,-1.6748046875,1.0,1.0,1.0,1.0,1.0,25.0,
2023-09-07 23:53:52.687,0.23748367,0.07449252,0.05444104,0.0069041676,0.28289592,0.12579788,-0.19130032,-0.014349005,0.43354014,0.29344618,0.12796815,0.56143737,0.650564,0.47052494,0.5384304,0.8568437,0.639447,0.16657881,0.33101198,0.65964276,807.8755,795.78754,795.38464,794.9817,784.90845,0.48175048828125,0.01751708984375,0.8592529296875,3.84307861328125,-3.342132568359375,-1.6748046875,1.0,1.0,1.0,1.0,1.0,25.0,
2023-09-07 23:53:52.809,0.23748367,0.07449252,0.05444104,0.0069041676,0.28289592,0.12579788,-0.19130032,-0.014349005,0.43354014,0.29344618,0.12796815,0.56143737,0.650564,0.47052494,0.5384304,0.8568437,0.639447,0.16657881,0.33101198,0.65964276,785.31134,806.6667,784.5055,797.8022,634.21246,0.4921875,0.01446533203125,0.86407470703125,3.446807861328125,-2.953338623046875,-1.7645263671875,1.0,1.0,1.0,1.0,1.0,25.0,
2023-09-07 23:53:52.846,0.23748367,0.07449252,0.05444104,0.0069041676,0.28289592,0.12579788,-0.19130032,-0.014349005,0.43354014,0.29344618,0.12796815,0.56143737,0.650564,0.47052494,0.5384304,0.8568437,0.639447,0.16657881,0.33101198,0.65964276,794.57874,796.99634,794.17584,780.87915,740.58606,0.4930419921875,0.0069580078125,0.86083984375,4.089813232421875,-3.222503662109375,-1.233673095703125,1.0,1.0,1.0,1.0,1.0,25.0,
2023-09-07 23:53:52.847,0.2291355,0.06964459,0.0492193,-0.0008154332,0.31154913,0.125908,-0.2221757,-0.02593193,0.47815338,0.2994788,0.15142663,0.56143737,0.63869965,0.4696944,0.54449666,0.8456446,0.638267,0.15036851,0.3034951,0.6609342,810.696,796.99634,786.52014,782.49084,727.6923,0.4930419921875,0.0069580078125,0.86083984375,4.089813232421875,-3.222503662109375,-1.233673095703125,1.0,1.0,1.0,1.0,1.0,25.0,
2023-09-07 23:53:52.893,0.2291355,0.06964459,0.0492193,-0.0008154332,0.31154913,0.125908,-0.2221757,-0.02593193,0.47815338,0.2994788,0.15142663,0.56143737,0.63869965,0.4696944,0.54449666,0.8456446,0.638267,0.15036851,0.3034951,0.6609342,780.87915,792.1612,803.44324,802.23444,845.34796,0.49029541015625,0.00616455078125,0.86187744140625,4.388885498046875,-3.072967529296875,-1.27105712890625,1.0,1.0,1.0,1.0,1.0,25.0,
2023-09-07 23:53:52.941,0.2291355,0.06964459,0.0492193,-0.0008154332,0.31154913,0.125908,-0.2221757,-0.02593193,0.47815338,0.2994788,0.15142663,0.56143737,0.63869965,0.4696944,0.54449666,0.8456446,0.638267,0.15036851,0.3034951,0.6609342,788.1319,790.9524,801.4286,776.8498,787.72894,0.4896240234375,0.01214599609375,0.8582763671875,4.553375244140625,-2.145843505859375,-0.777587890625,1.0,1.0,1.0,1.0,1.0,25.0,
2023-09-07 23:53:52.943,0.24093902,0.059917156,0.028863322,0.012327319,0.3236802,0.11035643,-0.26404974,-0.107241325,0.512734,0.28935036,0.18847637,0.5213459,0.6277287,0.46771196,0.54946584,0.8342066,0.6394767,0.14262192,0.2834767,0.6451449,770.0,794.17584,794.9817,784.10254,686.1905,0.4896240234375,0.01214599609375,0.8582763671875,4.553375244140625,-2.145843505859375,-0.777587890625,1.0,1.0,1.0,1.0,1.0,25.0,
2023-09-07 23:53:52.992,0.24093902,0.059917156,0.028863322,0.012327319,0.3236802,0.11035643,-0.26404974,-0.107241325,0.512734,0.28935036,0.18847637,0.5213459,0.6277287,0.46771196,0.54946584,0.8342066,0.6394767,0.14262192,0.2834767,0.6451449,777.25275,797.8022,786.52014,822.7839,1198.7179,0.485595703125,0.01055908203125,0.8602294921875,4.822540283203125,-2.28790283203125,-0.635528564453125,1.0,1.0,1.0,1.0,1.0,25.0,
2023-09-07 23:53:53.046,0.247658,0.05438731,0.0006273858,0.03219995,0.32563752,0.08420415,-0.31097475,-0.1952301,0.5064902,0.28915048,0.18254916,0.5144152,0.63062006,0.46381468,0.556916,0.8160206,0.6444191,0.14068462,0.27237597,0.628402,794.57874,806.26373,789.7436,789.34064,719.2308,0.485595703125,0.01055908203125,0.8602294921875,4.822540283203125,-2.28790283203125,-0.635528564453125,1.0,1.0,1.0,1.0,1.0,25.0,
2023-09-07 23:53:53.111,0.247658,0.05438731,0.0006273858,0.03219995,0.32563752,0.08420415,-0.31097475,-0.1952301,0.5064902,0.28915048,0.18254916,0.5144152,0.63062006,0.46381468,0.556916,0.8160206,0.6444191,0.14068462,0.27237597,0.628402,792.1612,792.5641,781.685,798.20514,677.326,0.49639892578125,0.01409912109375,0.860107421875,4.71038818359375,-2.220611572265625,-0.04486083984375,1.0,1.0,1.0,1.0,1.0,25.0,
2023-09-07 23:53:53.122,0.247658,0.05438731,0.0006273858,0.03219995,0.32563752,0.08420415,-0.31097475,-0.1952301,0.5064902,0.28915048,0.18254916,0.5144152,0.63062006,0.46381468,0.556916,0.8160206,0.6444191,0.14068462,0.27237597,0.628402,802.6374,805.4579,797.8022,793.36993,683.7729,0.491455078125,0.0147705078125,0.86480712890625,4.3365478515625,-2.026214599609375,-0.321502685546875,1.0,1.0,1.0,1.0,1.0,25.0,
2023-09-07 23:53:53.128,0.24818303,0.053919017,-0.027621249,0.05039351,0.32667533,0.056681234,-0.3492975,-0.26112014,0.4972052,0.28019848,0.1404767,0.5318448,0.6421456,0.4546233,0.56834996,0.78949964,0.6499314,0.13967478,0.26482046,0.6192621,802.6374,796.99634,800.2198,799.011,751.8681,0.491455078125,0.0147705078125,0.86480712890625,4.3365478515625,-2.026214599609375,-0.321502685546875,1.0,1.0,1.0,1.0,1.0,25.0,
2023-09-07 23:53:53.168,0.24818303,0.053919017,-0.027621249,0.05039351,0.32667533,0.056681234,-0.3492975,-0.26112014,0.4972052,0.28019848,0.1404767,0.5318448,0.6421456,0.4546233,0.56834996,0.78949964,0.6499314,0.13967478,0.26482046,0.6192621,790.54944,797.3993,784.90845,787.326,616.08057,0.48431396484375,0.00665283203125,0.85955810546875,4.246826171875,-1.83929443359375,-0.6280517578125,1.0,1.0,1.0,1.0,1.0,25.0,
2023-09-07 23:53:53.202,0.24818303,0.053919017,-0.027621249,0.05039351,0.32667533,0.056681234,-0.3492975,-0.26112014,0.4972052,0.28019848,0.1404767,0.5318448,0.6421456,0.4546233,0.56834996,0.78949964,0.6499314,0.13967478,0.26482046,0.6192621,789.7436,796.1905,802.6374,816.337,778.86444,0.49517822265625,0.00830078125,0.85772705078125,4.62066650390625,-2.03369140625,-0.95703125,1.0,1.0,1.0,1.0,1.0,25.0,
2023-09-07 23:53:53.207,0.24470803,0.049235247,-0.053975053,0.05256287,0.32960153,0.028941093,-0.36419505,-0.29350522,0.49514583,0.27382803,0.084859364,0.5745462,0.6584943,0.4363176,0.5831122,0.76421607,0.652924,0.13582759,0.25360742,0.6206407,794.57874,803.0403,799.81683,806.26373,1106.044,0.49517822265625,0.00830078125,0.85772705078125,4.62066650390625,-2.03369140625,-0.95703125,1.0,1.0,1.0,1.0,1.0,25.0,
2023-09-07 23:53:53.287,0.24470803,0.049235247,-0.053975053,0.05256287,0.32960153,0.028941093,-0.36419505,-0.29350522,0.49514583,0.27382803,0.084859364,0.5745462,0.6584943,0.4363176,0.5831122,0.76421607,0.652924,0.13582759,0.25360742,0.6206407,784.5055,795.38464,789.34064,803.44324,709.5604,0.4896240234375,0.00933837890625,0.8577880859375,5.0543212890625,-2.392578125,-1.114044189453125,1.0,1.0,1.0,1.0,1.0,25.0,
2023-09-07 23:53:53.294,0.23497736,0.034966487,-0.0772807,0.04091027,0.33508468,-0.0045441384,-0.35472384,-0.29748836,0.49993604,0.25954765,0.06592871,0.6093163,0.67445934,0.40918294,0.6006645,0.7541539,0.65318096,0.12914169,0.23637418,0.6266227,780.4762,790.14655,790.54944,785.31134,714.7985,0.4896240234375,0.00933837890625,0.8577880859375,5.0543212890625,-2.392578125,-1.114044189453125,1.0,1.0,1.0,1.0,1.0,25.0,
2023-09-07 23:53:53.353,0.23497736,0.034966487,-0.0772807,0.04091027,0.33508468,-0.0045441384,-0.35472384,-0.29748836,0.49993604,0.25954765,0.06592871,0.6093163,0.67445934,0.40918294,0.6006645,0.7541539,0.65318096,0.12914169,0.23637418,0.6266227,788.5348,809.0842,792.5641,781.28204,704.3223,0.4857177734375,0.0174560546875,0.86358642578125,5.4730224609375,-3.028106689453125,-0.85235595703125,1.0,1.0,1.0,1.0,1.0,25.0,
2023-09-07 23:53:53.388,0.23497736,0.034966487,-0.0772807,0.04091027,0.33508468,-0.0045441384,-0.35472384,-0.29748836,0.49993604,0.25954765,0.06592871,0.6093163,0.67445934,0.40918294,0.6006645,0.7541539,0.65318096,0.12914169,0.23637418,0.6266227,794.9817,803.0403,792.1612,805.4579,744.61536,0.49017333984375,0.0120849609375,0.859619140625,4.35150146484375,-3.372039794921875,-0.755157470703125,1.0,1.0,1.0,1.0,1.0,25.0,
2023-09-07 23:53:53.427,0.23497736,0.034966487,-0.0772807,0.04091027,0.33508468,-0.0045441384,-0.35472384,-0.29748836,0.49993604,0.25954765,0.06592871,0.6093163,0.67445934,0.40918294,0.6006645,0.7541539,0.65318096,0.12914169,0.23637418,0.6266227,799.011,804.65204,790.9524,799.81683,664.83514,0.48931884765625,0.0130615234375,0.8643798828125,4.044952392578125,-2.73651123046875,-1.383209228515625,1.0,1.0,1.0,1.0,1.0,25.0,
2023-09-07 23:53:53.428,0.22253317,0.010617651,-0.09880746,0.03483673,0.34229526,-0.047311775,-0.33461764,-0.2690177,0.5043126,0.24161595,0.07045552,0.6309946,0.6821438,0.37924522,0.620079,0.7629329,0.65110177,0.12593265,0.21375366,0.62833697,799.81683,803.8461,793.7729,813.91943,717.2161,0.48931884765625,0.0130615234375,0.8643798828125,4.044952392578125,-2.73651123046875,-1.383209228515625,1.0,1.0,1.0,1.0,1.0,25.0,
2023-09-07 23:53:53.524,0.22253317,0.010617651,-0.09880746,0.03483673,0.34229526,-0.047311775,-0.33461764,-0.2690177,0.5043126,0.24161595,0.07045552,0.6309946,0.6821438,0.37924522,0.620079,0.7629329,0.65110177,0.12593265,0.21375366,0.62833697,787.326,797.3993,798.20514,805.05493,703.5165,0.490478515625,0.011474609375,0.86309814453125,4.1571044921875,-0.0,-1.876678466796875,1.0,1.0,1.0,1.0,1.0,25.0,
2023-09-07 23:53:53.577,0.20472434,-0.018871762,-0.115979366,0.048247725,0.35006055,-0.09380774,-0.31942248,-0.20359588,0.5105697,0.2277436,0.07807277,0.6496458,0.67267257,0.3530023,0.63958174,0.7792321,0.6426158,0.131388,0.18631698,0.6215826,794.17584,791.75824,789.34064,786.52014,654.7619,0.490478515625,0.011474609375,0.86309814453125,4.1571044921875,-0.0,-1.876678466796875,1.0,1.0,1.0,1.0,1.0,25.0,
2023-09-07 23:53:53.591,0.20472434,-0.018871762,-0.115979366,0.048247725,0.35006055,-0.09380774,-0.31942248,-0.20359588,0.5105697,0.2277436,0.07807277,0.6496458,0.67267257,0.3530023,0.63958174,0.7792321,0.6426158,0.131388,0.18631698,0.6215826,780.87915,798.60803,788.93774,782.8938,674.5055,0.4901123046875,0.01483154296875,0.86669921875,3.51409912109375,-2.474822998046875,-1.8841552734375,1.0,1.0,1.0,1.0,1.0,25.0,
2023-09-07 23:53:53.629,0.20472434,-0.018871762,-0.115979366,0.048247725,0.35006055,-0.09380774,-0.31942248,-0.20359588,0.5105697,0.2277436,0.07807277,0.6496458,0.67267257,0.3530023,0.63958174,0.7792321,0.6426158,0.131388,0.18631698,0.6215826,789.7436,801.8315,797.3993,782.49084,771.6117,0.4837646484375,0.0118408203125,0.858154296875,4.164581298828125,-1.831817626953125,-1.951446533203125,1.0,1.0,1.0,1.0,1.0,25.0,
2023-09-07 23:53:53.634,0.17240067,-0.046741523,-0.1240634,0.08094815,0.35237706,-0.13359514,-0.31506708,-0.1194504,0.5131118,0.18183242,0.07807277,0.6672278,0.6417176,0.33123496,0.65600395,0.790265,0.62178546,0.14396378,0.154796,0.6096524,790.14655,796.5934,783.69965,793.36993,781.685,0.4837646484375,0.0118408203125,0.858154296875,4.164581298828125,-1.831817626953125,-1.951446533203125,1.0,1.0,1.0,1.0,1.0,25.0,
2023-09-07 23:53:53.664,0.17240067,-0.046741523,-0.1240634,0.08094815,0.35237706,-0.13359514,-0.31506708,-0.1194504,0.5131118,0.18183242,0.07807277,0.6672278,0.6417176,0.33123496,0.65600395,0.790265,0.62178546,0.14396378,0.154796,0.6096524,811.9048,795.38464,791.3553,799.011,802.23444,0.48468017578125,0.01287841796875,0.8577880859375,3.84307861328125,-2.684173583984375,-1.30096435546875,1.0,1.0,1.0,1.0,1.0,25.0,
2023-09-07 23:53:53.713,0.17240067,-0.046741523,-0.1240634,0.08094815,0.35237706,-0.13359514,-0.31506708,-0.1194504,0.5131118,0.18183242,0.07807277,0.6672278,0.6417176,0.33123496,0.65600395,0.790265,0.62178546,0.14396378,0.154796,0.6096524,800.6227,804.2491,788.93774,800.2198,653.1502,0.481201171875,0.01055908203125,0.86187744140625,4.02252197265625,-3.327178955078125,-0.964508056640625,1.0,1.0,1.0,1.0,1.0,25.0,
2023-09-07 23:53:53.717,0.119372465,-0.0716915,-0.12640272,0.1164239,0.344922,-0.16055045,-0.3207411,-0.042450197,0.5088023,0.16074862,0.07807277,0.6841375,0.5939056,0.31169987,0.6657397,0.7901842,0.589232,0.15802763,0.12197958,0.59990495,805.05493,791.75824,790.54944,811.0989,1035.9341,0.481201171875,0.01055908203125,0.86187744140625,4.02252197265625,-3.327178955078125,-0.964508056640625,1.0,1.0,1.0,1.0,1.0,25.0,
2023-09-07 23:53:53.751,0.119372465,-0.0716915,-0.12640272,0.1164239,0.344922,-0.16055045,-0.3207411,-0.042450197,0.5088023,0.16074862,0.07807277,0.6841375,0.5939056,0.31169987,0.6657397,0.7901842,0.589232,0.15802763,0.12197958,0.59990495,785.31134,793.36993,789.34064,804.2491,734.1392,0.48590087890625,0.0106201171875,0.86553955078125,3.90289306640625,-3.24493408203125,-1.5850830078125,1.0,1.0,1.0,1.0,1.0,25.0,
2023-09-07 23:53:53.863,0.051598977,-0.10055549,-0.13186234,0.15095493,0.32878715,-0.17858048,-0.33235103,0.015206719,0.49854758,0.16061695,0.08032176,0.68528223,0.54418963,0.29489666,0.6665684,0.7797657,0.55411035,0.17114046,0.09180809,0.5958994,790.54944,798.20514,789.7436,790.9524,709.5604,0.48590087890625,0.0106201171875,0.86553955078125,3.90289306640625,-3.24493408203125,-1.5850830078125,1.0,1.0,1.0,1.0,1.0,25.0,
2023-09-07 23:53:53.889,0.051598977,-0.10055549,-0.13186234,0.15095493,0.32878715,-0.17858048,-0.33235103,0.015206719,0.49854758,0.16061695,0.08032176,0.68528223,0.54418963,0.29489666,0.6665684,0.7797657,0.55411035,0.17114046,0.09180809,0.5958994,786.9231,788.1319,792.96704,795.38464,599.15753,0.49432373046875,0.009033203125,0.86346435546875,3.895416259765625,-3.289794921875,-1.62994384765625,1.0,1.0,1.0,1.0,1.0,25.0,
2023-09-07 23:53:53.901,0.051598977,-0.10055549,-0.13186234,0.15095493,0.32878715,-0.17858048,-0.33235103,0.015206719,0.49854758,0.16061695,0.08032176,0.68528223,0.54418963,0.29489666,0.6665684,0.7797657,0.55411035,0.17114046,0.09180809,0.5958994,792.96704,797.8022,796.1905,774.43225,734.1392,0.4918212890625,0.013427734375,0.8662109375,3.87298583984375,-3.297271728515625,-1.517791748046875,1.0,1.0,1.0,1.0,1.0,25.0,
2023-09-07 23:53:53.907,-0.006333596,-0.13940449,-0.15629417,0.18603887,0.30928645,-0.19938032,-0.34087065,0.057022665,0.49692902,0.16061695,0.10791619,0.68528223,0.5114517,0.28288186,0.65910846,0.762709,0.5267337,0.18346293,0.068650946,0.59441465,781.28204,801.4286,794.17584,794.17584,695.4579,0.4918212890625,0.013427734375,0.8662109375,3.87298583984375,-3.297271728515625,-1.517791748046875,1.0,1.0,1.0,1.0,1.0,25.0,
2023-09-07 23:53:53.952,-0.006333596,-0.13940449,-0.15629417,0.18603887,0.30928645,-0.19938032,-0.34087065,0.057022665,0.49692902,0.16061695,0.10791619,0.68528223,0.5114517,0.28288186,0.65910846,0.762709,0.5267337,0.18346293,0.068650946,0.59441465,792.5641,797.3993,782.0879,790.9524,690.6227,0.48736572265625,0.00750732421875,0.85809326171875,3.850555419921875,-3.147735595703125,-1.4056396484375,1.0,1.0,1.0,1.0,1.0,25.0,
2023-09-07 23:53:53.994,-0.006333596,-0.13940449,-0.15629417,0.18603887,0.30928645,-0.19938032,-0.34087065,0.057022665,0.49692902,0.16061695,0.10791619,0.68528223,0.5114517,0.28288186,0.65910846,0.762709,0.5267337,0.18346293,0.068650946,0.59441465,789.34064,790.14655,798.60803,802.23444,729.304,0.49200439453125,0.006103515625,0.863525390625,4.284210205078125,-4.2169189453125,-1.42059326171875,1.0,1.0,1.0,1.0,1.0,25.0,
2023-09-07 23:53:54.036,-0.042303983,-0.19160822,-0.20884307,0.22250931,0.28708053,-0.23626167,-0.32694498,0.09202347,0.49692902,0.16061695,0.14049807,0.68528223,0.505126,0.27530515,0.6474661,0.7454421,0.5075774,0.19328159,0.053764246,0.5915366,780.87915,796.99634,801.4286,806.6667,729.304,0.49200439453125,0.006103515625,0.863525390625,4.284210205078125,-4.2169189453125,-1.42059326171875,1.0,1.0,1.0,1.0,1.0,25.0,
2023-09-07 23:53:54.079,-0.042303983,-0.19160822,-0.20884307,0.22250931,0.28708053,-0.23626167,-0.32694498,0.09202347,0.49692902,0.16061695,0.14049807,0.68528223,0.505126,0.27530515,0.6474661,0.7454421,0.5075774,0.19328159,0.053764246,0.5915366,792.5641,800.6227,790.54944,798.20514,941.6484,0.50775146484375,0.00262451171875,0.85174560546875,5.24871826171875,-4.074859619140625,-0.34393310546875,1.0,1.0,1.0,1.0,1.0,25.0,
2023-09-07 23:53:54.177,-0.042303983,-0.19160822,-0.20884307,0.22250931,0.28708053,-0.23626167,-0.32694498,0.09202347,0.49692902,0.16061695,0.14049807,0.68528223,0.505126,0.27530515,0.6474661,0.7454421,0.5075774,0.19328159,0.053764246,0.5915366,798.20514,799.011,799.011,799.81683,651.53845,0.50372314453125,0.00738525390625,0.86456298828125,5.921630859375,-2.429962158203125,0.710296630859375,1.0,1.0,1.0,1.0,1.0,25.0,
2023-09-07 23:53:54.179,-0.06521247,-0.2464206,-0.27752256,0.25656474,0.25825986,-0.2976582,-0.27442658,0.12454628,0.51656085,0.14985739,0.17674446,0.68528223,0.5181677,0.26943895,0.63606465,0.7358866,0.4880871,0.19814514,0.04572455,0.58673656,800.6227,792.5641,803.44324,798.20514,756.7033,0.50372314453125,0.00738525390625,0.86456298828125,5.921630859375,-2.429962158203125,0.710296630859375,1.0,1.0,1.0,1.0,1.0,25.0,
2023-09-07 23:53:54.225,-0.06521247,-0.2464206,-0.27752256,0.25656474,0.25825986,-0.2976582,-0.27442658,0.12454628,0.51656085,0.14985739,0.17674446,0.68528223,0.5181677,0.26943895,0.63606465,0.7358866,0.4880871,0.19814514,0.04572455,0.58673656,811.50183,809.0842,808.68134,794.9817,693.0403,0.4976806640625,0.0107421875,0.857666015625,6.400146484375,-0.07476806640625,1.024322509765625,1.0,1.0,1.0,1.0,1.0,25.0,
2023-09-07 23:53:54.233,-0.06521247,-0.2464206,-0.27752256,0.25656474,0.25825986,-0.2976582,-0.27442658,0.12454628,0.51656085,0.14985739,0.17674446,0.68528223,0.5181677,0.26943895,0.63606465,0.7358866,0.4880871,0.19814514,0.04572455,0.58673656,782.0879,800.2198,795.78754,782.8938,641.8681,0.47607421875,0.02288818359375,0.86676025390625,6.078643798828125,-0.16448974609375,0.575714111328125,1.0,1.0,1.0,1.0,1.0,25.0,
2023-09-07 23:53:54.236,-0.07506249,-0.265967,-0.32987958,0.28432414,0.22522858,-0.3747786,-0.19167449,0.15405238,0.5433481,0.11073915,0.21589553,0.68528223,0.5368934,0.2632251,0.6259534,0.7369007,0.4623724,0.19902882,0.042606447,0.5815911,809.4872,792.1612,799.41394,801.8315,919.0842,0.47607421875,0.02288818359375,0.86676025390625,6.078643798828125,-0.16448974609375,0.575714111328125,1.0,1.0,1.0,1.0,1.0,25.0,
2023-09-07 23:53:54.273,-0.07506249,-0.265967,-0.32987958,0.28432414,0.22522858,-0.3747786,-0.19167449,0.15405238,0.5433481,0.11073915,0.21589553,0.68528223,0.5368934,0.2632251,0.6259534,0.7369007,0.4623724,0.19902882,0.042606447,0.5815911,790.9524,788.1319,805.8608,794.17584,652.3443,0.47698974609375,0.01409912109375,0.8577880859375,4.7552490234375,-1.854248046875,-0.695343017578125,1.0,1.0,1.0,1.0,1.0,25.0,
2023-09-07 23:53:54.353,-0.053588577,-0.23752895,-0.33712992,0.30634755,0.20434688,-0.4408552,-0.10683336,0.18230823,0.56666183,0.116891265,0.25353813,0.68528223,0.5531856,0.2554912,0.6144775,0.745009,0.43030185,0.19993545,0.04233001,0.5753371,795.78754,795.38464,795.38464,793.36993,746.63007,0.47698974609375,0.01409912109375,0.8577880859375,4.7552490234375,-1.854248046875,-0.695343017578125,1.0,1.0,1.0,1.0,1.0,25.0,
2023-09-07 23:53:54.398,-0.053588577,-0.23752895,-0.33712992,0.30634755,0.20434688,-0.4408552,-0.10683336,0.18230823,0.56666183,0.116891265,0.25353813,0.68528223,0.5531856,0.2554912,0.6144775,0.745009,0.43030185,0.19993545,0.04233001,0.5753371,780.07324,788.5348,792.5641,778.86444,740.58606,0.4892578125,0.01324462890625,0.86334228515625,4.448699951171875,-3.7982177734375,-0.8673095703125,1.0,1.0,1.0,1.0,1.0,25.0,
2023-09-07 23:53:54.435,-0.053588577,-0.23752895,-0.33712992,0.30634755,0.20434688,-0.4408552,-0.10683336,0.18230823,0.56666183,0.116891265,0.25353813,0.68528223,0.5531856,0.2554912,0.6144775,0.745009,0.43030185,0.19993545,0.04233001,0.5753371,798.60803,800.6227,797.8022,815.5311,774.83514,0.4879150390625,0.013427734375,0.86712646484375,4.50103759765625,-2.594451904296875,-0.471038818359375,1.0,1.0,1.0,1.0,1.0,25.0,
2023-09-07 23:53:54.442,0.024201134,-0.17913467,-0.31238806,0.33252466,0.21216673,-0.46760592,-0.041969854,0.2111373,0.60099983,0.1168273,0.24471292,0.6871627,0.56545526,0.24435745,0.59965247,0.75505304,0.3962955,0.20282543,0.046783082,0.5654968,803.44324,781.685,788.5348,794.9817,665.64105,0.4879150390625,0.013427734375,0.86712646484375,4.50103759765625,-2.594451904296875,-0.471038818359375,1.0,1.0,1.0,1.0,1.0,25.0,
2023-09-07 23:53:54.493,0.024201134,-0.17913467,-0.31238806,0.33252466,0.21216673,-0.46760592,-0.041969854,0.2111373,0.60099983,0.1168273,0.24471292,0.6871627,0.56545526,0.24435745,0.59965247,0.75505304,0.3962955,0.20282543,0.046783082,0.5654968,783.2967,791.3553,794.57874,801.02563,1177.3627,0.48126220703125,0.01348876953125,0.86309814453125,4.3963623046875,-2.415008544921875,-0.40374755859375,1.0,1.0,1.0,1.0,1.0,25.0,
2023-09-07 23:53:54.525,0.024201134,-0.17913467,-0.31238806,0.33252466,0.21216673,-0.46760592,-0.041969854,0.2111373,0.60099983,0.1168273,0.24471292,0.6871627,0.56545526,0.24435745,0.59965247,0.75505304,0.3962955,0.20282543,0.046783082,0.5654968,792.1612,788.1319,802.6374,788.5348,809.4872,0.47467041015625,0.0081787109375,0.8551025390625,3.60382080078125,-3.506622314453125,-0.545806884765625,1.0,1.0,1.0,1.0,1.0,25.0,
2023-09-07 23:53:54.535,0.14355928,-0.113530524,-0.26585075,0.36915377,0.24329601,-0.4556423,-0.003924719,0.23870094,0.58925974,0.09598854,0.21339877,0.6908891,0.57434404,0.22926004,0.5832905,0.7644595,0.36755672,0.20388676,0.061613448,0.5517973,781.28204,802.23444,794.9817,798.60803,1106.4469,0.47467041015625,0.0081787109375,0.8551025390625,3.60382080078125,-3.506622314453125,-0.545806884765625,1.0,1.0,1.0,1.0,1.0,25.0,
2023-09-07 23:53:54.651,0.14355928,-0.113530524,-0.26585075,0.36915377,0.24329601,-0.4556423,-0.003924719,0.23870094,0.58925974,0.09598854,0.21339877,0.6908891,0.57434404,0.22926004,0.5832905,0.7644595,0.36755672,0.20388676,0.061613448,0.5517973,797.3993,799.41394,801.8315,802.23444,691.4286,0.4940185546875,-0.00042724609375,0.86444091796875,4.717864990234375,-4.583282470703125,-0.590667724609375,1.0,1.0,1.0,1.0,1.0,25.0,
2023-09-07 23:53:54.705,0.14355928,-0.113530524,-0.26585075,0.36915377,0.24329601,-0.4556423,-0.003924719,0.23870094,0.58925974,0.09598854,0.21339877,0.6908891,0.57434404,0.22926004,0.5832905,0.7644595,0.36755672,0.20388676,0.061613448,0.5517973,796.1905,777.6557,794.57874,788.1319,644.2857,0.50775146484375,0.00164794921875,0.86865234375,4.732818603515625,-3.970184326171875,-0.291595458984375,1.0,1.0,1.0,1.0,1.0,25.0,
2023-09-07 23:53:54.706,0.2550717,-0.059425082,-0.22498772,0.41002113,0.2758384,-0.42305005,0.011397999,0.25945994,0.587205,0.057556663,0.18570419,0.6908891,0.57969534,0.21325421,0.56906384,0.77039933,0.35284784,0.1983664,0.08604313,0.53788024,788.93774,778.0586,801.02563,791.75824,686.5934,0.50775146484375,0.00164794921875,0.86865234375,4.732818603515625,-3.970184326171875,-0.291595458984375,1.0,1.0,1.0,1.0,1.0,25.0,
2023-09-07 23:53:54.722,0.2550717,-0.059425082,-0.22498772,0.41002113,0.2758384,-0.42305005,0.011397999,0.25945994,0.587205,0.057556663,0.18570419,0.6908891,0.57969534,0.21325421,0.56906384,0.77039933,0.35284784,0.1983664,0.08604313,0.53788024,796.5934,794.9817,790.54944,791.75824,751.4652,0.502685546875,0.0069580078125,0.86883544921875,5.921630859375,-1.00189208984375,0.179443359375,1.0,1.0,1.0,1.0,1.0,25.0,
2023-09-07 23:53:54.759,0.2550717,-0.059425082,-0.22498772,0.41002113,0.2758384,-0.42305005,0.011397999,0.25945994,0.587205,0.057556663,0.18570419,0.6908891,0.57969534,0.21325421,0.56906384,0.77039933,0.35284784,0.1983664,0.08604313,0.53788024,803.8461,794.57874,796.1905,799.41394,954.1392,0.479248046875,0.0164794921875,0.85772705078125,6.56463623046875,0.590667724609375,-0.11962890625,1.0,1.0,1.0,1.0,1.0,25.0,
2023-09-07 23:53:54.762,0.33323967,-0.027056437,-0.1925998,0.4448723,0.2950776,-0.3799584,0.011578673,0.2685231,0.587205,-0.009962982,0.18570419,0.6908891,0.5817474,0.20184165,0.5570453,0.7665674,0.3578518,0.1840695,0.10954328,0.52736646,785.31134,801.4286,800.6227,781.685,679.7436,0.479248046875,0.0164794921875,0.85772705078125,6.56463623046875,0.590667724609375,-0.11962890625,1.0,1.0,1.0,1.0,1.0,25.0,
2023-09-07 23:53:54.799,0.33323967,-0.027056437,-0.1925998,0.4448723,0.2950776,-0.3799584,0.011578673,0.2685231,0.587205,-0.009962982,0.18570419,0.6908891,0.5817474,0.20184165,0.5570453,0.7665674,0.3578518,0.1840695,0.10954328,0.52736646,814.3223,803.44324,801.8315,792.1612,675.7143,0.47772216796875,0.0126953125,0.8626708984375,4.508514404296875,-1.80938720703125,-0.7177734375,1.0,1.0,1.0,1.0,1.0,25.0,
2023-09-07 23:53:54.865,0.38339466,-0.011981568,-0.15972519,0.46478,0.29672104,-0.3346693,0.0015183979,0.26483744,0.587205,-0.06074873,0.18570419,0.6588509,0.5820347,0.19903399,0.54365236,0.7469381,0.37696663,0.16287425,0.121673934,0.5208302,792.1612,791.75824,791.3553,792.5641,700.696,0.47772216796875,0.0126953125,0.8626708984375,4.508514404296875,-1.80938720703125,-0.7177734375,1.0,1.0,1.0,1.0,1.0,25.0,
2023-09-07 23:53:54.913,0.38339466,-0.011981568,-0.15972519,0.46478,0.29672104,-0.3346693,0.0015183979,0.26483744,0.587205,-0.06074873,0.18570419,0.6588509,0.5820347,0.19903399,0.54365236,0.7469381,0.37696663,0.16287425,0.121673934,0.5208302,810.293,798.20514,795.78754,810.293,676.1172,0.48809814453125,0.001953125,0.85321044921875,4.059906005859375,-3.887939453125,-0.411224365234375,1.0,1.0,1.0,1.0,1.0,25.0,
2023-09-07 23:53:54.976,0.38339466,-0.011981568,-0.15972519,0.46478,0.29672104,-0.3346693,0.0015183979,0.26483744,0.587205,-0.06074873,0.18570419,0.6588509,0.5820347,0.19903399,0.54365236,0.7469381,0.37696663,0.16287425,0.121673934,0.5208302,799.011,796.5934,801.02563,801.02563,659.59705,0.49212646484375,0.01513671875,0.8624267578125,5.8917236328125,-2.79632568359375,-0.31402587890625,1.0,1.0,1.0,1.0,1.0,25.0,
2023-09-07 23:53:54.983,0.41614035,6.3818756e-05,-0.12826432,0.47103176,0.28575206,-0.29280755,-0.014293279,0.24926986,0.587205,-0.063080825,0.18753499,0.58280873,0.5820912,0.20468062,0.52559817,0.713938,0.3975713,0.13907608,0.12123724,0.51637363,798.20514,802.6374,794.57874,813.5165,900.9524,0.49212646484375,0.01513671875,0.8624267578125,5.8917236328125,-2.79632568359375,-0.31402587890625,1.0,1.0,1.0,1.0,1.0,25.0,
2023-09-07 23:53:54.993,0.41614035,6.3818756e-05,-0.12826432,0.47103176,0.28575206,-0.29280755,-0.014293279,0.24926986,0.587205,-0.063080825,0.18753499,0.58280873,0.5820912,0.20468062,0.52559817,0.713938,0.3975713,0.13907608,0.12123724,0.51637363,790.9524,789.34064,786.52014,784.10254,610.4396,0.48760986328125,0.01434326171875,0.86865234375,4.6356201171875,-2.79632568359375,-0.216827392578125,1.0,1.0,1.0,1.0,1.0,25.0,
2023-09-07 23:53:55.037,0.41614035,6.3818756e-05,-0.12826432,0.47103176,0.28575206,-0.29280755,-0.014293279,0.24926986,0.587205,-0.063080825,0.18753499,0.58280873,0.5820912,0.20468062,0.52559817,0.713938,0.3975713,0.13907608,0.12123724,0.51637363,800.2198,795.38464,790.14655,798.20514,759.5238,0.491943359375,0.0162353515625,0.867919921875,4.388885498046875,-3.013153076171875,-0.530853271484375,1.0,1.0,1.0,1.0,1.0,25.0,
2023-09-07 23:53:55.044,0.44112954,0.010056006,-0.10342575,0.46667475,0.26840898,-0.257991,-0.029734923,0.22143582,0.587205,-0.0725988,0.18283646,0.5093424,0.58198243,0.2149341,0.5025656,0.6806371,0.41178197,0.11883524,0.116575986,0.51207906,794.57874,795.78754,796.5934,810.696,960.58606,0.491943359375,0.0162353515625,0.867919921875,4.388885498046875,-3.013153076171875,-0.530853271484375,1.0,1.0,1.0,1.0,1.0,25.0,
2023-09-07 23:53:55.159,0.44112954,0.010056006,-0.10342575,0.46667475,0.26840898,-0.257991,-0.029734923,0.22143582,0.587205,-0.0725988,0.18283646,0.5093424,0.58198243,0.2149341,0.5025656,0.6806371,0.41178197,0.11883524,0.116575986,0.51207906,780.87915,787.326,786.52014,784.10254,764.35895,0.4814453125,0.01409912109375,0.8646240234375,3.895416259765625,-1.854248046875,-1.12152099609375,1.0,1.0,1.0,1.0,1.0,25.0,
2023-09-07 23:53:55.167,0.46912348,0.019509144,-0.086641654,0.456985,0.25150475,-0.23313497,-0.04103524,0.18458657,0.5948511,-0.029398868,0.15323088,0.5140327,0.58095324,0.22466145,0.47699028,0.66039973,0.42116928,0.10582038,0.117096186,0.5056066,803.8461,809.4872,792.96704,796.5934,740.18317,0.4814453125,0.01409912109375,0.8646240234375,3.895416259765625,-1.854248046875,-1.12152099609375,1.0,1.0,1.0,1.0,1.0,25.0,
2023-09-07 23:53:55.172,0.46912348,0.019509144,-0.086641654,0.456985,0.25150475,-0.23313497,-0.04103524,0.18458657,0.5948511,-0.029398868,0.15323088,0.5140327,0.58095324,0.22466145,0.47699028,0.66039973,0.42116928,0.10582038,0.117096186,0.5056066,801.8315,806.26373,794.9817,797.3993,764.35895,0.47003173828125,0.0135498046875,0.86431884765625,3.626251220703125,-1.906585693359375,-2.444915771484375,1.0,1.0,1.0,1.0,1.0,25.0,
2023-09-07 23:53:55.211,0.46912348,0.019509144,-0.086641654,0.456985,0.25150475,-0.23313497,-0.04103524,0.18458657,0.5948511,-0.029398868,0.15323088,0.5140327,0.58095324,0.22466145,0.47699028,0.66039973,0.42116928,0.10582038,0.117096186,0.5056066,786.1172,793.7729,787.72894,795.78754,889.2674,0.46673583984375,0.01324462890625,0.8701171875,3.84307861328125,-2.52716064453125,-2.758941650390625,1.0,1.0,1.0,1.0,1.0,25.0,
2023-09-07 23:53:55.283,0.46912348,0.019509144,-0.086641654,0.456985,0.25150475,-0.23313497,-0.04103524,0.18458657,0.5948511,-0.029398868,0.15323088,0.5140327,0.58095324,0.22466145,0.47699028,0.66039973,0.42116928,0.10582038,0.117096186,0.5056066,780.87915,811.50183,787.72894,793.7729,736.9597,0.487060546875,0.00396728515625,0.8658447265625,2.28790283203125,-6.572113037109375,-3.028106689453125,1.0,1.0,1.0,1.0,1.0,25.0,
2023-09-07 23:53:55.285,0.50895035,0.02498355,-0.078190394,0.45194075,0.23852564,-0.22012436,-0.049192134,0.14649071,0.59573495,0.06756792,0.13660792,0.52185875,0.5788512,0.23002619,0.4530499,0.6548615,0.43059328,0.09885392,0.12626721,0.49443215,782.49084,806.26373,788.1319,776.04395,676.9231,0.487060546875,0.00396728515625,0.8658447265625,2.28790283203125,-6.572113037109375,-3.028106689453125,1.0,1.0,1.0,1.0,1.0,25.0,
2023-09-07 23:53:55.324,0.50895035,0.02498355,-0.078190394,0.45194075,0.23852564,-0.22012436,-0.049192134,0.14649071,0.59573495,0.06756792,0.13660792,0.52185875,0.5788512,0.23002619,0.4530499,0.6548615,0.43059328,0.09885392,0.12626721,0.49443215,788.5348,795.78754,788.93774,796.1905,722.0513,0.50848388671875,0.005859375,0.858642578125,3.78326416015625,-4.523468017578125,-0.94207763671875,1.0,1.0,1.0,1.0,1.0,25.0,
2023-09-07 23:53:55.365,0.549674,0.0262109,-0.07876295,0.44864833,0.22844484,-0.21331166,-0.05783423,0.11767061,0.5973994,0.13743699,0.17485768,0.513618,0.5762645,0.23023742,0.43436214,0.6572823,0.44304663,0.09450766,0.14115575,0.48137787,813.5165,807.0696,796.1905,825.2015,782.0879,0.50848388671875,0.005859375,0.858642578125,3.78326416015625,-4.523468017578125,-0.94207763671875,1.0,1.0,1.0,1.0,1.0,25.0,
2023-09-07 23:53:55.413,0.549674,0.0262109,-0.07876295,0.44864833,0.22844484,-0.21331166,-0.05783423,0.11767061,0.5973994,0.13743699,0.17485768,0.513618,0.5762645,0.23023742,0.43436214,0.6572823,0.44304663,0.09450766,0.14115575,0.48137787,799.41394,789.34064,797.8022,789.34064,628.97437,0.48046875,0.016357421875,0.86090087890625,5.323486328125,-1.07666015625,-0.79254150390625,1.0,1.0,1.0,1.0,1.0,25.0,
2023-09-07 23:53:55.464,0.549674,0.0262109,-0.07876295,0.44864833,0.22844484,-0.21331166,-0.05783423,0.11767061,0.5973994,0.13743699,0.17485768,0.513618,0.5762645,0.23023742,0.43436214,0.6572823,0.44304663,0.09450766,0.14115575,0.48137787,795.78754,788.5348,799.41394,799.81683,726.8865,0.47613525390625,0.015380859375,0.8607177734375,4.628143310546875,-1.801910400390625,-2.220611572265625,1.0,1.0,1.0,1.0,1.0,25.0,
2023-09-07 23:53:55.468,0.5828925,0.025638262,-0.08401614,0.44010362,0.21509703,-0.20639996,-0.069462836,0.10499469,0.5973994,0.19726162,0.21113095,0.52013,0.57286286,0.22911361,0.42144287,0.66390234,0.46222788,0.093502074,0.155493,0.47564396,788.1319,799.41394,796.1905,789.7436,799.81683,0.47613525390625,0.015380859375,0.8607177734375,4.628143310546875,-1.801910400390625,-2.220611572265625,1.0,1.0,1.0,1.0,1.0,25.0,
2023-09-07 23:53:55.545,0.5828925,0.025638262,-0.08401614,0.44010362,0.21509703,-0.20639996,-0.069462836,0.10499469,0.5973994,0.19726162,0.21113095,0.52013,0.57286286,0.22911361,0.42144287,0.66390234,0.46222788,0.093502074,0.155493,0.47564396,796.1905,794.9817,791.3553,793.36993,676.52014,0.49267578125,0.0045166015625,0.85723876953125,3.013153076171875,-4.17205810546875,-0.844879150390625,1.0,1.0,1.0,1.0,1.0,25.0,
2023-09-07 23:53:55.597,0.5828925,0.025638262,-0.08401614,0.44010362,0.21509703,-0.20639996,-0.069462836,0.10499469,0.5973994,0.19726162,0.21113095,0.52013,0.57286286,0.22911361,0.42144287,0.66390234,0.46222788,0.093502074,0.155493,0.47564396,799.41394,800.2198,789.7436,805.8608,799.81683,0.49786376953125,-0.0009765625,0.87213134765625,4.358978271484375,-3.4393310546875,-0.381317138671875,1.0,1.0,1.0,1.0,1.0,25.0,
2023-09-07 23:53:55.602,0.6058912,0.024477473,-0.094412446,0.42593038,0.19423334,-0.20044294,-0.087627955,0.10736138,0.5973994,0.24053,0.21860221,0.52013,0.5676238,0.23092447,0.41004378,0.6733251,0.49354553,0.0997476,0.16465779,0.48350564,797.8022,799.011,793.36993,800.2198,877.1795,0.49786376953125,-0.0009765625,0.87213134765625,4.358978271484375,-3.4393310546875,-0.381317138671875,1.0,1.0,1.0,1.0,1.0,25.0,
2023-09-07 23:53:55.660,0.6058912,0.024477473,-0.094412446,0.42593038,0.19423334,-0.20044294,-0.087627955,0.10736138,0.5973994,0.24053,0.21860221,0.52013,0.5676238,0.23092447,0.41004378,0.6733251,0.49354553,0.0997476,0.16465779,0.48350564,788.1319,794.17584,794.17584,796.99634,766.77655,0.48504638671875,0.010009765625,0.861328125,4.5159912109375,-2.213134765625,-1.77947998046875,1.0,1.0,1.0,1.0,1.0,25.0,
2023-09-07 23:53:55.676,0.6193684,0.019128876,-0.11465167,0.40903974,0.16501491,-0.20129487,-0.11995798,0.120993644,0.5973994,0.26257473,0.21860221,0.52013,0.5606821,0.2365235,0.39516625,0.68272126,0.5365743,0.111872554,0.16805895,0.50087357,784.5055,799.81683,800.2198,799.41394,706.7399,0.48504638671875,0.010009765625,0.861328125,4.5159912109375,-2.213134765625,-1.77947998046875,1.0,1.0,1.0,1.0,1.0,25.0,
2023-09-07 23:53:55.719,0.6193684,0.019128876,-0.11465167,0.40903974,0.16501491,-0.20129487,-0.11995798,0.120993644,0.5973994,0.26257473,0.21860221,0.52013,0.5606821,0.2365235,0.39516625,0.68272126,0.5365743,0.111872554,0.16805895,0.50087357,786.52014,797.3993,801.02563,790.54944,629.7802,0.487060546875,0.011474609375,0.86053466796875,3.84307861328125,-2.37762451171875,-3.00567626953125,1.0,1.0,1.0,1.0,1.0,25.0,
2023-09-07 23:53:55.735,0.6193684,0.019128876,-0.11465167,0.40903974,0.16501491,-0.20129487,-0.11995798,0.120993644,0.5973994,0.26257473,0.21860221,0.52013,0.5606821,0.2365235,0.39516625,0.68272126,0.5365743,0.111872554,0.16805895,0.50087357,796.5934,799.81683,784.90845,786.9231,682.1612,0.486572265625,0.002197265625,0.8568115234375,3.63372802734375,-2.6318359375,-2.594451904296875,1.0,1.0,1.0,1.0,1.0,25.0,
2023-09-07 23:53:55.746,0.6243309,-0.0020056013,-0.14408493,0.39205146,0.12576763,-0.21292375,-0.17445374,0.14241087,0.5973994,0.2838381,0.21878132,0.530866,0.5541859,0.24357226,0.37669075,0.6898303,0.58220446,0.121120475,0.16783777,0.51815975,801.02563,804.65204,792.5641,834.0659,880.40295,0.486572265625,0.002197265625,0.8568115234375,3.63372802734375,-2.6318359375,-2.594451904296875,1.0,1.0,1.0,1.0,1.0,25.0,
2023-09-07 23:53:55.804,0.6243309,-0.0020056013,-0.14408493,0.39205146,0.12576763,-0.21292375,-0.17445374,0.14241087,0.5973994,0.2838381,0.21878132,0.530866,0.5541859,0.24357226,0.37669075,0.6898303,0.58220446,0.121120475,0.16783777,0.51815975,805.8608,808.68134,794.17584,815.12823,639.45056,0.4925537109375,0.01068115234375,0.8612060546875,4.94964599609375,-2.55706787109375,-1.18133544921875,1.0,1.0,1.0,1.0,1.0,25.0,
2023-09-07 23:53:55.836,0.6243309,-0.0020056013,-0.14408493,0.39205146,0.12576763,-0.21292375,-0.17445374,0.14241087,0.5973994,0.2838381,0.21878132,0.530866,0.5541859,0.24357226,0.37669075,0.6898303,0.58220446,0.121120475,0.16783777,0.51815975,786.1172,788.1319,798.60803,806.26373,704.7253,0.48736572265625,0.01025390625,0.85888671875,4.777679443359375,-2.40753173828125,-0.3887939453125,1.0,1.0,1.0,1.0,1.0,25.0,
2023-09-07 23:53:55.878,0.6184402,-0.03966396,-0.18101096,0.37288454,0.07142727,-0.23159562,-0.24985532,0.16253594,0.59247017,0.2925602,0.21969916,0.53147584,0.5497723,0.2502591,0.35981417,0.69495124,0.6194176,0.120162815,0.16568774,0.5280189,788.5348,787.72894,797.8022,796.99634,676.52014,0.48736572265625,0.01025390625,0.85888671875,4.777679443359375,-2.40753173828125,-0.3887939453125,1.0,1.0,1.0,1.0,1.0,25.0,
2023-09-07 23:53:55.910,0.6184402,-0.03966396,-0.18101096,0.37288454,0.07142727,-0.23159562,-0.24985532,0.16253594,0.59247017,0.2925602,0.21969916,0.53147584,0.5497723,0.2502591,0.35981417,0.69495124,0.6194176,0.120162815,0.16568774,0.5280189,781.685,805.05493,793.7729,778.86444,659.59705,0.48394775390625,0.01263427734375,0.86468505859375,4.62066650390625,-1.592559814453125,-1.368255615234375,1.0,1.0,1.0,1.0,1.0,25.0,
2023-09-07 23:53:55.982,0.6184402,-0.03966396,-0.18101096,0.37288454,0.07142727,-0.23159562,-0.24985532,0.16253594,0.59247017,0.2925602,0.21969916,0.53147584,0.5497723,0.2502591,0.35981417,0.69495124,0.6194176,0.120162815,0.16568774,0.5280189,790.14655,793.7729,794.9817,796.1905,722.8571,0.4835205078125,0.011962890625,0.8599853515625,4.306640625,-1.757049560546875,-2.205657958984375,1.0,1.0,1.0,1.0,1.0,25.0,
2023-09-07 23:53:55.985,0.5971888,-0.09400911,-0.22134864,0.34072325,-0.004446449,-0.2488317,-0.33087766,0.17332287,0.58582157,0.29542348,0.18685225,0.52912396,0.5464181,0.25676343,0.34917897,0.6993558,0.64398575,0.11129456,0.15902263,0.52904457,792.5641,803.0403,794.57874,779.67035,716.8132,0.4835205078125,0.011962890625,0.8599853515625,4.306640625,-1.757049560546875,-2.205657958984375,1.0,1.0,1.0,1.0,1.0,25.0,
2023-09-07 23:53:56.022,0.5971888,-0.09400911,-0.22134864,0.34072325,-0.004446449,-0.2488317,-0.33087766,0.17332287,0.58582157,0.29542348,0.18685225,0.52912396,0.5464181,0.25676343,0.34917897,0.6993558,0.64398575,0.11129456,0.15902263,0.52904457,812.71063,782.8938,798.60803,793.36993,824.3956,0.48309326171875,0.00811767578125,0.8653564453125,4.0972900390625,-3.36456298828125,-1.07666015625,1.0,1.0,1.0,1.0,1.0,25.0,
2023-09-07 23:53:56.081,0.5971888,-0.09400911,-0.22134864,0.34072325,-0.004446449,-0.2488317,-0.33087766,0.17332287,0.58582157,0.29542348,0.18685225,0.52912396,0.5464181,0.25676343,0.34917897,0.6993558,0.64398575,0.11129456,0.15902263,0.52904457,805.4579,805.4579,805.05493,813.91943,645.4945,0.482666015625,0.007568359375,0.86456298828125,4.329071044921875,-3.93280029296875,-0.411224365234375,1.0,1.0,1.0,1.0,1.0,25.0,
2023-09-07 23:53:56.085,0.5576626,-0.16800378,-0.27095434,0.2887882,-0.101390764,-0.25764084,-0.3947828,0.17535177,0.55706567,0.29555255,0.1229323,0.52590024,0.5417785,0.26456898,0.34391892,0.7043948,0.6595873,0.10442361,0.14331186,0.5242637,792.96704,798.60803,804.2491,808.2784,725.2747,0.482666015625,0.007568359375,0.86456298828125,4.329071044921875,-3.93280029296875,-0.411224365234375,1.0,1.0,1.0,1.0,1.0,25.0,
2023-09-07 23:53:56.133,0.5576626,-0.16800378,-0.27095434,0.2887882,-0.101390764,-0.25764084,-0.3947828,0.17535177,0.55706567,0.29555255,0.1229323,0.52590024,0.5417785,0.26456898,0.34391892,0.7043948,0.6595873,0.10442361,0.14331186,0.5242637,802.6374,792.96704,795.38464,797.8022,828.022,0.48419189453125,0.00823974609375,0.86419677734375,4.643096923828125,-3.013153076171875,-0.874786376953125,1.0,1.0,1.0,1.0,1.0,25.0,
2023-09-07 23:53:56.183,0.5576626,-0.16800378,-0.27095434,0.2887882,-0.101390764,-0.25764084,-0.3947828,0.17535177,0.55706567,0.29555255,0.1229323,0.52590024,0.5417785,0.26456898,0.34391892,0.7043948,0.6595873,0.10442361,0.14331186,0.5242637,783.2967,800.2198,785.31134,794.17584,709.5604,0.48486328125,0.00689697265625,0.8643798828125,4.613189697265625,-3.267364501953125,-0.650482177734375,1.0,1.0,1.0,1.0,1.0,25.0,
2023-09-07 23:53:56.188,0.5104004,-0.25798,-0.32110253,0.22261727,-0.20213158,-0.25699627,-0.43305928,0.17696992,0.50882643,0.30108908,0.078052945,0.5361838,0.53439456,0.2758654,0.3387127,0.7126501,0.6723271,0.106487334,0.118259884,0.5172576,781.685,790.54944,791.75824,806.26373,1031.9048,0.48486328125,0.00689697265625,0.8643798828125,4.613189697265625,-3.267364501953125,-0.650482177734375,1.0,1.0,1.0,1.0,1.0,25.0,
2023-09-07 23:53:56.302,0.5104004,-0.25798,-0.32110253,0.22261727,-0.20213158,-0.25699627,-0.43305928,0.17696992,0.50882643,0.30108908,0.078052945,0.5361838,0.53439456,0.2758654,0.3387127,0.7126501,0.6723271,0.106487334,0.118259884,0.5172576,794.9817,799.011,788.5348,807.8755,609.6337,0.4862060546875,0.008056640625,0.86029052734375,4.478607177734375,-3.222503662109375,-0.755157470703125,1.0,1.0,1.0,1.0,1.0,25.0,
2023-09-07 23:53:56.311,0.47352806,-0.33270591,-0.36774987,0.15542096,-0.2705783,-0.25039503,-0.45502475,0.19093919,0.48623455,0.30903554,0.0648644,0.5631531,0.52519965,0.2914,0.33169815,0.72634554,0.6841012,0.11696611,0.09275667,0.51094747,803.8461,796.99634,805.8608,804.2491,801.02563,0.4862060546875,0.008056640625,0.86029052734375,4.478607177734375,-3.222503662109375,-0.755157470703125,1.0,1.0,1.0,1.0,1.0,25.0,
2023-09-07 23:53:56.346,0.47352806,-0.33270591,-0.36774987,0.15542096,-0.2705783,-0.25039503,-0.45502475,0.19093919,0.48623455,0.30903554,0.0648644,0.5631531,0.52519965,0.2914,0.33169815,0.72634554,0.6841012,0.11696611,0.09275667,0.51094747,794.57874,787.72894,784.10254,793.36993,728.0952,0.4896240234375,0.009765625,0.86041259765625,4.486083984375,-3.790740966796875,-0.8074951171875,1.0,1.0,1.0,1.0,1.0,25.0,
2023-09-07 23:53:56.361,0.47352806,-0.33270591,-0.36774987,0.15542096,-0.2705783,-0.25039503,-0.45502475,0.19093919,0.48623455,0.30903554,0.0648644,0.5631531,0.52519965,0.2914,0.33169815,0.72634554,0.6841012,0.11696611,0.09275667,0.51094747,788.93774,805.4579,803.0403,800.6227,684.17584,0.4866943359375,0.00677490234375,0.86151123046875,3.96270751953125,-3.372039794921875,-0.650482177734375,1.0,1.0,1.0,1.0,1.0,25.0,
2023-09-07 23:53:56.368,0.45400238,-0.36696586,-0.4067629,0.10599801,-0.2814416,-0.24256705,-0.46230182,0.21920323,0.48623455,0.3117939,0.054707,0.56350815,0.5165921,0.30727476,0.32571614,0.7435163,0.69322807,0.13046205,0.08026864,0.5083907,801.8315,808.68134,796.5934,792.96704,657.98535,0.4866943359375,0.00677490234375,0.86151123046875,3.96270751953125,-3.372039794921875,-0.650482177734375,1.0,1.0,1.0,1.0,1.0,25.0,
2023-09-07 23:53:56.394,0.45400238,-0.36696586,-0.4067629,0.10599801,-0.2814416,-0.24256705,-0.46230182,0.21920323,0.48623455,0.3117939,0.054707,0.56350815,0.5165921,0.30727476,0.32571614,0.7435163,0.69322807,0.13046205,0.08026864,0.5083907,825.6044,803.0403,788.93774,800.2198,731.7216,0.48931884765625,0.007080078125,0.8590087890625,4.239349365234375,-3.63372802734375,-1.039276123046875,1.0,1.0,1.0,1.0,1.0,25.0,
2023-09-07 23:53:56.464,0.45400238,-0.36696586,-0.4067629,0.10599801,-0.2814416,-0.24256705,-0.46230182,0.21920323,0.48623455,0.3117939,0.054707,0.56350815,0.5165921,0.30727476,0.32571614,0.7435163,0.69322807,0.13046205,0.08026864,0.5083907,790.54944,797.3993,789.7436,808.2784,738.5714,0.49359130859375,0.01092529296875,0.8619384765625,4.508514404296875,-3.349609375,-1.09161376953125,1.0,1.0,1.0,1.0,1.0,25.0,
2023-09-07 23:53:56.465,0.44422993,-0.36946744,-0.42171586,0.07403193,-0.2595181,-0.24020553,-0.45327407,0.25309575,0.48623455,0.3158133,0.041195206,0.56833506,0.5116051,0.31668034,0.32379755,0.757251,0.6986104,0.1414707,0.087576486,0.5139783,782.49084,794.57874,795.78754,798.20514,716.4103,0.49359130859375,0.01092529296875,0.8619384765625,4.508514404296875,-3.349609375,-1.09161376953125,1.0,1.0,1.0,1.0,1.0,25.0,
2023-09-07 23:53:56.537,0.44422993,-0.36946744,-0.42171586,0.07403193,-0.2595181,-0.24020553,-0.45327407,0.25309575,0.48623455,0.3158133,0.041195206,0.56833506,0.5116051,0.31668034,0.32379755,0.757251,0.6986104,0.1414707,0.087576486,0.5139783,783.69965,795.38464,801.02563,808.2784,684.9817,0.4906005859375,0.00634765625,0.8619384765625,4.44122314453125,-2.99072265625,-1.622467041015625,1.0,1.0,1.0,1.0,1.0,25.0,
2023-09-07 23:53:56.572,0.44422993,-0.36946744,-0.42171586,0.07403193,-0.2595181,-0.24020553,-0.45327407,0.25309575,0.48623455,0.3158133,0.041195206,0.56833506,0.5116051,0.31668034,0.32379755,0.757251,0.6986104,0.1414707,0.087576486,0.5139783,790.14655,797.8022,792.96704,815.9341,680.14655,0.50384521484375,0.003662109375,0.8646240234375,5.046844482421875,-2.714080810546875,-1.09161376953125,1.0,1.0,1.0,1.0,1.0,25.0,
2023-09-07 23:53:56.574,0.431997,-0.35049814,-0.41235015,0.055903845,-0.23840864,-0.24611172,-0.43627378,0.2833534,0.48623455,0.3158133,0.011864475,0.5700534,0.5138626,0.31698817,0.32530177,0.7620403,0.70274603,0.14538652,0.109273836,0.5304542,797.8022,784.5055,792.1612,777.25275,769.59705,0.50384521484375,0.003662109375,0.8646240234375,5.046844482421875,-2.714080810546875,-1.09161376953125,1.0,1.0,1.0,1.0,1.0,25.0,
2023-09-07 23:53:56.615,0.431997,-0.35049814,-0.41235015,0.055903845,-0.23840864,-0.24611172,-0.43627378,0.2833534,0.48623455,0.3158133,0.011864475,0.5700534,0.5138626,0.31698817,0.32530177,0.7620403,0.70274603,0.14538652,0.109273836,0.5304542,808.2784,805.05493,797.8022,801.02563,776.4469,0.507080078125,-0.0009765625,0.85589599609375,4.732818603515625,-2.7813720703125,0.097198486328125,1.0,1.0,1.0,1.0,1.0,25.0,
2023-09-07 23:53:56.687,0.431997,-0.35049814,-0.41235015,0.055903845,-0.23840864,-0.24611172,-0.43627378,0.2833534,0.48623455,0.3158133,0.011864475,0.5700534,0.5138626,0.31698817,0.32530177,0.7620403,0.70274603,0.14538652,0.109273836,0.5304542,810.696,815.9341,809.4872,813.91943,693.8461,0.51123046875,-0.0018310546875,0.85791015625,4.957122802734375,-1.338348388671875,1.15142822265625,1.0,1.0,1.0,1.0,1.0,25.0,
2023-09-07 23:53:56.691,0.40392566,-0.33961397,-0.39587748,0.03769869,-0.22953512,-0.25283942,-0.42206413,0.30550158,0.44910485,0.3158133,-0.014551011,0.57048935,0.52848554,0.3135094,0.32726803,0.7582842,0.7096963,0.14054893,0.13628727,0.55615056,809.4872,807.0696,794.17584,808.68134,821.5751,0.51123046875,-0.0018310546875,0.85791015625,4.957122802734375,-1.338348388671875,1.15142822265625,1.0,1.0,1.0,1.0,1.0,25.0,
2023-09-07 23:53:56.766,0.40392566,-0.33961397,-0.39587748,0.03769869,-0.22953512,-0.25283942,-0.42206413,0.30550158,0.44910485,0.3158133,-0.014551011,0.57048935,0.52848554,0.3135094,0.32726803,0.7582842,0.7096963,0.14054893,0.13628727,0.55615056,794.17584,806.26373,799.41394,803.44324,684.57874,0.48712158203125,0.01605224609375,0.8548583984375,7.319793701171875,0.73272705078125,1.846771240234375,1.0,1.0,1.0,1.0,1.0,25.0,
2023-09-07 23:53:56.770,0.35231575,-0.3354727,-0.38070428,0.016754773,-0.22270595,-0.24786511,-0.41135862,0.31980512,0.33192307,0.3158133,-0.033282474,0.5704589,0.5605191,0.3134689,0.32679766,0.7512859,0.7205127,0.13061841,0.16075785,0.5887132,790.54944,806.26373,797.8022,783.2967,730.10986,0.48712158203125,0.01605224609375,0.8548583984375,7.319793701171875,0.73272705078125,1.846771240234375,1.0,1.0,1.0,1.0,1.0,25.0,
2023-09-07 23:53:56.804,0.35231575,-0.3354727,-0.38070428,0.016754773,-0.22270595,-0.24786511,-0.41135862,0.31980512,0.33192307,0.3158133,-0.033282474,0.5704589,0.5605191,0.3134689,0.32679766,0.7512859,0.7205127,0.13061841,0.16075785,0.5887132,818.3516,798.20514,786.1172,808.2784,683.36993,0.449951171875,0.02764892578125,0.8720703125,6.3702392578125,-0.01495361328125,0.299072265625,1.0,1.0,1.0,1.0,1.0,25.0,
2023-09-07 23:53:56.855,0.35231575,-0.3354727,-0.38070428,0.016754773,-0.22270595,-0.24786511,-0.41135862,0.31980512,0.33192307,0.3158133,-0.033282474,0.5704589,0.5605191,0.3134689,0.32679766,0.7512859,0.7205127,0.13061841,0.16075785,0.5887132,794.17584,799.41394,805.05493,804.65204,804.65204,0.4715576171875,0.015625,0.86407470703125,3.790740966796875,-3.409423828125,-1.92901611328125,1.0,1.0,1.0,1.0,1.0,25.0,
2023-09-07 23:53:56.865,0.29494512,-0.3166514,-0.36372742,0.006989583,-0.19602166,-0.22666185,-0.38757244,0.32906777,0.24418132,0.32164505,-0.016363125,0.57360065,0.605997,0.31759572,0.32299846,0.74563223,0.73208976,0.12377269,0.17974111,0.6248026,811.0989,803.44324,802.6374,806.26373,725.2747,0.4715576171875,0.015625,0.86407470703125,3.790740966796875,-3.409423828125,-1.92901611328125,1.0,1.0,1.0,1.0,1.0,25.0,
2023-09-07 23:53:56.925,0.29494512,-0.3166514,-0.36372742,0.006989583,-0.19602166,-0.22666185,-0.38757244,0.32906777,0.24418132,0.32164505,-0.016363125,0.57360065,0.605997,0.31759572,0.32299846,0.74563223,0.73208976,0.12377269,0.17974111,0.6248026,807.0696,795.38464,780.87915,803.8461,778.0586,0.4932861328125,0.0029296875,0.869873046875,2.474822998046875,-5.42816162109375,-1.786956787109375,1.0,1.0,1.0,1.0,1.0,25.0,
2023-09-07 23:53:56.968,0.25948572,-0.25961637,-0.3378641,0.031218493,-0.13126877,-0.19203311,-0.34196496,0.33541843,0.21659656,0.37793183,0.003732873,0.57322216,0.6511064,0.3192573,0.31798536,0.74134207,0.73884505,0.12444849,0.19435492,0.6577144,790.14655,805.05493,791.3553,813.5165,1162.4542,0.4932861328125,0.0029296875,0.869873046875,2.474822998046875,-5.42816162109375,-1.786956787109375,1.0,1.0,1.0,1.0,1.0,25.0,
2023-09-07 23:53:57.005,0.25948572,-0.25961637,-0.3378641,0.031218493,-0.13126877,-0.19203311,-0.34196496,0.33541843,0.21659656,0.37793183,0.003732873,0.57322216,0.6511064,0.3192573,0.31798536,0.74134207,0.73884505,0.12444849,0.19435492,0.6577144,800.2198,801.02563,784.5055,805.05493,926.7399,0.48638916015625,0.00238037109375,0.8646240234375,3.9776611328125,-2.355194091796875,-0.16448974609375,1.0,1.0,1.0,1.0,1.0,25.0,
2023-09-07 23:53:57.037,0.25948572,-0.25961637,-0.3378641,0.031218493,-0.13126877,-0.19203311,-0.34196496,0.33541843,0.21659656,0.37793183,0.003732873,0.57322216,0.6511064,0.3192573,0.31798536,0.74134207,0.73884505,0.12444849,0.19435492,0.6577144,788.93774,797.3993,788.5348,772.4176,704.3223,0.4814453125,0.00030517578125,0.857421875,5.203857421875,-2.61688232421875,-1.114044189453125,1.0,1.0,1.0,1.0,1.0,25.0,
2023-09-07 23:53:57.099,0.25948572,-0.25961637,-0.3378641,0.031218493,-0.13126877,-0.19203311,-0.34196496,0.33541843,0.21659656,0.37793183,0.003732873,0.57322216,0.6511064,0.3192573,0.31798536,0.74134207,0.73884505,0.12444849,0.19435492,0.6577144,796.5934,807.47253,792.1612,800.6227,666.04395,0.4896240234375,0.01080322265625,0.864013671875,6.05621337890625,-3.15521240234375,0.299072265625,1.0,1.0,1.0,1.0,1.0,25.0,
2023-09-07 23:53:57.100,0.26169515,-0.17004414,-0.297824,0.06938928,-0.045224987,-0.14825489,-0.28986168,0.3385854,0.23386788,0.4530266,0.025465647,0.5696078,0.6833802,0.31411877,0.31644142,0.7355905,0.7359415,0.12884428,0.2100242,0.67876667,801.8315,805.8608,796.1905,805.05493,713.9927,0.4896240234375,0.01080322265625,0.864013671875,6.05621337890625,-3.15521240234375,0.299072265625,1.0,1.0,1.0,1.0,1.0,25.0,
2023-09-07 23:53:57.160,0.26169515,-0.17004414,-0.297824,0.06938928,-0.045224987,-0.14825489,-0.28986168,0.3385854,0.23386788,0.4530266,0.025465647,0.5696078,0.6833802,0.31411877,0.31644142,0.7355905,0.7359415,0.12884428,0.2100242,0.67876667,781.685,802.6374,793.7729,788.1319,717.619,0.48748779296875,0.0201416015625,0.86883544921875,5.203857421875,-3.349609375,1.039276123046875,1.0,1.0,1.0,1.0,1.0,25.0,
2023-09-07 23:53:57.217,0.26169515,-0.17004414,-0.297824,0.06938928,-0.045224987,-0.14825489,-0.28986168,0.3385854,0.23386788,0.4530266,0.025465647,0.5696078,0.6833802,0.31411877,0.31644142,0.7355905,0.7359415,0.12884428,0.2100242,0.67876667,770.80585,799.41394,786.1172,785.7143,737.3626,0.4844970703125,0.0128173828125,0.8621826171875,3.96270751953125,-3.66363525390625,-0.545806884765625,1.0,1.0,1.0,1.0,1.0,25.0,
2023-09-07 23:53:57.220,0.29119465,-0.07688532,-0.25671345,0.110712215,0.030728636,-0.10207297,-0.25584713,0.33459428,0.26883394,0.4680303,0.060797848,0.5598295,0.6998029,0.30542707,0.32343778,0.7248179,0.72355086,0.13160649,0.2301875,0.6841503,805.4579,801.4286,788.1319,801.4286,690.2198,0.4844970703125,0.0128173828125,0.8621826171875,3.96270751953125,-3.66363525390625,-0.545806884765625,1.0,1.0,1.0,1.0,1.0,25.0,
2023-09-07 23:53:57.330,0.29119465,-0.07688532,-0.25671345,0.110712215,0.030728636,-0.10207297,-0.25584713,0.33459428,0.26883394,0.4680303,0.060797848,0.5598295,0.6998029,0.30542707,0.32343778,0.7248179,0.72355086,0.13160649,0.2301875,0.6841503,784.5055,802.23444,796.99634,805.05493,730.10986,0.4971923828125,0.0023193359375,0.86083984375,3.94775390625,-3.386993408203125,-1.562652587890625,1.0,1.0,1.0,1.0,1.0,25.0,
2023-09-07 23:53:57.334,0.3218555,-0.0077507365,-0.23166396,0.14674194,0.079888314,-0.059575632,-0.2494654,0.31998566,0.29641992,0.45055938,0.06391049,0.5236806,0.7053744,0.30197668,0.33798853,0.7078269,0.7081633,0.13284822,0.25288692,0.6782663,790.14655,794.9817,795.78754,781.28204,655.16486,0.4971923828125,0.0023193359375,0.86083984375,3.94775390625,-3.386993408203125,-1.562652587890625,1.0,1.0,1.0,1.0,1.0,25.0,
2023-09-07 23:53:57.365,0.3218555,-0.0077507365,-0.23166396,0.14674194,0.079888314,-0.059575632,-0.2494654,0.31998566,0.29641992,0.45055938,0.06391049,0.5236806,0.7053744,0.30197668,0.33798853,0.7078269,0.7081633,0.13284822,0.25288692,0.6782663,785.31134,806.6667,796.99634,788.5348,701.50183,0.50213623046875,0.0028076171875,0.8609619140625,3.760833740234375,-3.087921142578125,-1.114044189453125,1.0,1.0,1.0,1.0,1.0,25.0,
2023-09-07 23:53:57.384,0.3218555,-0.0077507365,-0.23166396,0.14674194,0.079888314,-0.059575632,-0.2494654,0.31998566,0.29641992,0.45055938,0.06391049,0.5236806,0.7053744,0.30197668,0.33798853,0.7078269,0.7081633,0.13284822,0.25288692,0.6782663,793.36993,805.05493,797.8022,811.9048,690.6227,0.48858642578125,0.00567626953125,0.8590087890625,5.03936767578125,-2.071075439453125,-0.142059326171875,1.0,1.0,1.0,1.0,1.0,25.0,
2023-09-07 23:53:57.390,0.33994138,0.03324105,-0.2243974,0.1764889,0.10178781,-0.025047198,-0.2617026,0.2982154,0.3306153,0.3990016,0.06391049,0.48386854,0.7060623,0.30954796,0.35374707,0.6873701,0.69906557,0.13614115,0.27245504,0.6713695,795.38464,803.44324,800.6227,798.60803,890.07324,0.48858642578125,0.00567626953125,0.8590087890625,5.03936767578125,-2.071075439453125,-0.142059326171875,1.0,1.0,1.0,1.0,1.0,25.0,
2023-09-07 23:53:57.423,0.33994138,0.03324105,-0.2243974,0.1764889,0.10178781,-0.025047198,-0.2617026,0.2982154,0.3306153,0.3990016,0.06391049,0.48386854,0.7060623,0.30954796,0.35374707,0.6873701,0.69906557,0.13614115,0.27245504,0.6713695,803.44324,797.3993,798.60803,797.3993,701.0989,0.47906494140625,0.0191650390625,0.8621826171875,5.7720947265625,-2.55706787109375,-1.256103515625,1.0,1.0,1.0,1.0,1.0,25.0,
2023-09-07 23:53:57.493,0.34405932,0.05529215,-0.22348651,0.20285062,0.105656005,6.8339373e-06,-0.27245575,0.28173563,0.36342874,0.36667505,0.05756944,0.4638042,0.70475453,0.32601315,0.36441422,0.66842324,0.70115954,0.1410211,0.28474122,0.6710987,817.9487,805.05493,794.57874,810.696,965.42126,0.47906494140625,0.0191650390625,0.8621826171875,5.7720947265625,-2.55706787109375,-1.256103515625,1.0,1.0,1.0,1.0,1.0,25.0,
2023-09-07 23:53:57.540,0.34405932,0.05529215,-0.22348651,0.20285062,0.105656005,6.8339373e-06,-0.27245575,0.28173563,0.36342874,0.36667505,0.05756944,0.4638042,0.70475453,0.32601315,0.36441422,0.66842324,0.70115954,0.1410211,0.28474122,0.6710987,780.4762,803.8461,788.1319,787.72894,674.10254,0.4986572265625,0.01177978515625,0.8658447265625,5.09918212890625,-2.67669677734375,-1.697235107421875,1.0,1.0,1.0,1.0,1.0,25.0,
2023-09-07 23:53:57.616,0.34405932,0.05529215,-0.22348651,0.20285062,0.105656005,6.8339373e-06,-0.27245575,0.28173563,0.36342874,0.36667505,0.05756944,0.4638042,0.70475453,0.32601315,0.36441422,0.66842324,0.70115954,0.1410211,0.28474122,0.6710987,804.2491,800.6227,792.1612,803.0403,893.69965,0.50860595703125,0.0013427734375,0.86358642578125,3.850555419921875,-1.9439697265625,-0.007476806640625,1.0,1.0,1.0,1.0,1.0,25.0,
2023-09-07 23:53:57.627,0.34100586,0.069572926,-0.2191523,0.21846722,0.09981777,0.013161052,-0.27001348,0.2804976,0.4144696,0.36407626,0.026438057,0.5042895,0.70346814,0.3441352,0.3679902,0.6537579,0.7094072,0.14272213,0.2898237,0.67690563,799.41394,783.69965,796.5934,797.8022,686.1905,0.50860595703125,0.0013427734375,0.86358642578125,3.850555419921875,-1.9439697265625,-0.007476806640625,1.0,1.0,1.0,1.0,1.0,25.0,
2023-09-07 23:53:57.658,0.34100586,0.069572926,-0.2191523,0.21846722,0.09981777,0.013161052,-0.27001348,0.2804976,0.4144696,0.36407626,0.026438057,0.5042895,0.70346814,0.3441352,0.3679902,0.6537579,0.7094072,0.14272213,0.2898237,0.67690563,811.50183,783.69965,794.57874,782.0879,745.42126,0.49285888671875,0.004150390625,0.8624267578125,5.5926513671875,-0.201873779296875,2.190704345703125,1.0,1.0,1.0,1.0,1.0,25.0,
2023-09-07 23:53:57.672,0.34100586,0.069572926,-0.2191523,0.21846722,0.09981777,0.013161052,-0.27001348,0.2804976,0.4144696,0.36407626,0.026438057,0.5042895,0.70346814,0.3441352,0.3679902,0.6537579,0.7094072,0.14272213,0.2898237,0.67690563,798.60803,800.6227,799.41394,798.20514,723.2601,0.45843505859375,0.02276611328125,0.8695068359375,7.4169921875,1.09161376953125,-1.457977294921875,1.0,1.0,1.0,1.0,1.0,25.0,
2023-09-07 23:53:57.718,0.34100586,0.069572926,-0.2191523,0.21846722,0.09981777,0.013161052,-0.27001348,0.2804976,0.4144696,0.36407626,0.026438057,0.5042895,0.70346814,0.3441352,0.3679902,0.6537579,0.7094072,0.14272213,0.2898237,0.67690563,811.50183,800.6227,798.60803,786.9231,756.30035,0.48675537109375,0.031005859375,0.8638916015625,4.80010986328125,-0.426177978515625,-4.5458984375,1.0,1.0,1.0,1.0,1.0,25.0,
2023-09-07 23:53:57.719,0.3281191,0.07978636,-0.21108748,0.21607783,0.09284738,0.011800033,-0.25787294,0.29235652,0.45955634,0.3615405,0.023473024,0.53424644,0.705358,0.35852727,0.36660182,0.6406609,0.71474165,0.13904475,0.29019213,0.68264157,799.41394,795.78754,787.326,791.3553,738.5714,0.48675537109375,0.031005859375,0.8638916015625,4.80010986328125,-0.426177978515625,-4.5458984375,1.0,1.0,1.0,1.0,1.0,25.0,
2023-09-07 23:53:57.819,0.3281191,0.07978636,-0.21108748,0.21607783,0.09284738,0.011800033,-0.25787294,0.29235652,0.45955634,0.3615405,0.023473024,0.53424644,0.705358,0.35852727,0.36660182,0.6406609,0.71474165,0.13904475,0.29019213,0.68264157,797.3993,793.7729,783.69965,792.1612,685.38464,0.4744873046875,0.015380859375,0.87054443359375,2.983245849609375,-2.220611572265625,-0.994415283203125,1.0,1.0,1.0,1.0,1.0,25.0,
2023-09-07 23:53:57.821,0.30810264,0.09100592,-0.19812387,0.20290294,0.09262211,-0.003171638,-0.24463317,0.30300868,0.5412902,0.3606966,0.023473024,0.5387997,0.7115067,0.3696001,0.36234885,0.6257428,0.7140033,0.13243857,0.28689623,0.68402433,801.8315,795.38464,796.1905,800.2198,763.5531,0.4744873046875,0.015380859375,0.87054443359375,2.983245849609375,-2.220611572265625,-0.994415283203125,1.0,1.0,1.0,1.0,1.0,25.0,
2023-09-07 23:53:57.899,0.30810264,0.09100592,-0.19812387,0.20290294,0.09262211,-0.003171638,-0.24463317,0.30300868,0.5412902,0.3606966,0.023473024,0.5387997,0.7115067,0.3696001,0.36234885,0.6257428,0.7140033,0.13243857,0.28689623,0.68402433,782.49084,801.4286,793.7729,788.93774,628.1685,0.47857666015625,0.00897216796875,0.8671875,3.536529541015625,-3.46923828125,-0.949554443359375,1.0,1.0,1.0,1.0,1.0,25.0,
2023-09-07 23:53:57.941,0.30810264,0.09100592,-0.19812387,0.20290294,0.09262211,-0.003171638,-0.24463317,0.30300868,0.5412902,0.3606966,0.023473024,0.5387997,0.7115067,0.3696001,0.36234885,0.6257428,0.7140033,0.13243857,0.28689623,0.68402433,794.57874,799.81683,797.3993,790.54944,694.2491,0.4847412109375,0.00506591796875,0.86761474609375,4.598236083984375,-2.51220703125,-0.904693603515625,1.0,1.0,1.0,1.0,1.0,25.0,
2023-09-07 23:53:57.944,0.28651437,0.09789379,-0.18954825,0.18756047,0.10892862,-0.025088023,-0.23606014,0.3012712,0.5833031,0.35699892,0.014511478,0.5420477,0.7193046,0.381238,0.35510436,0.6136818,0.7112824,0.1258015,0.27800763,0.68193877,791.75824,789.7436,792.96704,786.9231,945.6777,0.4847412109375,0.00506591796875,0.86761474609375,4.598236083984375,-2.51220703125,-0.904693603515625,1.0,1.0,1.0,1.0,1.0,25.0,
2023-09-07 23:53:57.959,0.28651437,0.09789379,-0.18954825,0.18756047,0.10892862,-0.025088023,-0.23606014,0.3012712,0.5833031,0.35699892,0.014511478,0.5420477,0.7193046,0.381238,0.35510436,0.6136818,0.7112824,0.1258015,0.27800763,0.68193877,770.80585,792.96704,784.90845,793.36993,877.5824,0.48760986328125,0.0101318359375,0.86370849609375,5.09918212890625,-2.37762451171875,0.306549072265625,1.0,1.0,1.0,1.0,1.0,25.0,
2023-09-07 23:53:57.989,0.28651437,0.09789379,-0.18954825,0.18756047,0.10892862,-0.025088023,-0.23606014,0.3012712,0.5833031,0.35699892,0.014511478,0.5420477,0.7193046,0.381238,0.35510436,0.6136818,0.7112824,0.1258015,0.27800763,0.68193877,795.38464,796.99634,795.78754,795.78754,724.87177,0.48291015625,0.010986328125,0.86627197265625,4.20196533203125,-2.51220703125,1.55517578125,1.0,1.0,1.0,1.0,1.0,25.0,
2023-09-07 23:53:57.993,0.27672082,0.09769615,-0.19052307,0.18077783,0.14043224,-0.04451084,-0.23172092,0.28493646,0.60261923,0.35457736,-0.014638251,0.5378232,0.7250578,0.39567682,0.3453508,0.616413,0.71137697,0.11857328,0.2616167,0.6791262,783.2967,808.68134,798.20514,800.6227,811.9048,0.48291015625,0.010986328125,0.86627197265625,4.20196533203125,-2.51220703125,1.55517578125,1.0,1.0,1.0,1.0,1.0,25.0,
2023-09-07 23:53:58.092,0.27672082,0.09769615,-0.19052307,0.18077783,0.14043224,-0.04451084,-0.23172092,0.28493646,0.60261923,0.35457736,-0.014638251,0.5378232,0.7250578,0.39567682,0.3453508,0.616413,0.71137697,0.11857328,0.2616167,0.6791262,795.78754,792.5641,788.5348,795.38464,662.4176,0.4820556640625,0.00531005859375,0.86639404296875,3.78326416015625,-2.46734619140625,1.039276123046875,1.0,1.0,1.0,1.0,1.0,25.0,
2023-09-07 23:53:58.100,0.2812129,0.090167046,-0.19941652,0.18280916,0.17554308,-0.05706073,-0.22594845,0.2595132,0.6064382,0.36373046,-0.028038101,0.5378232,0.72672516,0.41087523,0.33583543,0.63817215,0.71216357,0.108942695,0.24021553,0.67630875,779.2674,790.9524,796.99634,795.78754,741.79486,0.4820556640625,0.00531005859375,0.86639404296875,3.78326416015625,-2.46734619140625,1.039276123046875,1.0,1.0,1.0,1.0,1.0,25.0,
2023-09-07 23:53:58.140,0.2812129,0.090167046,-0.19941652,0.18280916,0.17554308,-0.05706073,-0.22594845,0.2595132,0.6064382,0.36373046,-0.028038101,0.5378232,0.72672516,0.41087523,0.33583543,0.63817215,0.71216357,0.108942695,0.24021553,0.67630875,790.14655,802.23444,799.011,808.68134,653.1502,0.48699951171875,0.002197265625,0.87286376953125,3.70849609375,-2.594451904296875,-0.83740234375,1.0,1.0,1.0,1.0,1.0,25.0,
2023-09-07 23:53:58.186,0.2812129,0.090167046,-0.19941652,0.18280916,0.17554308,-0.05706073,-0.22594845,0.2595132,0.6064382,0.36373046,-0.028038101,0.5378232,0.72672516,0.41087523,0.33583543,0.63817215,0.71216357,0.108942695,0.24021553,0.67630875,822.7839,788.5348,807.8755,810.293,686.99634,0.48822021484375,0.00579833984375,0.86962890625,3.521575927734375,-1.3458251953125,0.530853271484375,1.0,1.0,1.0,1.0,1.0,25.0,
2023-09-07 23:53:58.194,0.29831654,0.07893443,-0.2017869,0.19801232,0.20118812,-0.06318313,-0.21276146,0.23285682,0.6064382,0.3804711,-0.032430843,0.5378232,0.7228056,0.423455,0.33114702,0.66850626,0.7068534,0.097376525,0.21823832,0.67184687,788.93774,794.57874,796.99634,801.02563,637.03296,0.48822021484375,0.00579833984375,0.86962890625,3.521575927734375,-1.3458251953125,0.530853271484375,1.0,1.0,1.0,1.0,1.0,25.0,
2023-09-07 23:53:58.235,0.29831654,0.07893443,-0.2017869,0.19801232,0.20118812,-0.06318313,-0.21276146,0.23285682,0.6064382,0.3804711,-0.032430843,0.5378232,0.7228056,0.423455,0.33114702,0.66850626,0.7068534,0.097376525,0.21823832,0.67184687,795.78754,793.36993,792.1612,793.36993,654.35895,0.46435546875,-0.003173828125,0.86236572265625,3.3197021484375,-1.39068603515625,0.605621337890625,1.0,1.0,1.0,1.0,1.0,25.0,
2023-09-07 23:53:58.342,0.29831654,0.07893443,-0.2017869,0.19801232,0.20118812,-0.06318313,-0.21276146,0.23285682,0.6064382,0.3804711,-0.032430843,0.5378232,0.7228056,0.423455,0.33114702,0.66850626,0.7068534,0.097376525,0.21823832,0.67184687,778.0586,805.8608,772.01465,790.54944,768.3883,0.4656982421875,0.00262451171875,0.87066650390625,5.30853271484375,-3.09539794921875,-1.398162841796875,1.0,1.0,1.0,1.0,1.0,25.0,
2023-09-07 23:53:58.344,0.31572482,0.06717215,-0.197783,0.22387557,0.21227059,-0.06295641,-0.19298184,0.20952761,0.6120705,0.40150848,-0.035451535,0.5378232,0.7105375,0.43182078,0.33545563,0.69317764,0.6928196,0.08509777,0.19888665,0.6625707,783.2967,804.2491,783.2967,796.5934,693.8461,0.4656982421875,0.00262451171875,0.87066650390625,5.30853271484375,-3.09539794921875,-1.398162841796875,1.0,1.0,1.0,1.0,1.0,25.0,
2023-09-07 23:53:58.381,0.31572482,0.06717215,-0.197783,0.22387557,0.21227059,-0.06295641,-0.19298184,0.20952761,0.6120705,0.40150848,-0.035451535,0.5378232,0.7105375,0.43182078,0.33545563,0.69317764,0.6928196,0.08509777,0.19888665,0.6625707,810.293,810.293,786.9231,788.1319,671.28204,0.478515625,0.00714111328125,0.8714599609375,5.764617919921875,-2.400054931640625,-2.25799560546875,1.0,1.0,1.0,1.0,1.0,25.0,
2023-09-07 23:53:58.431,0.31572482,0.06717215,-0.197783,0.22387557,0.21227059,-0.06295641,-0.19298184,0.20952761,0.6120705,0.40150848,-0.035451535,0.5378232,0.7105375,0.43182078,0.33545563,0.69317764,0.6928196,0.08509777,0.19888665,0.6625707,795.38464,803.0403,795.38464,795.78754,742.1978,0.47174072265625,0.00701904296875,0.873779296875,4.702911376953125,-2.190704345703125,-0.64300537109375,1.0,1.0,1.0,1.0,1.0,25.0,
2023-09-07 23:53:58.433,0.32502913,0.057837676,-0.1842254,0.2549011,0.21219385,-0.058652084,-0.1780589,0.18893863,0.63056666,0.42694142,-0.002617913,0.5378232,0.69010156,0.43656692,0.35148916,0.7054767,0.67552173,0.07111762,0.18118379,0.6462667,798.20514,799.81683,778.46155,799.011,714.3956,0.47174072265625,0.00701904296875,0.873779296875,4.702911376953125,-2.190704345703125,-0.64300537109375,1.0,1.0,1.0,1.0,1.0,25.0,
2023-09-07 23:53:58.472,0.32502913,0.057837676,-0.1842254,0.2549011,0.21219385,-0.058652084,-0.1780589,0.18893863,0.63056666,0.42694142,-0.002617913,0.5378232,0.69010156,0.43656692,0.35148916,0.7054767,0.67552173,0.07111762,0.18118379,0.6462667,808.68134,801.02563,790.54944,813.5165,1037.1428,0.4725341796875,-0.0040283203125,0.86322021484375,4.5458984375,-3.641204833984375,-0.755157470703125,1.0,1.0,1.0,1.0,1.0,25.0,
2023-09-07 23:53:58.527,0.32502913,0.057837676,-0.1842254,0.2549011,0.21219385,-0.058652084,-0.1780589,0.18893863,0.63056666,0.42694142,-0.002617913,0.5378232,0.69010156,0.43656692,0.35148916,0.7054767,0.67552173,0.07111762,0.18118379,0.6462667,804.2491,811.0989,805.8608,826.8132,728.49817,0.48699951171875,0.0201416015625,0.8790283203125,6.751556396484375,-2.811279296875,0.246734619140625,1.0,1.0,1.0,1.0,1.0,25.0,
2023-09-07 23:53:58.531,0.3222212,0.044751324,-0.15207873,0.28996247,0.20922084,-0.058791846,-0.17981623,0.1675621,0.6408992,0.45233682,0.0027349452,0.54537296,0.6677817,0.4396537,0.3781644,0.7082708,0.66440177,0.05462374,0.16272716,0.6232353,802.6374,801.4286,779.2674,781.685,749.45056,0.48699951171875,0.0201416015625,0.8790283203125,6.751556396484375,-2.811279296875,0.246734619140625,1.0,1.0,1.0,1.0,1.0,25.0,
2023-09-07 23:53:58.632,0.3222212,0.044751324,-0.15207873,0.28996247,0.20922084,-0.058791846,-0.17981623,0.1675621,0.6408992,0.45233682,0.0027349452,0.54537296,0.6677817,0.4396537,0.3781644,0.7082708,0.66440177,0.05462374,0.16272716,0.6232353,801.02563,794.17584,787.326,808.2784,728.9011,0.4571533203125,0.02496337890625,0.87188720703125,4.897308349609375,-1.099090576171875,0.6280517578125,1.0,1.0,1.0,1.0,1.0,25.0,
