TimeStamp,Delta_TP9,Delta_AF7,Delta_AF8,Delta_TP10,Theta_TP9,Theta_AF7,Theta_AF8,Theta_TP10,Alpha_TP9,Alpha_AF7,Alpha_AF8,Alpha_TP10,Beta_TP9,Beta_AF7,Beta_AF8,Beta_TP10,Gamma_TP9,Gamma_AF7,Gamma_AF8,Gamma_TP10,RAW_TP9,RAW_AF7,RAW_AF8,RAW_TP10,AUX_RIGHT,Accelerometer_X,Accelerometer_Y,Accelerometer_Z,Gyro_X,Gyro_Y,Gyro_Z,HeadBandOn,HSI_TP9,HSI_AF7,HSI_AF8,HSI_TP10,Battery,Elements
2023-09-08 00:03:37.380,0.34622788,-0.033175204,-0.060899857,0.47716275,0.19440678,0.03092196,-0.060271088,0.4969179,0.61609674,0.2546912,0.14012502,0.8960738,0.809905,0.18577422,0.27863878,1.0024306,0.6583147,-0.24298784,-0.1223793,0.6897435,786.1172,790.14655,791.75824,805.05493,763.95605,0.53179931640625,-0.05902099609375,0.8419189453125,5.405731201171875,-0.82244873046875,-0.022430419921875,1.0,1.0,1.0,1.0,1.0,25.0,
2023-09-08 00:03:37.384,0.34062803,0.004611345,-0.027591113,0.50198066,0.19287404,0.039735258,-0.009197777,0.48837897,0.61609674,0.24534658,0.14012502,0.8960738,0.81177914,0.17436494,0.26582807,0.99867433,0.6683106,-0.24642494,-0.1385003,0.6852292,789.7436,786.52014,787.72894,788.93774,830.4396,0.53179931640625,-0.05902099609375,0.8419189453125,5.405731201171875,-0.82244873046875,-0.022430419921875,1.0,1.0,1.0,1.0,1.0,25.0,
2023-09-08 00:03:37.419,0.34062803,0.004611345,-0.027591113,0.50198066,0.19287404,0.039735258,-0.009197777,0.48837897,0.61609674,0.24534658,0.14012502,0.8960738,0.81177914,0.17436494,0.26582807,0.99867433,0.6683106,-0.24642494,-0.1385003,0.6852292,771.6117,792.1612,788.1319,782.8938,846.1539,0.49127197265625,-0.051025390625,0.8525390625,7.185211181640625,-0.88226318359375,3.5888671875,1.0,1.0,1.0,1.0,1.0,25.0,
2023-09-08 00:03:37.468,0.34062803,0.004611345,-0.027591113,0.50198066,0.19287404,0.039735258,-0.009197777,0.48837897,0.61609674,0.24534658,0.14012502,0.8960738,0.81177914,0.17436494,0.26582807,0.99867433,0.6683106,-0.24642494,-0.1385003,0.6852292,785.31134,795.78754,794.57874,790.54944,712.7839,0.4847412109375,-0.0499267578125,0.84014892578125,7.29736328125,-2.609405517578125,0.665435791015625,1.0,1.0,1.0,1.0,1.0,25.0,
2023-09-08 00:03:37.474,0.33373472,0.056294437,-0.009321748,0.517992,0.18630263,0.040880855,0.007887612,0.47864708,0.61609674,0.23218523,0.13885777,0.8960738,0.8189056,0.15071444,0.250338,0.9907335,0.6745441,-0.25525638,-0.15577973,0.68283707,783.69965,789.34064,793.36993,802.23444,944.4689,0.4847412109375,-0.0499267578125,0.84014892578125,7.29736328125,-2.609405517578125,0.665435791015625,1.0,1.0,1.0,1.0,1.0,25.0,
2023-09-08 00:03:37.522,0.33373472,0.056294437,-0.009321748,0.517992,0.18630263,0.040880855,0.007887612,0.47864708,0.61609674,0.23218523,0.13885777,0.8960738,0.8189056,0.15071444,0.250338,0.9907335,0.6745441,-0.25525638,-0.15577973,0.68283707,790.9524,789.34064,795.78754,806.26373,710.3663,0.50372314453125,-0.042236328125,0.85394287109375,6.572113037109375,-4.18701171875,-1.62994384765625,1.0,1.0,1.0,1.0,1.0,25.0,
2023-09-08 00:03:37.574,0.34272957,0.10895649,-0.0023617565,0.54694366,0.1911703,0.0380095,0.003241615,0.4807458,0.59305125,0.2048686,0.13118933,0.8960738,0.8397056,0.12304055,0.22489111,0.97841907,0.6502613,-0.26452243,-0.17718525,0.6640068,790.9524,791.75824,790.54944,799.81683,1072.6007,0.50372314453125,-0.042236328125,0.85394287109375,6.572113037109375,-4.18701171875,-1.62994384765625,1.0,1.0,1.0,1.0,1.0,25.0,
2023-09-08 00:03:37.618,0.34272957,0.10895649,-0.0023617565,0.54694366,0.1911703,0.0380095,0.003241615,0.4807458,0.59305125,0.2048686,0.13118933,0.8960738,0.8397056,0.12304055,0.22489111,0.97841907,0.6502613,-0.26452243,-0.17718525,0.6640068,779.2674,787.326,793.36993,792.1612,750.65936,0.52276611328125,-0.04302978515625,0.855224609375,5.81695556640625,-4.42626953125,-0.680389404296875,1.0,1.0,1.0,1.0,1.0,25.0,
2023-09-08 00:03:37.669,0.34272957,0.10895649,-0.0023617565,0.54694366,0.1911703,0.0380095,0.003241615,0.4807458,0.59305125,0.2048686,0.13118933,0.8960738,0.8397056,0.12304055,0.22489111,0.97841907,0.6502613,-0.26452243,-0.17718525,0.6640068,782.0879,789.34064,792.1612,781.685,791.3553,0.5113525390625,-0.04876708984375,0.845458984375,4.44122314453125,-3.222503662109375,0.052337646484375,1.0,1.0,1.0,1.0,1.0,25.0,
2023-09-08 00:03:37.678,0.34598237,0.14253171,-0.0003440081,0.566767,0.19802429,0.03297699,-0.006385497,0.4862404,0.5818984,0.2020034,0.13601877,0.8960738,0.8629431,0.104880795,0.18809329,0.9657344,0.6245469,-0.26878873,-0.20275702,0.6596683,775.64105,787.326,792.96704,800.2198,748.6447,0.5113525390625,-0.04876708984375,0.845458984375,4.44122314453125,-3.222503662109375,0.052337646484375,1.0,1.0,1.0,1.0,1.0,25.0,
2023-09-08 00:03:37.718,0.34598237,0.14253171,-0.0003440081,0.566767,0.19802429,0.03297699,-0.006385497,0.4862404,0.5818984,0.2020034,0.13601877,0.8960738,0.8629431,0.104880795,0.18809329,0.9657344,0.6245469,-0.26878873,-0.20275702,0.6596683,783.69965,787.72894,790.54944,809.0842,944.0659,0.498291015625,-0.0526123046875,0.84906005859375,3.96270751953125,-3.60382080078125,-0.82244873046875,1.0,1.0,1.0,1.0,1.0,25.0,
2023-09-08 00:03:37.770,0.34598237,0.14253171,-0.0003440081,0.566767,0.19802429,0.03297699,-0.006385497,0.4862404,0.5818984,0.2020034,0.13601877,0.8960738,0.8629431,0.104880795,0.18809329,0.9657344,0.6245469,-0.26878873,-0.20275702,0.6596683,783.2967,790.54944,788.1319,815.12823,842.52747,0.52716064453125,-0.060791015625,0.82513427734375,3.506622314453125,-6.886138916015625,-1.973876953125,1.0,1.0,1.0,1.0,1.0,25.0,
2023-09-08 00:03:37.820,0.34110984,0.15629153,0.0022130725,0.5742664,0.21073064,0.025187746,-0.009614305,0.4959606,0.5864933,0.2020034,0.16419032,0.89388907,0.8817318,0.10351763,0.14488208,0.95315045,0.6096725,-0.26633218,-0.23077665,0.66209453,785.7143,789.34064,802.6374,780.4762,676.52014,0.52716064453125,-0.060791015625,0.82513427734375,3.506622314453125,-6.886138916015625,-1.973876953125,1.0,1.0,1.0,1.0,1.0,25.0,
2023-09-08 00:03:37.869,0.34110984,0.15629153,0.0022130725,0.5742664,0.21073064,0.025187746,-0.009614305,0.4959606,0.5864933,0.2020034,0.16419032,0.89388907,0.8817318,0.10351763,0.14488208,0.95315045,0.6096725,-0.26633218,-0.23077665,0.66209453,781.28204,788.1319,794.9817,776.4469,607.2161,0.54559326171875,-0.0516357421875,0.83929443359375,5.316009521484375,-5.42816162109375,0.04486083984375,1.0,1.0,1.0,1.0,1.0,25.0,
2023-09-08 00:03:37.874,0.34110984,0.15629153,0.0022130725,0.5742664,0.21073064,0.025187746,-0.009614305,0.4959606,0.5864933,0.2020034,0.16419032,0.89388907,0.8817318,0.10351763,0.14488208,0.95315045,0.6096725,-0.26633218,-0.23077665,0.66209453,791.3553,794.9817,799.011,792.96704,708.3516,0.526611328125,-0.0516357421875,0.84423828125,6.20574951171875,-2.429962158203125,1.383209228515625,1.0,1.0,1.0,1.0,1.0,25.0,
2023-09-08 00:03:37.875,0.32840464,0.15354936,0.004010746,0.56589854,0.22808915,0.010505159,-0.0062430575,0.5046223,0.58488154,0.2020034,0.17092307,0.89099216,0.89155865,0.11358135,0.10200105,0.93821025,0.6106277,-0.25873315,-0.25880063,0.6629244,784.10254,799.41394,789.7436,790.14655,725.6777,0.526611328125,-0.0516357421875,0.84423828125,6.20574951171875,-2.429962158203125,1.383209228515625,1.0,1.0,1.0,1.0,1.0,25.0,
2023-09-08 00:03:37.927,0.32840464,0.15354936,0.004010746,0.56589854,0.22808915,0.010505159,-0.0062430575,0.5046223,0.58488154,0.2020034,0.17092307,0.89099216,0.89155865,0.11358135,0.10200105,0.93821025,0.6106277,-0.25873315,-0.25880063,0.6629244,806.26373,799.81683,796.1905,801.8315,746.2271,0.507568359375,-0.046630859375,0.8448486328125,6.759033203125,-1.472930908203125,-2.190704345703125,1.0,1.0,1.0,1.0,1.0,25.0,
2023-09-08 00:03:37.978,0.32840464,0.15354936,0.004010746,0.56589854,0.22808915,0.010505159,-0.0062430575,0.5046223,0.58488154,0.2020034,0.17092307,0.89099216,0.89155865,0.11358135,0.10200105,0.93821025,0.6106277,-0.25873315,-0.25880063,0.6629244,784.5055,784.10254,794.17584,789.34064,822.7839,0.5146484375,-0.0428466796875,0.84405517578125,6.17584228515625,-2.549591064453125,-5.046844482421875,1.0,1.0,1.0,1.0,1.0,25.0,
2023-09-08 00:03:37.981,0.31016,0.14249897,0.0011407883,0.53710663,0.24395435,-0.014564627,0.00030345877,0.50779516,0.58488154,0.2020034,0.17092307,0.89099216,0.8922013,0.124375485,0.06458401,0.91986066,0.6210611,-0.24894308,-0.28276604,0.6572927,796.99634,794.17584,791.3553,791.75824,863.47986,0.5146484375,-0.0428466796875,0.84405517578125,6.17584228515625,-2.549591064453125,-5.046844482421875,1.0,1.0,1.0,1.0,1.0,25.0,
2023-09-08 00:03:38.042,0.31016,0.14249897,0.0011407883,0.53710663,0.24395435,-0.014564627,0.00030345877,0.50779516,0.58488154,0.2020034,0.17092307,0.89099216,0.8922013,0.124375485,0.06458401,0.91986066,0.6210611,-0.24894308,-0.28276604,0.6572927,785.7143,785.31134,792.5641,796.5934,805.8608,0.538330078125,-0.03753662109375,0.83831787109375,5.7122802734375,-3.9776611328125,-2.968292236328125,1.0,1.0,1.0,1.0,1.0,25.0,
2023-09-08 00:03:38.105,0.28914502,0.12796606,-0.011079086,0.4938059,0.25104672,-0.04762233,0.006878674,0.5051934,0.58488154,0.2020034,0.17092307,0.890641,0.8857598,0.1303478,0.037699617,0.903266,0.6300536,-0.24013078,-0.2969855,0.64687073,780.87915,792.96704,796.1905,791.3553,746.63007,0.538330078125,-0.03753662109375,0.83831787109375,5.7122802734375,-3.9776611328125,-2.968292236328125,1.0,1.0,1.0,1.0,1.0,25.0,
2023-09-08 00:03:38.146,0.28914502,0.12796606,-0.011079086,0.4938059,0.25104672,-0.04762233,0.006878674,0.5051934,0.58488154,0.2020034,0.17092307,0.890641,0.8857598,0.1303478,0.037699617,0.903266,0.6300536,-0.24013078,-0.2969855,0.64687073,804.2491,798.60803,795.38464,785.7143,686.99634,0.54449462890625,-0.02984619140625,0.84661865234375,5.0543212890625,-4.224395751953125,-0.456085205078125,1.0,1.0,1.0,1.0,1.0,25.0,
2023-09-08 00:03:38.157,0.28914502,0.12796606,-0.011079086,0.4938059,0.25104672,-0.04762233,0.006878674,0.5051934,0.58488154,0.2020034,0.17092307,0.890641,0.8857598,0.1303478,0.037699617,0.903266,0.6300536,-0.24013078,-0.2969855,0.64687073,770.40295,796.1905,794.17584,774.43225,814.7253,0.53289794921875,-0.03863525390625,0.8416748046875,4.4561767578125,-2.923431396484375,0.725250244140625,1.0,1.0,1.0,1.0,1.0,25.0,
2023-09-08 00:03:38.164,0.2589069,0.1143947,-0.03097866,0.44786713,0.24714753,-0.080001235,0.0117739,0.49834526,0.58488154,0.2020034,0.17092307,0.8821322,0.87267554,0.13266502,0.024871971,0.89641285,0.6321607,-0.23401846,-0.29873934,0.63511294,699.89014,785.31134,787.72894,706.7399,710.7692,0.53289794921875,-0.03863525390625,0.8416748046875,4.4561767578125,-2.923431396484375,0.725250244140625,1.0,1.0,1.0,1.0,1.0,25.0,
2023-09-08 00:03:38.217,0.2589069,0.1143947,-0.03097866,0.44786713,0.24714753,-0.080001235,0.0117739,0.49834526,0.58488154,0.2020034,0.17092307,0.8821322,0.87267554,0.13266502,0.024871971,0.89641285,0.6321607,-0.23401846,-0.29873934,0.63511294,712.381,788.5348,777.6557,700.293,673.69965,0.5257568359375,-0.041259765625,0.82659912109375,5.38330078125,-1.54022216796875,-1.218719482421875,1.0,1.0,1.0,1.0,1.0,25.0,
2023-09-08 00:03:38.247,0.2589069,0.1143947,-0.03097866,0.44786713,0.24714753,-0.080001235,0.0117739,0.49834526,0.58488154,0.2020034,0.17092307,0.8821322,0.87267554,0.13266502,0.024871971,0.89641285,0.6321607,-0.23401846,-0.29873934,0.63511294,780.07324,795.78754,794.9817,760.32965,722.0513,0.53314208984375,-0.0260009765625,0.8389892578125,5.1739501953125,-1.51031494140625,-2.1832275390625,1.0,1.0,1.0,1.0,1.0,25.0,
2023-09-08 00:03:38.254,0.2362163,0.099284716,-0.064480454,0.43767065,0.24611078,-0.10655652,0.014427947,0.49570015,0.58488154,0.2020034,0.16989249,0.88049746,0.8742082,0.13361648,0.02178598,0.8985839,0.634213,-0.23162432,-0.29299805,0.62622267,813.5165,795.78754,795.38464,806.26373,768.3883,0.53314208984375,-0.0260009765625,0.8389892578125,5.1739501953125,-1.51031494140625,-2.1832275390625,1.0,1.0,1.0,1.0,1.0,25.0,
2023-09-08 00:03:38.344,0.2362163,0.099284716,-0.064480454,0.43767065,0.24611078,-0.10655652,0.014427947,0.49570015,0.58488154,0.2020034,0.16989249,0.88049746,0.8742082,0.13361648,0.02178598,0.8985839,0.634213,-0.23162432,-0.29299805,0.62622267,802.23444,787.326,779.67035,828.022,695.8608,0.53131103515625,-0.02679443359375,0.84149169921875,4.882354736328125,-1.188812255859375,-0.201873779296875,1.0,1.0,1.0,1.0,1.0,25.0,
2023-09-08 00:03:38.413,0.2362163,0.099284716,-0.064480454,0.43767065,0.24611078,-0.10655652,0.014427947,0.49570015,0.58488154,0.2020034,0.16989249,0.88049746,0.8742082,0.13361648,0.02178598,0.8985839,0.634213,-0.23162432,-0.29299805,0.62622267,803.8461,800.2198,786.9231,809.0842,774.0293,0.52215576171875,-0.03448486328125,0.841552734375,3.865509033203125,-2.25799560546875,-0.157012939453125,1.0,1.0,1.0,1.0,1.0,25.0,
2023-09-08 00:03:38.414,0.22128372,0.08228393,-0.11742047,0.4455706,0.23578139,-0.13298915,0.013277441,0.4747495,0.5669203,0.2020034,0.15696526,0.87543225,0.8658116,0.13238594,0.017968837,0.9016419,0.6392114,-0.2314333,-0.2883903,0.6133824,814.7253,794.9817,783.69965,826.8132,774.0293,0.52215576171875,-0.03448486328125,0.841552734375,3.865509033203125,-2.25799560546875,-0.157012939453125,1.0,1.0,1.0,1.0,1.0,25.0,
2023-09-08 00:03:38.454,0.22128372,0.08228393,-0.11742047,0.4455706,0.23578139,-0.13298915,0.013277441,0.4747495,0.5669203,0.2020034,0.15696526,0.87543225,0.8658116,0.13238594,0.017968837,0.9016419,0.6392114,-0.2314333,-0.2883903,0.6133824,831.6484,796.1905,799.41394,830.4396,957.76556,0.52630615234375,-0.03912353515625,0.841064453125,4.074859619140625,-0.650482177734375,0.16448974609375,1.0,1.0,1.0,1.0,1.0,25.0,
2023-09-08 00:03:38.495,0.22128372,0.08228393,-0.11742047,0.4455706,0.23578139,-0.13298915,0.013277441,0.4747495,0.5669203,0.2020034,0.15696526,0.87543225,0.8658116,0.13238594,0.017968837,0.9016419,0.6392114,-0.2314333,-0.2883903,0.6133824,811.0989,795.38464,792.1612,798.20514,956.1539,0.51336669921875,-0.0379638671875,0.84527587890625,4.127197265625,0.16448974609375,-0.88226318359375,1.0,1.0,1.0,1.0,1.0,25.0,
2023-09-08 00:03:38.497,0.21587504,0.063613154,-0.18406545,0.4644215,0.21742532,-0.1653621,0.0021266742,0.43170714,0.51225996,0.2111237,0.15247911,0.8238835,0.85022324,0.12812784,0.009801216,0.8964354,0.6484184,-0.22978015,-0.2866196,0.6025095,799.81683,785.31134,793.7729,793.7729,836.4835,0.51336669921875,-0.0379638671875,0.84527587890625,4.127197265625,0.16448974609375,-0.88226318359375,1.0,1.0,1.0,1.0,1.0,25.0,
2023-09-08 00:03:38.532,0.21587504,0.063613154,-0.18406545,0.4644215,0.21742532,-0.1653621,0.0021266742,0.43170714,0.51225996,0.2111237,0.15247911,0.8238835,0.85022324,0.12812784,0.009801216,0.8964354,0.6484184,-0.22978015,-0.2866196,0.6025095,794.17584,792.1612,793.7729,803.0403,723.2601,0.50909423828125,-0.039794921875,0.851806640625,3.970184326171875,-0.04486083984375,-2.07855224609375,1.0,1.0,1.0,1.0,1.0,25.0,
2023-09-08 00:03:38.588,0.21431175,0.04784578,-0.2570511,0.47898054,0.19574487,-0.19727647,-0.02975382,0.37903422,0.46400127,0.23749468,0.17610031,0.6849307,0.8356461,0.12469741,0.0047089653,0.8753387,0.6589033,-0.22088589,-0.27565682,0.59933126,780.87915,790.54944,785.31134,804.2491,841.7216,0.50909423828125,-0.039794921875,0.851806640625,3.970184326171875,-0.04486083984375,-2.07855224609375,1.0,1.0,1.0,1.0,1.0,25.0,
2023-09-08 00:03:38.647,0.21431175,0.04784578,-0.2570511,0.47898054,0.19574487,-0.19727647,-0.02975382,0.37903422,0.46400127,0.23749468,0.17610031,0.6849307,0.8356461,0.12469741,0.0047089653,0.8753387,0.6589033,-0.22088589,-0.27565682,0.59933126,811.50183,800.6227,793.36993,802.6374,694.65204,0.50048828125,-0.0321044921875,0.84912109375,3.27484130859375,-0.171966552734375,-2.31781005859375,1.0,1.0,1.0,1.0,1.0,25.0,
2023-09-08 00:03:38.684,0.21431175,0.04784578,-0.2570511,0.47898054,0.19574487,-0.19727647,-0.02975382,0.37903422,0.46400127,0.23749468,0.17610031,0.6849307,0.8356461,0.12469741,0.0047089653,0.8753387,0.6589033,-0.22088589,-0.27565682,0.59933126,804.65204,807.0696,793.36993,799.011,667.25275,0.49993896484375,-0.03729248046875,0.84796142578125,1.854248046875,-0.605621337890625,-2.97576904296875,1.0,1.0,1.0,1.0,1.0,25.0,
2023-09-08 00:03:38.689,0.2102565,0.036332138,-0.33878195,0.47211632,0.17586905,-0.21643215,-0.09138572,0.33680138,0.42852738,0.20887767,0.19066367,0.47295445,0.82905996,0.12756371,0.01079781,0.8405772,0.6637333,-0.20224376,-0.24205099,0.601484,798.60803,780.87915,792.5641,801.8315,765.9707,0.49993896484375,-0.03729248046875,0.84796142578125,1.854248046875,-0.605621337890625,-2.97576904296875,1.0,1.0,1.0,1.0,1.0,25.0,
2023-09-08 00:03:38.741,0.2102565,0.036332138,-0.33878195,0.47211632,0.17586905,-0.21643215,-0.09138572,0.33680138,0.42852738,0.20887767,0.19066367,0.47295445,0.82905996,0.12756371,0.01079781,0.8405772,0.6637333,-0.20224376,-0.24205099,0.601484,793.7729,794.9817,797.3993,788.93774,757.1062,0.50860595703125,-0.04888916015625,0.84698486328125,1.084136962890625,-2.115936279296875,-3.7982177734375,1.0,1.0,1.0,1.0,1.0,25.0,
2023-09-08 00:03:38.825,0.2102565,0.036332138,-0.33878195,0.47211632,0.17586905,-0.21643215,-0.09138572,0.33680138,0.42852738,0.20887767,0.19066367,0.47295445,0.82905996,0.12756371,0.01079781,0.8405772,0.6637333,-0.20224376,-0.24205099,0.601484,800.2198,793.7729,798.20514,804.65204,873.95605,0.51910400390625,-0.0518798828125,0.84759521484375,2.51220703125,-2.459869384765625,-3.282318115234375,1.0,1.0,1.0,1.0,1.0,25.0,
2023-09-08 00:03:38.836,0.19962679,0.02329834,-0.44136968,0.4365754,0.1637609,-0.2200652,-0.1825556,0.31676003,0.41623393,0.18596262,0.18704939,0.35284778,0.8291472,0.13739458,0.024679476,0.8057126,0.6570114,-0.18003619,-0.19006158,0.6029473,785.31134,779.67035,780.07324,785.7143,1078.6447,0.51910400390625,-0.0518798828125,0.84759521484375,2.51220703125,-2.459869384765625,-3.282318115234375,1.0,1.0,1.0,1.0,1.0,25.0,
2023-09-08 00:03:38.870,0.19962679,0.02329834,-0.44136968,0.4365754,0.1637609,-0.2200652,-0.1825556,0.31676003,0.41623393,0.18596262,0.18704939,0.35284778,0.8291472,0.13739458,0.024679476,0.8057126,0.6570114,-0.18003619,-0.19006158,0.6029473,782.0879,790.54944,796.5934,792.1612,975.09155,0.50689697265625,-0.04412841796875,0.8558349609375,3.87298583984375,-1.009368896484375,-2.564544677734375,1.0,1.0,1.0,1.0,1.0,25.0,
2023-09-08 00:03:38.895,0.1913982,-0.0030101896,-0.5447361,0.3784623,0.16266371,-0.21123071,-0.28906327,0.31121993,0.40879574,0.17548281,0.1835155,0.33162883,0.8283549,0.14881705,0.037124116,0.78438854,0.6387195,-0.16494581,-0.13701607,0.6005288,786.9231,794.57874,786.52014,792.96704,822.7839,0.50689697265625,-0.04412841796875,0.8558349609375,3.87298583984375,-1.009368896484375,-2.564544677734375,1.0,1.0,1.0,1.0,1.0,25.0,
2023-09-08 00:03:38.934,0.1913982,-0.0030101896,-0.5447361,0.3784623,0.16266371,-0.21123071,-0.28906327,0.31121993,0.40879574,0.17548281,0.1835155,0.33162883,0.8283549,0.14881705,0.037124116,0.78438854,0.6387195,-0.16494581,-0.13701607,0.6005288,780.07324,793.7729,794.17584,774.43225,699.0842,0.50848388671875,-0.0460205078125,0.846923828125,2.758941650390625,-1.024322509765625,-2.40753173828125,1.0,1.0,1.0,1.0,1.0,25.0,
2023-09-08 00:03:38.949,0.1913982,-0.0030101896,-0.5447361,0.3784623,0.16266371,-0.21123071,-0.28906327,0.31121993,0.40879574,0.17548281,0.1835155,0.33162883,0.8283549,0.14881705,0.037124116,0.78438854,0.6387195,-0.16494581,-0.13701607,0.6005288,769.19415,787.72894,782.8938,786.1172,659.59705,0.506591796875,-0.0484619140625,0.8544921875,2.37762451171875,-0.695343017578125,-1.86920166015625,1.0,1.0,1.0,1.0,1.0,25.0,
2023-09-08 00:03:39.014,0.1913982,-0.0030101896,-0.5447361,0.3784623,0.16266371,-0.21123071,-0.28906327,0.31121993,0.40879574,0.17548281,0.1835155,0.33162883,0.8283549,0.14881705,0.037124116,0.78438854,0.6387195,-0.16494581,-0.13701607,0.6005288,784.5055,796.1905,796.5934,780.07324,749.85345,0.5035400390625,-0.05364990234375,0.852294921875,2.086029052734375,-0.575714111328125,-1.173858642578125,1.0,1.0,1.0,1.0,1.0,25.0,
2023-09-08 00:03:39.015,0.1865961,-0.043505587,-0.61465156,0.30585906,0.17305145,-0.18779223,-0.3833233,0.31097913,0.40879574,0.17397285,0.17318366,0.32169455,0.8156745,0.15637876,0.044203363,0.7722618,0.6195243,-0.16150576,-0.090200245,0.59332126,786.52014,794.17584,796.99634,785.7143,705.9341,0.5035400390625,-0.05364990234375,0.852294921875,2.086029052734375,-0.575714111328125,-1.173858642578125,1.0,1.0,1.0,1.0,1.0,25.0,
2023-09-08 00:03:39.053,0.1865961,-0.043505587,-0.61465156,0.30585906,0.17305145,-0.18779223,-0.3833233,0.31097913,0.40879574,0.17397285,0.17318366,0.32169455,0.8156745,0.15637876,0.044203363,0.7722618,0.6195243,-0.16150576,-0.090200245,0.59332126,790.9524,796.99634,780.4762,797.3993,668.0586,0.509765625,-0.05474853515625,0.85400390625,2.691650390625,-1.4654541015625,-1.36077880859375,1.0,1.0,1.0,1.0,1.0,25.0,
2023-09-08 00:03:39.085,0.18188152,-0.08974814,-0.62717867,0.20375313,0.19093388,-0.14725213,-0.43814105,0.3144668,0.40879574,0.17504863,0.16160657,0.31616718,0.7791137,0.15802029,0.048716854,0.7515796,0.61419517,-0.16242276,-0.03849121,0.57805586,782.8938,789.7436,794.57874,786.1172,651.53845,0.509765625,-0.05474853515625,0.85400390625,2.691650390625,-1.4654541015625,-1.36077880859375,1.0,1.0,1.0,1.0,1.0,25.0,
2023-09-08 00:03:39.120,0.18188152,-0.08974814,-0.62717867,0.20375313,0.19093388,-0.14725213,-0.43814105,0.3144668,0.40879574,0.17504863,0.16160657,0.31616718,0.7791137,0.15802029,0.048716854,0.7515796,0.61419517,-0.16242276,-0.03849121,0.57805586,783.2967,795.38464,784.5055,788.5348,851.39197,0.505615234375,-0.054443359375,0.85699462890625,3.0206298828125,-0.201873779296875,-0.9869384765625,1.0,1.0,1.0,1.0,1.0,25.0,
2023-09-08 00:03:39.221,0.18188152,-0.08974814,-0.62717867,0.20375313,0.19093388,-0.14725213,-0.43814105,0.3144668,0.40879574,0.17504863,0.16160657,0.31616718,0.7791137,0.15802029,0.048716854,0.7515796,0.61419517,-0.16242276,-0.03849121,0.57805586,799.41394,786.52014,783.69965,787.72894,858.24176,0.49114990234375,-0.05560302734375,0.8612060546875,2.691650390625,0.2691650390625,-1.48040771484375,1.0,1.0,1.0,1.0,1.0,25.0,
2023-09-08 00:03:39.226,0.19376826,-0.11365806,-0.5940563,0.074715264,0.2046465,-0.094631344,-0.44995847,0.31946254,0.4071263,0.18882683,0.1544193,0.3056541,0.7093771,0.15439503,0.05325222,0.71559846,0.62865096,-0.15417649,0.031847898,0.5496733,777.6557,781.685,792.5641,791.75824,703.1135,0.49114990234375,-0.05560302734375,0.8612060546875,2.691650390625,0.2691650390625,-1.48040771484375,1.0,1.0,1.0,1.0,1.0,25.0,
2023-09-08 00:03:39.272,0.19376826,-0.11365806,-0.5940563,0.074715264,0.2046465,-0.094631344,-0.44995847,0.31946254,0.4071263,0.18882683,0.1544193,0.3056541,0.7093771,0.15439503,0.05325222,0.71559846,0.62865096,-0.15417649,0.031847898,0.5496733,771.2088,790.9524,791.75824,786.9231,806.6667,0.4931640625,-0.063720703125,0.8575439453125,2.100982666015625,-2.16827392578125,-2.011260986328125,1.0,1.0,1.0,1.0,1.0,25.0,
2023-09-08 00:03:39.329,0.19376826,-0.11365806,-0.5940563,0.074715264,0.2046465,-0.094631344,-0.44995847,0.31946254,0.4071263,0.18882683,0.1544193,0.3056541,0.7093771,0.15439503,0.05325222,0.71559846,0.62865096,-0.15417649,0.031847898,0.5496733,774.83514,793.7729,787.326,797.3993,770.0,0.4940185546875,-0.06256103515625,0.85638427734375,2.145843505859375,-3.028106689453125,-2.385101318359375,1.0,1.0,1.0,1.0,1.0,25.0,
2023-09-08 00:03:39.335,0.21322423,-0.10738401,-0.5593309,-0.08689676,0.20020261,-0.041840434,-0.44329056,0.31400415,0.35736868,0.21026611,0.1489314,0.29063836,0.60393256,0.14800385,0.0581881,0.67991227,0.6501188,-0.13129672,0.11428232,0.5089032,780.87915,783.69965,798.60803,785.31134,1040.3663,0.4940185546875,-0.06256103515625,0.85638427734375,2.145843505859375,-3.028106689453125,-2.385101318359375,1.0,1.0,1.0,1.0,1.0,25.0,
2023-09-08 00:03:39.386,0.21322423,-0.10738401,-0.5593309,-0.08689676,0.20020261,-0.041840434,-0.44329056,0.31400415,0.35736868,0.21026611,0.1489314,0.29063836,0.60393256,0.14800385,0.0581881,0.67991227,0.6501188,-0.13129672,0.11428232,0.5089032,789.34064,783.69965,794.57874,797.3993,656.3736,0.49102783203125,-0.0552978515625,0.859130859375,3.887939453125,-3.013153076171875,-1.757049560546875,1.0,1.0,1.0,1.0,1.0,25.0,
2023-09-08 00:03:39.403,0.21322423,-0.07855767,-0.5354838,-0.08689676,0.20020261,0.0048045777,-0.43968284,0.31400415,0.35736868,0.22929098,0.12517095,0.29063836,0.60393256,0.14392222,0.06382941,0.67991227,0.6501188,-0.10155309,0.18861604,0.5089032,785.7143,793.7729,803.0403,806.26373,755.4945,0.49102783203125,-0.0552978515625,0.859130859375,3.887939453125,-3.013153076171875,-1.757049560546875,1.0,1.0,1.0,1.0,1.0,25.0,
2023-09-08 00:03:39.446,0.21322423,-0.07855767,-0.5354838,-0.08689676,0.20020261,0.0048045777,-0.43968284,0.31400415,0.35736868,0.22929098,0.12517095,0.29063836,0.60393256,0.14392222,0.06382941,0.67991227,0.6501188,-0.10155309,0.18861604,0.5089032,778.46155,785.7143,794.57874,788.5348,621.31866,0.49041748046875,-0.05584716796875,0.84515380859375,3.90289306640625,-3.087921142578125,-2.444915771484375,1.0,1.0,1.0,1.0,1.0,25.0,
2023-09-08 00:03:39.484,0.21322423,-0.07855767,-0.5354838,-0.08689676,0.20020261,0.0048045777,-0.43968284,0.31400415,0.35736868,0.22929098,0.12517095,0.29063836,0.60393256,0.14392222,0.06382941,0.67991227,0.6501188,-0.10155309,0.18861604,0.5089032,767.98535,794.17584,795.78754,782.0879,654.7619,0.4967041015625,-0.05609130859375,0.85003662109375,3.895416259765625,-4.1571044921875,-1.667327880859375,1.0,1.0,1.0,1.0,1.0,25.0,
2023-09-08 00:03:39.493,0.21322423,-0.029884204,-0.51556844,-0.08689676,0.20020261,0.04540553,-0.44286764,0.31400415,0.35736868,0.24963406,0.108340256,0.29063836,0.60393256,0.14812697,0.07258883,0.67991227,0.6501188,-0.07541912,0.24158534,0.5089032,787.72894,798.20514,791.75824,779.67035,717.619,0.4967041015625,-0.05609130859375,0.85003662109375,3.895416259765625,-4.1571044921875,-1.667327880859375,1.0,1.0,1.0,1.0,1.0,25.0,
2023-09-08 00:03:39.528,0.21322423,-0.029884204,-0.51556844,-0.08689676,0.20020261,0.04540553,-0.44286764,0.31400415,0.35736868,0.24963406,0.108340256,0.29063836,0.60393256,0.14812697,0.07258883,0.67991227,0.6501188,-0.07541912,0.24158534,0.5089032,778.46155,794.17584,789.34064,794.57874,895.7143,0.5064697265625,-0.060546875,0.85296630859375,3.715972900390625,-4.44122314453125,-0.650482177734375,1.0,1.0,1.0,1.0,1.0,25.0,
2023-09-08 00:03:39.566,0.21322423,-0.029884204,-0.51556844,-0.08689676,0.20020261,0.04540553,-0.44286764,0.31400415,0.35736868,0.24963406,0.108340256,0.29063836,0.60393256,0.14812697,0.07258883,0.67991227,0.6501188,-0.07541912,0.24158534,0.5089032,798.20514,790.54944,794.57874,797.3993,1097.1794,0.5052490234375,-0.06927490234375,0.853759765625,4.80010986328125,-4.957122802734375,0.19439697265625,1.0,1.0,1.0,1.0,1.0,25.0,
2023-09-08 00:03:39.603,0.21322423,0.027493052,-0.48081353,-0.08689676,0.20020261,0.083183825,-0.4400542,0.31400415,0.35736868,0.28272527,0.09786289,0.29063836,0.60393256,0.16125488,0.08640025,0.67991227,0.6501188,-0.056503996,0.27272668,0.5089032,777.6557,799.41394,797.8022,775.2381,711.1722,0.5052490234375,-0.06927490234375,0.853759765625,4.80010986328125,-4.957122802734375,0.19439697265625,1.0,1.0,1.0,1.0,1.0,25.0,
2023-09-08 00:03:39.655,0.21322423,0.027493052,-0.48081353,-0.08689676,0.20020261,0.083183825,-0.4400542,0.31400415,0.35736868,0.28272527,0.09786289,0.29063836,0.60393256,0.16125488,0.08640025,0.67991227,0.6501188,-0.056503996,0.27272668,0.5089032,788.1319,792.96704,789.34064,780.87915,773.6264,0.53125,-0.06842041015625,0.85491943359375,5.7122802734375,-4.134674072265625,1.06170654296875,1.0,1.0,1.0,1.0,1.0,25.0,
2023-09-08 00:03:39.730,0.21322423,0.027493052,-0.48081353,-0.08689676,0.20020261,0.083183825,-0.4400542,0.31400415,0.35736868,0.28272527,0.09786289,0.29063836,0.60393256,0.16125488,0.08640025,0.67991227,0.6501188,-0.056503996,0.27272668,0.5089032,778.86444,794.57874,796.99634,817.9487,678.1319,0.52252197265625,-0.06231689453125,0.855224609375,6.23565673828125,-0.6878662109375,2.100982666015625,1.0,1.0,1.0,1.0,1.0,25.0,
2023-09-08 00:03:39.733,0.21322423,0.07929907,-0.42949438,-0.08689676,0.20020261,0.11621814,-0.4217898,0.31400415,0.35736868,0.3030896,0.09786289,0.29063836,0.60393256,0.17785367,0.105748355,0.67991227,0.6501188,-0.04291991,0.28899336,0.5089032,780.07324,785.31134,791.3553,779.67035,750.65936,0.52252197265625,-0.06231689453125,0.855224609375,6.23565673828125,-0.6878662109375,2.100982666015625,1.0,1.0,1.0,1.0,1.0,25.0,
2023-09-08 00:03:39.771,0.21322423,0.07929907,-0.42949438,-0.08689676,0.20020261,0.11621814,-0.4217898,0.31400415,0.35736868,0.3030896,0.09786289,0.29063836,0.60393256,0.17785367,0.105748355,0.67991227,0.6501188,-0.04291991,0.28899336,0.5089032,791.3553,793.7729,796.1905,800.2198,617.6923,0.487060546875,-0.046630859375,0.85260009765625,7.3870849609375,2.011260986328125,2.265472412109375,1.0,1.0,1.0,1.0,1.0,25.0,
2023-09-08 00:03:39.813,0.21322423,0.07929907,-0.42949438,-0.08689676,0.20020261,0.11621814,-0.4217898,0.31400415,0.35736868,0.3030896,0.09786289,0.29063836,0.60393256,0.17785367,0.105748355,0.67991227,0.6501188,-0.04291991,0.28899336,0.5089032,799.41394,803.44324,795.38464,787.72894,759.92676,0.47637939453125,-0.05523681640625,0.8670654296875,4.6954345703125,1.03179931640625,0.471038818359375,1.0,1.0,1.0,1.0,1.0,25.0,
2023-09-08 00:03:39.818,0.21322423,0.12097953,-0.37646833,-0.08689676,0.20020261,0.13804647,-0.39304617,0.31400415,0.35736868,0.3027223,0.09786289,0.29063836,0.60393256,0.1921128,0.1297908,0.67991227,0.6501188,-0.03305607,0.29763493,0.5089032,801.8315,798.20514,790.14655,801.02563,964.61536,0.47637939453125,-0.05523681640625,0.8670654296875,4.6954345703125,1.03179931640625,0.471038818359375,1.0,1.0,1.0,1.0,1.0,25.0,
2023-09-08 00:03:39.853,0.21322423,0.12097953,-0.37646833,-0.08689676,0.20020261,0.13804647,-0.39304617,0.31400415,0.35736868,0.3027223,0.09786289,0.29063836,0.60393256,0.1921128,0.1297908,0.67991227,0.6501188,-0.03305607,0.29763493,0.5089032,789.34064,784.90845,787.326,792.1612,767.1795,0.4798583984375,-0.06048583984375,0.85986328125,4.5159912109375,-1.09161376953125,-0.059814453125,1.0,1.0,1.0,1.0,1.0,25.0,
2023-09-08 00:03:39.902,0.26792797,0.14834231,-0.33011848,-0.18580383,-0.11980069,0.14497131,-0.36376253,0.05899309,0.122071,0.30303162,0.09786289,-0.057299767,0.6016624,0.20235634,0.15655406,0.88842773,0.85138667,-0.028377045,0.30232826,0.69987005,793.36993,787.72894,785.7143,787.72894,799.81683,0.4798583984375,-0.06048583984375,0.85986328125,4.5159912109375,-1.09161376953125,-0.059814453125,1.0,1.0,1.0,1.0,1.0,25.0,
2023-09-08 00:03:39.935,0.26792797,0.14834231,-0.33011848,-0.18580383,-0.11980069,0.14497131,-0.36376253,0.05899309,0.122071,0.30303162,0.09786289,-0.057299767,0.6016624,0.20235634,0.15655406,0.88842773,0.85138667,-0.028377045,0.30232826,0.69987005,792.5641,796.99634,790.9524,797.8022,1000.07324,0.470947265625,-0.06121826171875,0.86370849609375,4.658050537109375,-0.73272705078125,-1.712188720703125,1.0,1.0,1.0,1.0,1.0,25.0,
2023-09-08 00:03:39.973,0.26792797,0.14834231,-0.33011848,-0.18580383,-0.11980069,0.14497131,-0.36376253,0.05899309,0.122071,0.30303162,0.09786289,-0.057299767,0.6016624,0.20235634,0.15655406,0.88842773,0.85138667,-0.028377045,0.30232826,0.69987005,794.17584,789.34064,789.7436,803.0403,708.7546,0.474609375,-0.05780029296875,0.85821533203125,5.151519775390625,-2.773895263671875,-3.297271728515625,1.0,1.0,1.0,1.0,1.0,25.0,
2023-09-08 00:03:39.979,0.19604455,0.16742538,-0.2949719,-0.14063591,-0.16417032,0.14027761,-0.33905774,0.029158711,0.16613768,0.3071146,0.1112171,0.03689758,0.59113216,0.20885973,0.18195511,0.9108138,0.8137563,-0.031645793,0.30355296,0.68174756,784.5055,794.17584,792.1612,801.4286,829.2308,0.474609375,-0.05780029296875,0.85821533203125,5.151519775390625,-2.773895263671875,-3.297271728515625,1.0,1.0,1.0,1.0,1.0,25.0,
2023-09-08 00:03:40.072,0.19604455,0.16742538,-0.2949719,-0.14063591,-0.16417032,0.14027761,-0.33905774,0.029158711,0.16613768,0.3071146,0.1112171,0.03689758,0.59113216,0.20885973,0.18195511,0.9108138,0.8137563,-0.031645793,0.30355296,0.68174756,782.0879,794.57874,803.8461,795.78754,1116.5201,0.49212646484375,-0.05584716796875,0.86456298828125,4.85992431640625,-4.605712890625,-1.816864013671875,1.0,1.0,1.0,1.0,1.0,25.0,
2023-09-08 00:03:40.116,0.19604455,0.16742538,-0.2949719,-0.14063591,-0.16417032,0.14027761,-0.33905774,0.029158711,0.16613768,0.3071146,0.1112171,0.03689758,0.59113216,0.20885973,0.18195511,0.9108138,0.8137563,-0.031645793,0.30355296,0.68174756,763.95605,778.0586,793.7729,763.1502,752.27106,0.5057373046875,-0.06182861328125,0.859130859375,2.82623291015625,-5.884246826171875,1.024322509765625,1.0,1.0,1.0,1.0,1.0,25.0,
2023-09-08 00:03:40.125,0.13428527,0.17775272,-0.26309213,-0.08740639,-0.18813379,0.13323064,-0.31621894,0.023957971,0.1853001,0.3042168,0.12442112,0.08976005,0.59346485,0.20946643,0.2009557,0.9189462,0.7737303,-0.045055788,0.29981062,0.68157023,782.0879,798.20514,794.17584,797.3993,842.52747,0.5057373046875,-0.06182861328125,0.859130859375,2.82623291015625,-5.884246826171875,1.024322509765625,1.0,1.0,1.0,1.0,1.0,25.0,
2023-09-08 00:03:40.169,0.13428527,0.17775272,-0.26309213,-0.08740639,-0.18813379,0.13323064,-0.31621894,0.023957971,0.1853001,0.3042168,0.12442112,0.08976005,0.59346485,0.20946643,0.2009557,0.9189462,0.7737303,-0.045055788,0.29981062,0.68157023,773.22345,800.6227,793.7729,795.78754,692.6374,0.505615234375,-0.0726318359375,0.853515625,3.431854248046875,-4.964599609375,1.383209228515625,1.0,1.0,1.0,1.0,1.0,25.0,
2023-09-08 00:03:40.200,0.13428527,0.17775272,-0.26309213,-0.08740639,-0.18813379,0.13323064,-0.31621894,0.023957971,0.1853001,0.3042168,0.12442112,0.08976005,0.59346485,0.20946643,0.2009557,0.9189462,0.7737303,-0.045055788,0.29981062,0.68157023,789.34064,800.6227,794.9817,778.46155,673.69965,0.499755859375,-0.0662841796875,0.854736328125,4.8748779296875,-3.170166015625,1.614990234375,1.0,1.0,1.0,1.0,1.0,25.0,
2023-09-08 00:03:40.200,0.107869,0.1772,-0.23010072,-0.036475085,-0.17485775,0.13120721,-0.2906015,0.04939765,0.1875881,0.30675912,0.122216664,0.13560747,0.59935725,0.20083195,0.21201275,0.91460353,0.73936176,-0.06780027,0.28886938,0.6899042,793.36993,805.05493,789.34064,791.75824,720.4396,0.499755859375,-0.0662841796875,0.854736328125,4.8748779296875,-3.170166015625,1.614990234375,1.0,1.0,1.0,1.0,1.0,25.0,
2023-09-08 00:03:40.268,0.107869,0.1772,-0.23010072,-0.036475085,-0.17485775,0.13120721,-0.2906015,0.04939765,0.1875881,0.30675912,0.122216664,0.13560747,0.59935725,0.20083195,0.21201275,0.91460353,0.73936176,-0.06780027,0.28886938,0.6899042,801.02563,803.44324,794.17584,776.04395,746.63007,0.49554443359375,-0.0615234375,0.84881591796875,5.525360107421875,-2.444915771484375,-0.142059326171875,1.0,1.0,1.0,1.0,1.0,25.0,
2023-09-08 00:03:40.306,0.107869,0.1772,-0.23010072,-0.036475085,-0.17485775,0.13120721,-0.2906015,0.04939765,0.1875881,0.30675912,0.122216664,0.13560747,0.59935725,0.20083195,0.21201275,0.91460353,0.73936176,-0.06780027,0.28886938,0.6899042,788.5348,797.3993,792.5641,804.65204,1093.1501,0.4970703125,-0.059814453125,0.8575439453125,5.443115234375,-3.39447021484375,-1.614990234375,1.0,1.0,1.0,1.0,1.0,25.0,
2023-09-08 00:03:40.309,0.14068557,0.16809098,-0.19942221,0.009753559,-0.10699798,0.13693726,-0.26179442,0.11957692,0.20006801,0.31505576,0.116377495,0.19964725,0.60566884,0.1854105,0.21915247,0.905015,0.71608365,-0.09343385,0.2708723,0.6975367,786.52014,794.17584,787.72894,791.3553,668.86444,0.4970703125,-0.059814453125,0.8575439453125,5.443115234375,-3.39447021484375,-1.614990234375,1.0,1.0,1.0,1.0,1.0,25.0,
2023-09-08 00:03:40.359,0.14068557,0.16809098,-0.19942221,0.009753559,-0.10699798,0.13693726,-0.26179442,0.11957692,0.20006801,0.31505576,0.116377495,0.19964725,0.60566884,0.1854105,0.21915247,0.905015,0.71608365,-0.09343385,0.2708723,0.6975367,790.14655,797.8022,787.72894,789.7436,747.8388,0.49957275390625,-0.05914306640625,0.86114501953125,4.792633056640625,-4.463653564453125,-0.897216796875,1.0,1.0,1.0,1.0,1.0,25.0,
2023-09-08 00:03:40.420,0.22337317,0.1619101,-0.17078924,0.05624847,-0.010244251,0.14500128,-0.23254402,0.21674897,0.20780504,0.32389408,0.1048125,0.30096015,0.61292946,0.17223115,0.22788641,0.9002075,0.70496726,-0.10938113,0.24910913,0.70231146,781.685,793.36993,786.1172,792.5641,755.4945,0.49957275390625,-0.05914306640625,0.86114501953125,4.792633056640625,-4.463653564453125,-0.897216796875,1.0,1.0,1.0,1.0,1.0,25.0,
2023-09-08 00:03:40.459,0.22337317,0.1619101,-0.17078924,0.05624847,-0.010244251,0.14500128,-0.23254402,0.21674897,0.20780504,0.32389408,0.1048125,0.30096015,0.61292946,0.17223115,0.22788641,0.9002075,0.70496726,-0.10938113,0.24910913,0.70231146,796.1905,802.23444,793.7729,790.54944,696.26373,0.49810791015625,-0.056396484375,0.86041259765625,4.089813232421875,-4.329071044921875,-0.4486083984375,1.0,1.0,1.0,1.0,1.0,25.0,
2023-09-08 00:03:40.509,0.22337317,0.1619101,-0.17078924,0.05624847,-0.010244251,0.14500128,-0.23254402,0.21674897,0.20780504,0.32389408,0.1048125,0.30096015,0.61292946,0.17223115,0.22788641,0.9002075,0.70496726,-0.10938113,0.24910913,0.70231146,790.9524,805.8608,796.5934,779.67035,736.55676,0.50042724609375,-0.0640869140625,0.8515625,4.568328857421875,-3.51409912109375,-0.9271240234375,1.0,1.0,1.0,1.0,1.0,25.0,
2023-09-08 00:03:40.517,0.3128524,0.17035614,-0.13730901,0.093716234,0.07232541,0.14765686,-0.20780893,0.30136228,0.20780504,0.32596028,0.09664582,0.35960194,0.6222039,0.16892809,0.2409229,0.9050251,0.70303196,-0.105960004,0.22591402,0.7058481,796.5934,804.65204,794.57874,788.5348,698.2784,0.50042724609375,-0.0640869140625,0.8515625,4.568328857421875,-3.51409912109375,-0.9271240234375,1.0,1.0,1.0,1.0,1.0,25.0,
2023-09-08 00:03:40.584,0.3128524,0.17035614,-0.13730901,0.093716234,0.07232541,0.14765686,-0.20780893,0.30136228,0.20780504,0.32596028,0.09664582,0.35960194,0.6222039,0.16892809,0.2409229,0.9050251,0.70303196,-0.105960004,0.22591402,0.7058481,786.52014,803.44324,792.96704,801.4286,621.7216,0.49505615234375,-0.0638427734375,0.84906005859375,4.927215576171875,-3.596343994140625,-1.45050048828125,1.0,1.0,1.0,1.0,1.0,25.0,
2023-09-08 00:03:40.623,0.3128524,0.17035614,-0.13730901,0.093716234,0.07232541,0.14765686,-0.20780893,0.30136228,0.20780504,0.32596028,0.09664582,0.35960194,0.6222039,0.16892809,0.2409229,0.9050251,0.70303196,-0.105960004,0.22591402,0.7058481,785.31134,786.52014,795.78754,786.9231,825.6044,0.50689697265625,-0.06646728515625,0.85064697265625,4.867401123046875,-3.66363525390625,-1.682281494140625,1.0,1.0,1.0,1.0,1.0,25.0,
2023-09-08 00:03:40.631,0.37007248,0.19101079,-0.09657122,0.11789493,0.11969266,0.14024748,-0.1928096,0.3506079,0.21092919,0.32627693,0.09577978,0.39950928,0.6329589,0.17231654,0.25684428,0.91533977,0.7044847,-0.0885096,0.1963272,0.7082946,769.19415,792.96704,787.326,790.14655,746.2271,0.50689697265625,-0.06646728515625,0.85064697265625,4.867401123046875,-3.66363525390625,-1.682281494140625,1.0,1.0,1.0,1.0,1.0,25.0,
2023-09-08 00:03:40.671,0.37007248,0.19101079,-0.09657122,0.11789493,0.11969266,0.14024748,-0.1928096,0.3506079,0.21092919,0.32627693,0.09577978,0.39950928,0.6329589,0.17231654,0.25684428,0.91533977,0.7044847,-0.0885096,0.1963272,0.7082946,790.54944,801.4286,794.17584,822.7839,856.63007,0.5201416015625,-0.067626953125,0.857666015625,5.0244140625,-4.44122314453125,-0.2093505859375,1.0,1.0,1.0,1.0,1.0,25.0,
2023-09-08 00:03:40.689,0.3952075,0.21172868,-0.05445216,0.1314649,0.13983151,0.12470988,-0.18874444,0.3647466,0.22251932,0.32505712,0.09524429,0.41779277,0.64335823,0.17180423,0.2743781,0.922325,0.7039686,-0.07297066,0.1483405,0.70679533,772.01465,789.7436,790.14655,799.81683,795.78754,0.5201416015625,-0.067626953125,0.857666015625,5.0244140625,-4.44122314453125,-0.2093505859375,1.0,1.0,1.0,1.0,1.0,25.0,
2023-09-08 00:03:40.738,0.3952075,0.21172868,-0.05445216,0.1314649,0.13983151,0.12470988,-0.18874444,0.3647466,0.22251932,0.32505712,0.09524429,0.41779277,0.64335823,0.17180423,0.2743781,0.922325,0.7039686,-0.07297066,0.1483405,0.70679533,799.81683,792.1612,779.67035,803.44324,1196.7032,0.5262451171875,-0.0625,0.853271484375,5.929107666015625,-1.084136962890625,0.844879150390625,1.0,1.0,1.0,1.0,1.0,25.0,
2023-09-08 00:03:40.789,0.3952075,0.21172868,-0.05445216,0.1314649,0.13983151,0.12470988,-0.18874444,0.3647466,0.22251932,0.32505712,0.09524429,0.41779277,0.64335823,0.17180423,0.2743781,0.922325,0.7039686,-0.07297066,0.1483405,0.70679533,801.02563,799.81683,790.54944,792.96704,790.9524,0.490966796875,-0.0489501953125,0.8468017578125,7.46185302734375,1.457977294921875,0.16448974609375,1.0,1.0,1.0,1.0,1.0,25.0,
2023-09-08 00:03:40.850,0.3952075,0.21172868,-0.05445216,0.1314649,0.13983151,0.12470988,-0.18874444,0.3647466,0.22251932,0.32505712,0.09524429,0.41779277,0.64335823,0.17180423,0.2743781,0.922325,0.7039686,-0.07297066,0.1483405,0.70679533,775.2381,791.75824,792.1612,778.0586,668.86444,0.477294921875,-0.05419921875,0.85235595703125,9.069366455078123,4.029998779296875,-0.2392578125,1.0,1.0,1.0,1.0,1.0,25.0,
2023-09-08 00:03:40.851,0.39640507,0.22469373,-0.019482117,0.1294062,0.1550698,0.108947635,-0.19181027,0.35701734,0.2507431,0.29362518,0.09524429,0.48235777,0.6525351,0.16056703,0.29250345,0.92052543,0.6998047,-0.07044168,0.07278513,0.7002431,771.2088,796.99634,793.36993,790.54944,731.31866,0.477294921875,-0.05419921875,0.85235595703125,9.069366455078123,4.029998779296875,-0.2392578125,1.0,1.0,1.0,1.0,1.0,25.0,
2023-09-08 00:03:40.891,0.39640507,0.22469373,-0.019482117,0.1294062,0.1550698,0.108947635,-0.19181027,0.35701734,0.2507431,0.29362518,0.09524429,0.48235777,0.6525351,0.16056703,0.29250345,0.92052543,0.6998047,-0.07044168,0.07278513,0.7002431,798.60803,804.65204,794.9817,801.02563,738.1685,0.45855712890625,-0.044677734375,0.86724853515625,7.888031005859375,0.874786376953125,-4.41131591796875,1.0,1.0,1.0,1.0,1.0,25.0,
2023-09-08 00:03:40.954,0.3866349,0.2210407,0.0066710245,0.12666933,0.18225569,0.09651061,-0.19658978,0.34443516,0.26500195,0.25682336,0.10067795,0.51677644,0.66024065,0.13877656,0.31009254,0.9110866,0.69387686,-0.08047428,-0.027107816,0.69048464,799.81683,793.7729,796.5934,816.7399,718.4249,0.45855712890625,-0.044677734375,0.86724853515625,7.888031005859375,0.874786376953125,-4.41131591796875,1.0,1.0,1.0,1.0,1.0,25.0,
2023-09-08 00:03:40.984,0.3866349,0.2210407,0.0066710245,0.12666933,0.18225569,0.09651061,-0.19658978,0.34443516,0.26500195,0.25682336,0.10067795,0.51677644,0.66024065,0.13877656,0.31009254,0.9110866,0.69387686,-0.08047428,-0.027107816,0.69048464,801.4286,791.75824,784.5055,783.2967,747.8388,0.47320556640625,-0.0404052734375,0.86871337890625,5.734710693359375,-3.536529541015625,-3.84307861328125,1.0,1.0,1.0,1.0,1.0,25.0,
2023-09-08 00:03:41.056,0.3866349,0.2210407,0.0066710245,0.12666933,0.18225569,0.09651061,-0.19658978,0.34443516,0.26500195,0.25682336,0.10067795,0.51677644,0.66024065,0.13877656,0.31009254,0.9110866,0.69387686,-0.08047428,-0.027107816,0.69048464,797.8022,792.96704,799.41394,790.9524,760.7326,0.48779296875,-0.04815673828125,0.86566162109375,3.312225341796875,-7.289886474609375,-2.25799560546875,1.0,1.0,1.0,1.0,1.0,25.0,
2023-09-08 00:03:41.061,0.37555975,0.1993228,0.019418843,0.12557569,0.21962987,0.08426977,-0.20229784,0.33671612,0.2653993,0.23926146,0.12249068,0.5400984,0.6665591,0.11004932,0.32525367,0.8996306,0.68839645,-0.09498812,-0.13350378,0.679477,792.5641,787.326,790.54944,790.14655,838.49817,0.48779296875,-0.04815673828125,0.86566162109375,3.312225341796875,-7.289886474609375,-2.25799560546875,1.0,1.0,1.0,1.0,1.0,25.0,
2023-09-08 00:03:41.105,0.37555975,0.1993228,0.019418843,0.12557569,0.21962987,0.08426977,-0.20229784,0.33671612,0.2653993,0.23926146,0.12249068,0.5400984,0.6665591,0.11004932,0.32525367,0.8996306,0.68839645,-0.09498812,-0.13350378,0.679477,779.2674,788.1319,799.81683,793.7729,1070.989,0.52789306640625,-0.048095703125,0.85296630859375,2.691650390625,-8.4039306640625,0.67291259765625,1.0,1.0,1.0,1.0,1.0,25.0,
2023-09-08 00:03:41.119,0.37555975,0.1993228,0.019418843,0.12557569,0.21962987,0.08426977,-0.20229784,0.33671612,0.2653993,0.23926146,0.12249068,0.5400984,0.6665591,0.11004932,0.32525367,0.8996306,0.68839645,-0.09498812,-0.13350378,0.679477,777.25275,793.36993,782.8938,758.315,805.05493,0.51739501953125,-0.04583740234375,0.85589599609375,3.33465576171875,-4.972076416015625,3.820648193359375,1.0,1.0,1.0,1.0,1.0,25.0,
2023-09-08 00:03:41.124,0.3703853,0.16116813,0.018330019,0.15510869,0.2685337,0.067785844,-0.21153292,0.3475091,0.2506245,0.22906868,0.14307687,0.5701431,0.66657615,0.07807301,0.3368625,0.8968567,0.6621237,-0.10761071,-0.22239453,0.6550374,795.38464,797.3993,795.78754,770.80585,897.72894,0.51739501953125,-0.04583740234375,0.85589599609375,3.33465576171875,-4.972076416015625,3.820648193359375,1.0,1.0,1.0,1.0,1.0,25.0,
2023-09-08 00:03:41.203,0.3703853,0.16116813,0.018330019,0.15510869,0.2685337,0.067785844,-0.21153292,0.3475091,0.2506245,0.22906868,0.14307687,0.5701431,0.66657615,0.07807301,0.3368625,0.8968567,0.6621237,-0.10761071,-0.22239453,0.6550374,798.60803,787.326,788.93774,781.685,832.4542,0.497314453125,-0.05718994140625,0.84979248046875,3.7384033203125,-3.30474853515625,2.041168212890625,1.0,1.0,1.0,1.0,1.0,25.0,
2023-09-08 00:03:41.227,0.37018028,0.11437789,0.0037747077,0.21976022,0.28504348,0.048351627,-0.22386375,0.36765754,0.23485418,0.17441602,0.14307687,0.6378949,0.669611,0.046051268,0.34587997,0.8945781,0.6407689,-0.11718715,-0.28109106,0.6375026,786.9231,799.011,792.5641,820.7692,750.65936,0.497314453125,-0.05718994140625,0.84979248046875,3.7384033203125,-3.30474853515625,2.041168212890625,1.0,1.0,1.0,1.0,1.0,25.0,
2023-09-08 00:03:41.274,0.37018028,0.11437789,0.0037747077,0.21976022,0.28504348,0.048351627,-0.22386375,0.36765754,0.23485418,0.17441602,0.14307687,0.6378949,0.669611,0.046051268,0.34587997,0.8945781,0.6407689,-0.11718715,-0.28109106,0.6375026,785.7143,808.2784,799.81683,786.9231,680.54944,0.50323486328125,-0.06103515625,0.84698486328125,4.269256591796875,-3.4393310546875,-1.353302001953125,1.0,1.0,1.0,1.0,1.0,25.0,
2023-09-08 00:03:41.338,0.37018028,0.11437789,0.0037747077,0.21976022,0.28504348,0.048351627,-0.22386375,0.36765754,0.23485418,0.17441602,0.14307687,0.6378949,0.669611,0.046051268,0.34587997,0.8945781,0.6407689,-0.11718715,-0.28109106,0.6375026,786.1172,800.6227,801.8315,785.31134,648.71796,0.51568603515625,-0.05426025390625,0.8583984375,5.719757080078125,-2.40753173828125,-1.06170654296875,1.0,1.0,1.0,1.0,1.0,25.0,
2023-09-08 00:03:41.347,0.37909067,0.07745016,-0.019822363,0.32690105,0.3070923,0.031987917,-0.23280288,0.39523908,0.22757635,0.089202635,0.14216073,0.71662927,0.67958444,0.017632054,0.3552533,0.8914155,0.62165165,-0.12324895,-0.31254104,0.6284805,782.8938,800.6227,795.38464,767.1795,709.9634,0.51568603515625,-0.05426025390625,0.8583984375,5.719757080078125,-2.40753173828125,-1.06170654296875,1.0,1.0,1.0,1.0,1.0,25.0,
2023-09-08 00:03:41.389,0.37909067,0.07745016,-0.019822363,0.32690105,0.3070923,0.031987917,-0.23280288,0.39523908,0.22757635,0.089202635,0.14216073,0.71662927,0.67958444,0.017632054,0.3552533,0.8914155,0.62165165,-0.12324895,-0.31254104,0.6284805,784.10254,797.8022,793.36993,770.40295,694.65204,0.51446533203125,-0.05328369140625,0.85687255859375,4.164581298828125,-2.04864501953125,0.545806884765625,1.0,1.0,1.0,1.0,1.0,25.0,
2023-09-08 00:03:41.406,0.37909067,0.07745016,-0.019822363,0.32690105,0.3070923,0.031987917,-0.23280288,0.39523908,0.22757635,0.089202635,0.14216073,0.71662927,0.67958444,0.017632054,0.3552533,0.8914155,0.62165165,-0.12324895,-0.31254104,0.6284805,788.5348,807.47253,800.6227,799.011,853.4066,0.48760986328125,-0.0655517578125,0.85223388671875,3.72344970703125,-1.0467529296875,0.13458251953125,1.0,1.0,1.0,1.0,1.0,25.0,
2023-09-08 00:03:41.454,0.4005416,0.07431563,-0.03956071,0.45127675,0.33421165,0.02013827,-0.23724769,0.42608872,0.22755998,0.032484774,0.1353599,0.7625188,0.6923417,-0.0029422913,0.36666045,0.88595283,0.6093628,-0.12406964,-0.32375094,0.62850535,784.10254,797.3993,785.31134,810.293,825.2015,0.48760986328125,-0.0655517578125,0.85223388671875,3.72344970703125,-1.0467529296875,0.13458251953125,1.0,1.0,1.0,1.0,1.0,25.0,
2023-09-08 00:03:41.493,0.4005416,0.07431563,-0.03956071,0.45127675,0.33421165,0.02013827,-0.23724769,0.42608872,0.22755998,0.032484774,0.1353599,0.7625188,0.6923417,-0.0029422913,0.36666045,0.88595283,0.6093628,-0.12406964,-0.32375094,0.62850535,783.69965,796.1905,789.34064,799.011,722.0513,0.503173828125,-0.0589599609375,0.85650634765625,5.51788330078125,-2.3626708984375,-0.82244873046875,1.0,1.0,1.0,1.0,1.0,25.0,
2023-09-08 00:03:41.548,0.4005416,0.07431563,-0.03956071,0.45127675,0.33421165,0.02013827,-0.23724769,0.42608872,0.22755998,0.032484774,0.1353599,0.7625188,0.6923417,-0.0029422913,0.36666045,0.88595283,0.6093628,-0.12406964,-0.32375094,0.62850535,814.3223,811.0989,794.9817,819.5604,783.2967,0.51092529296875,-0.05316162109375,0.857421875,5.323486328125,-1.383209228515625,-0.31402587890625,1.0,1.0,1.0,1.0,1.0,25.0,
2023-09-08 00:03:41.550,0.431956,0.10383863,-0.045688495,0.55383545,0.36540562,0.008416815,-0.243628,0.46223116,0.22698916,0.04563085,0.10996282,0.79881114,0.7034754,-0.012737093,0.3788581,0.8777418,0.60851836,-0.11855339,-0.32069334,0.6336602,786.1172,798.60803,796.99634,800.2198,914.65204,0.51092529296875,-0.05316162109375,0.857421875,5.323486328125,-1.383209228515625,-0.31402587890625,1.0,1.0,1.0,1.0,1.0,25.0,
2023-09-08 00:03:41.600,0.431956,0.10383863,-0.045688495,0.55383545,0.36540562,0.008416815,-0.243628,0.46223116,0.22698916,0.04563085,0.10996282,0.79881114,0.7034754,-0.012737093,0.3788581,0.8777418,0.60851836,-0.11855339,-0.32069334,0.6336602,801.02563,803.44324,789.7436,802.6374,683.7729,0.49981689453125,-0.053955078125,0.8597412109375,4.44122314453125,-1.86920166015625,0.0299072265625,1.0,1.0,1.0,1.0,1.0,25.0,
2023-09-08 00:03:41.647,0.431956,0.10383863,-0.045688495,0.55383545,0.36540562,0.008416815,-0.243628,0.46223116,0.22698916,0.04563085,0.10996282,0.79881114,0.7034754,-0.012737093,0.3788581,0.8777418,0.60851836,-0.11855339,-0.32069334,0.6336602,799.81683,805.8608,800.6227,801.02563,701.0989,0.48870849609375,-0.05023193359375,0.85552978515625,4.673004150390625,-1.936492919921875,-0.471038818359375,1.0,1.0,1.0,1.0,1.0,25.0,
2023-09-08 00:03:41.649,0.46862957,0.14791988,-0.03435957,0.62219167,0.398819,-0.003985644,-0.26142478,0.5016236,0.21849927,0.061261058,0.10019705,0.8132847,0.7122025,-0.01053124,0.38855007,0.86866605,0.61895716,-0.1078008,-0.3088819,0.63779366,800.2198,799.011,803.0403,797.3993,777.25275,0.48870849609375,-0.05023193359375,0.85552978515625,4.673004150390625,-1.936492919921875,-0.471038818359375,1.0,1.0,1.0,1.0,1.0,25.0,
2023-09-08 00:03:41.696,0.46862957,0.14791988,-0.03435957,0.62219167,0.398819,-0.003985644,-0.26142478,0.5016236,0.21849927,0.061261058,0.10019705,0.8132847,0.7122025,-0.01053124,0.38855007,0.86866605,0.61895716,-0.1078008,-0.3088819,0.63779366,789.7436,802.23444,805.8608,793.36993,649.92676,0.49505615234375,-0.051513671875,0.85125732421875,4.179534912109375,-2.27294921875,-2.22808837890625,1.0,1.0,1.0,1.0,1.0,25.0,
2023-09-08 00:03:41.752,0.5024201,0.18682297,-0.014500321,0.66232616,0.43067187,-0.012716922,-0.29037347,0.53451127,0.21754535,0.107925765,0.110033415,0.815338,0.7201619,0.0038622215,0.3936424,0.8636267,0.6347121,-0.095237195,-0.29291517,0.63607985,782.0879,797.8022,788.5348,799.011,717.619,0.49505615234375,-0.051513671875,0.85125732421875,4.179534912109375,-2.27294921875,-2.22808837890625,1.0,1.0,1.0,1.0,1.0,25.0,
2023-09-08 00:03:41.797,0.5024201,0.18682297,-0.014500321,0.66232616,0.43067187,-0.012716922,-0.29037347,0.53451127,0.21754535,0.107925765,0.110033415,0.815338,0.7201619,0.0038622215,0.3936424,0.8636267,0.6347121,-0.095237195,-0.29291517,0.63607985,780.4762,798.60803,798.60803,801.4286,869.92676,0.48907470703125,-0.046142578125,0.85797119140625,4.35150146484375,-2.9010009765625,-1.128997802734375,1.0,1.0,1.0,1.0,1.0,25.0,
2023-09-08 00:03:41.854,0.5024201,0.18682297,-0.014500321,0.66232616,0.43067187,-0.012716922,-0.29037347,0.53451127,0.21754535,0.107925765,0.110033415,0.815338,0.7201619,0.0038622215,0.3936424,0.8636267,0.6347121,-0.095237195,-0.29291517,0.63607985,786.9231,795.78754,798.20514,788.93774,922.3077,0.48931884765625,-0.0584716796875,0.85614013671875,3.3197021484375,-4.05242919921875,-0.83740234375,1.0,1.0,1.0,1.0,1.0,25.0,
2023-09-08 00:03:41.859,0.54731125,0.20873922,0.0064915027,0.68933964,0.43347827,-0.019099625,-0.31638184,0.54677045,0.36828864,0.19407156,0.11767944,0.815338,0.72773015,0.02570531,0.39440465,0.8659272,0.65271795,-0.08511594,-0.27653313,0.6274844,787.72894,799.81683,795.78754,804.65204,753.0769,0.48931884765625,-0.0584716796875,0.85614013671875,3.3197021484375,-4.05242919921875,-0.83740234375,1.0,1.0,1.0,1.0,1.0,25.0,
2023-09-08 00:03:41.909,0.54731125,0.20873922,0.0064915027,0.68933964,0.43347827,-0.019099625,-0.31638184,0.54677045,0.36828864,0.19407156,0.11767944,0.815338,0.72773015,0.02570531,0.39440465,0.8659272,0.65271795,-0.08511594,-0.27653313,0.6274844,788.93774,797.3993,793.7729,807.8755,811.9048,0.5045166015625,-0.0606689453125,0.853271484375,4.5758056640625,-5.061798095703125,-0.85235595703125,1.0,1.0,1.0,1.0,1.0,25.0,
2023-09-08 00:03:41.920,0.54731125,0.20873922,0.0064915027,0.68933964,0.43347827,-0.019099625,-0.31638184,0.54677045,0.36828864,0.19407156,0.11767944,0.815338,0.72773015,0.02570531,0.39440465,0.8659272,0.65271795,-0.08511594,-0.27653313,0.6274844,782.0879,802.23444,792.1612,794.57874,759.12085,0.5101318359375,-0.0595703125,0.85577392578125,4.7552490234375,-3.342132568359375,0.25421142578125,1.0,1.0,1.0,1.0,1.0,25.0,
2023-09-08 00:03:41.928,0.5511269,0.21248287,0.026942858,0.706421,0.40494466,-0.026931927,-0.32201177,0.53317,0.36658978,0.22428212,0.15211432,0.815338,0.7377184,0.045864373,0.3919826,0.87096214,0.6641338,-0.08339423,-0.26215616,0.6154993,787.72894,798.20514,792.5641,788.93774,703.5165,0.5101318359375,-0.0595703125,0.85577392578125,4.7552490234375,-3.342132568359375,0.25421142578125,1.0,1.0,1.0,1.0,1.0,25.0,
2023-09-08 00:03:42.010,0.5511269,0.21248287,0.026942858,0.706421,0.40494466,-0.026931927,-0.32201177,0.53317,0.36658978,0.22428212,0.15211432,0.815338,0.7377184,0.045864373,0.3919826,0.87096214,0.6641338,-0.08339423,-0.26215616,0.6154993,779.67035,786.9231,796.1905,783.69965,735.34796,0.49810791015625,-0.05810546875,0.85174560546875,5.301055908203125,-1.757049560546875,0.097198486328125,1.0,1.0,1.0,1.0,1.0,25.0,
2023-09-08 00:03:42.059,0.5511269,0.21248287,0.026942858,0.706421,0.40494466,-0.026931927,-0.32201177,0.53317,0.36658978,0.22428212,0.15211432,0.815338,0.7377184,0.045864373,0.3919826,0.87096214,0.6641338,-0.08339423,-0.26215616,0.6154993,783.69965,803.44324,801.4286,770.80585,619.707,0.48876953125,-0.05206298828125,0.85455322265625,5.615081787109375,-2.026214599609375,-1.07666015625,1.0,1.0,1.0,1.0,1.0,25.0,
2023-09-08 00:03:42.061,0.5250093,0.20142673,0.042178463,0.71704465,0.3626495,-0.03834908,-0.3049985,0.50023746,0.3768896,0.21481682,0.1752324,0.815338,0.7435233,0.0561123,0.38687956,0.8691867,0.668306,-0.09530102,-0.25138533,0.607144,784.10254,794.9817,798.60803,780.4762,729.304,0.48876953125,-0.05206298828125,0.85455322265625,5.615081787109375,-2.026214599609375,-1.07666015625,1.0,1.0,1.0,1.0,1.0,25.0,
2023-09-08 00:03:42.128,0.5250093,0.20142673,0.042178463,0.71704465,0.3626495,-0.03834908,-0.3049985,0.50023746,0.3768896,0.21481682,0.1752324,0.815338,0.7435233,0.0561123,0.38687956,0.8691867,0.668306,-0.09530102,-0.25138533,0.607144,780.87915,800.2198,797.3993,794.57874,788.93774,0.5,-0.05419921875,0.8558349609375,4.538421630859375,-3.87298583984375,-1.7645263671875,1.0,1.0,1.0,1.0,1.0,25.0,
2023-09-08 00:03:42.186,0.5250093,0.20142673,0.042178463,0.71704465,0.3626495,-0.03834908,-0.3049985,0.50023746,0.3768896,0.21481682,0.1752324,0.815338,0.7435233,0.0561123,0.38687956,0.8691867,0.668306,-0.09530102,-0.25138533,0.607144,802.23444,797.8022,789.34064,803.44324,836.08057,0.505859375,-0.0648193359375,0.8543701171875,4.658050537109375,-4.127197265625,-0.157012939453125,1.0,1.0,1.0,1.0,1.0,25.0,
2023-09-08 00:03:42.189,0.4845043,0.17612667,0.04384051,0.7197463,0.32768157,-0.049984988,-0.2773009,0.46355897,0.37958688,0.2089318,0.18298109,0.81345177,0.74117464,0.055111874,0.378525,0.85517156,0.6641739,-0.120538,-0.24689639,0.60911524,793.36993,791.75824,796.5934,799.81683,684.57874,0.505859375,-0.0648193359375,0.8543701171875,4.658050537109375,-4.127197265625,-0.157012939453125,1.0,1.0,1.0,1.0,1.0,25.0,
2023-09-08 00:03:42.242,0.4845043,0.17612667,0.04384051,0.7197463,0.32768157,-0.049984988,-0.2773009,0.46355897,0.37958688,0.2089318,0.18298109,0.81345177,0.74117464,0.055111874,0.378525,0.85517156,0.6641739,-0.120538,-0.24689639,0.60911524,783.69965,795.38464,797.3993,789.7436,846.55676,0.5093994140625,-0.06744384765625,0.8475341796875,4.91973876953125,-3.5589599609375,-0.396270751953125,1.0,1.0,1.0,1.0,1.0,25.0,
2023-09-08 00:03:42.262,0.45119,0.1552269,0.029823799,0.7176576,0.30735183,-0.054333694,-0.25449204,0.43648803,0.37592757,0.2147131,0.18298109,0.8134487,0.7331608,0.049077824,0.36577097,0.8328438,0.65701056,-0.15168083,-0.24866226,0.62379944,792.96704,784.5055,795.38464,770.0,755.4945,0.5093994140625,-0.06744384765625,0.8475341796875,4.91973876953125,-3.5589599609375,-0.396270751953125,1.0,1.0,1.0,1.0,1.0,25.0,
2023-09-08 00:03:42.315,0.45119,0.1552269,0.029823799,0.7176576,0.30735183,-0.054333694,-0.25449204,0.43648803,0.37592757,0.2147131,0.18298109,0.8134487,0.7331608,0.049077824,0.36577097,0.8328438,0.65701056,-0.15168083,-0.24866226,0.62379944,784.90845,789.34064,794.57874,801.4286,1313.1501,0.507080078125,-0.0576171875,0.86328125,7.843170166015625,-2.041168212890625,0.157012939453125,1.0,1.0,1.0,1.0,1.0,25.0,
2023-09-08 00:03:42.373,0.45119,0.1552269,0.029823799,0.7176576,0.30735183,-0.054333694,-0.25449204,0.43648803,0.37592757,0.2147131,0.18298109,0.8134487,0.7331608,0.049077824,0.36577097,0.8328438,0.65701056,-0.15168083,-0.24866226,0.62379944,797.3993,799.81683,797.8022,801.4286,639.45056,0.49798583984375,-0.05499267578125,0.85748291015625,7.274932861328125,-0.35888671875,-0.76263427734375,1.0,1.0,1.0,1.0,1.0,25.0,
2023-09-08 00:03:42.377,0.42939684,0.15112466,0.006837896,0.7156419,0.28989446,-0.048121884,-0.24222092,0.42242762,0.36780205,0.21367203,0.18298109,0.8134487,0.7262839,0.04625174,0.34922904,0.8125703,0.65576726,-0.17872511,-0.25188297,0.64594126,804.65204,787.72894,782.49084,800.6227,826.4103,0.49798583984375,-0.05499267578125,0.85748291015625,7.274932861328125,-0.35888671875,-0.76263427734375,1.0,1.0,1.0,1.0,1.0,25.0,
2023-09-08 00:03:42.387,0.42939684,0.15112466,0.006837896,0.7156419,0.28989446,-0.048121884,-0.24222092,0.42242762,0.36780205,0.21367203,0.18298109,0.8134487,0.7262839,0.04625174,0.34922904,0.8125703,0.65576726,-0.17872511,-0.25188297,0.64594126,802.6374,789.7436,792.1612,798.20514,825.2015,0.52093505859375,-0.04534912109375,0.850341796875,5.7421875,-1.054229736328125,0.85235595703125,1.0,1.0,1.0,1.0,1.0,25.0,
2023-09-08 00:03:42.447,0.42939684,0.15112466,0.006837896,0.7156419,0.28989446,-0.048121884,-0.24222092,0.42242762,0.36780205,0.21367203,0.18298109,0.8134487,0.7262839,0.04625174,0.34922904,0.8125703,0.65576726,-0.17872511,-0.25188297,0.64594126,804.65204,798.20514,801.02563,788.93774,579.41394,0.483642578125,-0.0433349609375,0.86907958984375,6.83380126953125,1.517791748046875,3.760833740234375,1.0,1.0,1.0,1.0,1.0,25.0,
2023-09-08 00:03:42.452,0.4187476,0.16471702,-0.018168502,0.71322453,0.26405576,-0.031506594,-0.23887546,0.4162593,0.3515439,0.22044125,0.18890178,0.80868274,0.7261429,0.048718467,0.3313669,0.8011374,0.66071004,-0.19714871,-0.2507377,0.66704106,799.81683,794.57874,798.20514,791.3553,955.34796,0.483642578125,-0.0433349609375,0.86907958984375,6.83380126953125,1.517791748046875,3.760833740234375,1.0,1.0,1.0,1.0,1.0,25.0,
2023-09-08 00:03:42.482,0.4187476,0.16471702,-0.018168502,0.71322453,0.26405576,-0.031506594,-0.23887546,0.4162593,0.3515439,0.22044125,0.18890178,0.80868274,0.7261429,0.048718467,0.3313669,0.8011374,0.66071004,-0.19714871,-0.2507377,0.66704106,779.67035,801.02563,791.75824,774.83514,660.40295,0.4515380859375,-0.0499267578125,0.8492431640625,5.450592041015625,0.485992431640625,-1.517791748046875,1.0,1.0,1.0,1.0,1.0,25.0,
2023-09-08 00:03:42.536,0.4179041,0.18300837,-0.034820516,0.7117633,0.23190828,-0.007964446,-0.23782614,0.41380942,0.32461748,0.25508964,0.20471692,0.7995822,0.73064226,0.05403511,0.31434095,0.79608107,0.66233593,-0.21059658,-0.24482585,0.68256634,796.1905,802.23444,790.54944,792.1612,790.54944,0.4515380859375,-0.0499267578125,0.8492431640625,5.450592041015625,0.485992431640625,-1.517791748046875,1.0,1.0,1.0,1.0,1.0,25.0,
2023-09-08 00:03:42.592,0.4179041,0.18300837,-0.034820516,0.7117633,0.23190828,-0.007964446,-0.23782614,0.41380942,0.32461748,0.25508964,0.20471692,0.7995822,0.73064226,0.05403511,0.31434095,0.79608107,0.66233593,-0.21059658,-0.24482585,0.68256634,800.2198,799.81683,791.75824,806.26373,1038.7546,0.47821044921875,-0.04998779296875,0.8572998046875,6.317901611328125,-4.194488525390625,-3.529052734375,1.0,1.0,1.0,1.0,1.0,25.0,
2023-09-08 00:03:42.648,0.4179041,0.18300837,-0.034820516,0.7117633,0.23190828,-0.007964446,-0.23782614,0.41380942,0.32461748,0.25508964,0.20471692,0.7995822,0.73064226,0.05403511,0.31434095,0.79608107,0.66233593,-0.21059658,-0.24482585,0.68256634,788.5348,796.5934,803.44324,799.81683,700.696,0.5152587890625,-0.041259765625,0.8631591796875,4.844970703125,-7.304840087890625,-0.052337646484375,1.0,1.0,1.0,1.0,1.0,25.0,
2023-09-08 00:03:42.705,0.4179041,0.18300837,-0.034820516,0.7117633,0.23190828,-0.007964446,-0.23782614,0.41380942,0.32461748,0.25508964,0.20471692,0.7995822,0.73064226,0.05403511,0.31434095,0.79608107,0.66233593,-0.21059658,-0.24482585,0.68256634,796.99634,792.1612,802.23444,781.28204,719.2308,0.50048828125,-0.04168701171875,0.8656005859375,4.127197265625,-3.895416259765625,4.1571044921875,1.0,1.0,1.0,1.0,1.0,25.0,
2023-09-08 00:03:42.706,0.41927144,0.19906898,-0.043676857,0.70890695,0.19635823,0.015333402,-0.23519942,0.41249618,0.27062768,0.29691455,0.23195915,0.79620767,0.7349205,0.05990783,0.2970024,0.7910654,0.6572189,-0.22529338,-0.24000016,0.6936791,784.10254,796.5934,798.60803,780.87915,639.45056,0.50048828125,-0.04168701171875,0.8656005859375,4.127197265625,-3.895416259765625,4.1571044921875,1.0,1.0,1.0,1.0,1.0,25.0,
2023-09-08 00:03:42.745,0.41927144,0.19906898,-0.043676857,0.70890695,0.19635823,0.015333402,-0.23519942,0.41249618,0.27062768,0.29691455,0.23195915,0.79620767,0.7349205,0.05990783,0.2970024,0.7910654,0.6572189,-0.22529338,-0.24000016,0.6936791,796.99634,805.05493,795.78754,779.67035,682.1612,0.471923828125,-0.0535888671875,0.84796142578125,4.000091552734375,-2.46734619140625,0.366363525390625,1.0,1.0,1.0,1.0,1.0,25.0,
2023-09-08 00:03:42.757,0.4168447,0.20779096,-0.04640678,0.6967595,0.22647761,0.035818893,-0.23045345,0.41134438,0.27825218,0.32732016,0.23691611,0.79528224,0.7362954,0.06677009,0.27502057,0.7830351,0.64890873,-0.24491647,-0.23917902,0.7044501,796.1905,798.60803,788.1319,786.52014,804.2491,0.471923828125,-0.0535888671875,0.84796142578125,4.000091552734375,-2.46734619140625,0.366363525390625,1.0,1.0,1.0,1.0,1.0,25.0,
2023-09-08 00:03:42.815,0.4168447,0.20779096,-0.04640678,0.6967595,0.22647761,0.035818893,-0.23045345,0.41134438,0.27825218,0.32732016,0.23691611,0.79528224,0.7362954,0.06677009,0.27502057,0.7830351,0.64890873,-0.24491647,-0.23917902,0.7044501,790.14655,793.36993,797.3993,796.99634,697.8755,0.4935302734375,-0.0513916015625,0.85040283203125,4.78515625,-4.927215576171875,-3.028106689453125,1.0,1.0,1.0,1.0,1.0,25.0,
2023-09-08 00:03:42.879,0.4168447,0.20779096,-0.04640678,0.6967595,0.22647761,0.035818893,-0.23045345,0.41134438,0.27825218,0.32732016,0.23691611,0.79528224,0.7362954,0.06677009,0.27502057,0.7830351,0.64890873,-0.24491647,-0.23917902,0.7044501,802.23444,803.0403,793.7729,786.52014,665.2381,0.51043701171875,-0.0546875,0.863037109375,4.254302978515625,-5.96649169921875,-1.5850830078125,1.0,1.0,1.0,1.0,1.0,25.0,
2023-09-08 00:03:42.883,0.4109154,0.20201728,-0.044099163,0.6631863,0.23532163,0.056272406,-0.22196493,0.4080048,0.2906627,0.34487945,0.22825067,0.80818784,0.7361277,0.07619766,0.24394514,0.7730149,0.6502172,-0.27044576,-0.23977034,0.717238,783.2967,798.20514,791.75824,795.78754,716.8132,0.51043701171875,-0.0546875,0.863037109375,4.254302978515625,-5.96649169921875,-1.5850830078125,1.0,1.0,1.0,1.0,1.0,25.0,
2023-09-08 00:03:42.927,0.4109154,0.20201728,-0.044099163,0.6631863,0.23532163,0.056272406,-0.22196493,0.4080048,0.2906627,0.34487945,0.22825067,0.80818784,0.7361277,0.07619766,0.24394514,0.7730149,0.6502172,-0.27044576,-0.23977034,0.717238,807.47253,794.57874,789.34064,756.7033,819.15753,0.533447265625,-0.0616455078125,0.85498046875,3.70849609375,-5.15899658203125,-0.34393310546875,1.0,1.0,1.0,1.0,1.0,25.0,
2023-09-08 00:03:42.956,0.4109154,0.20201728,-0.044099163,0.6631863,0.23532163,0.056272406,-0.22196493,0.4080048,0.2906627,0.34487945,0.22825067,0.80818784,0.7361277,0.07619766,0.24394514,0.7730149,0.6502172,-0.27044576,-0.23977034,0.717238,795.78754,789.7436,799.81683,791.3553,977.50916,0.5074462890625,-0.052734375,0.86199951171875,6.302947998046875,-1.51031494140625,0.261688232421875,1.0,1.0,1.0,1.0,1.0,25.0,
2023-09-08 00:03:42.961,0.39575192,0.17814502,-0.042987198,0.6005112,0.23060061,0.07712088,-0.20328888,0.39693123,0.29865682,0.34558994,0.22283755,0.79505086,0.7340696,0.087266274,0.20504095,0.7644508,0.65632373,-0.29756194,-0.23878773,0.7308496,791.3553,790.54944,788.93774,789.7436,744.21246,0.5074462890625,-0.052734375,0.86199951171875,6.302947998046875,-1.51031494140625,0.261688232421875,1.0,1.0,1.0,1.0,1.0,25.0,
2023-09-08 00:03:43.011,0.39575192,0.17814502,-0.042987198,0.6005112,0.23060061,0.07712088,-0.20328888,0.39693123,0.29865682,0.34558994,0.22283755,0.79505086,0.7340696,0.087266274,0.20504095,0.7644508,0.65632373,-0.29756194,-0.23878773,0.7308496,801.4286,791.75824,797.3993,779.67035,737.76556,0.48956298828125,-0.05596923828125,0.8431396484375,5.615081787109375,-0.79254150390625,-3.22998046875,1.0,1.0,1.0,1.0,1.0,25.0,
2023-09-08 00:03:43.068,0.37502882,0.13857436,-0.04511638,0.5183108,0.22526298,0.093908094,-0.17329812,0.36715582,0.31577626,0.37417623,0.22231539,0.77669704,0.7281193,0.09623708,0.16642107,0.759901,0.6597928,-0.31698564,-0.23857278,0.7430072,783.2967,797.8022,786.52014,788.5348,636.2271,0.48956298828125,-0.05596923828125,0.8431396484375,5.615081787109375,-0.79254150390625,-3.22998046875,1.0,1.0,1.0,1.0,1.0,25.0,
2023-09-08 00:03:43.101,0.37502882,0.13857436,-0.04511638,0.5183108,0.22526298,0.093908094,-0.17329812,0.36715582,0.31577626,0.37417623,0.22231539,0.77669704,0.7281193,0.09623708,0.16642107,0.759901,0.6597928,-0.31698564,-0.23857278,0.7430072,778.46155,796.1905,796.5934,803.0403,687.8022,0.50335693359375,-0.04156494140625,0.8521728515625,7.16278076171875,-1.502838134765625,-0.5084228515625,1.0,1.0,1.0,1.0,1.0,25.0,
2023-09-08 00:03:43.132,0.37502882,0.13857436,-0.04511638,0.5183108,0.22526298,0.093908094,-0.17329812,0.36715582,0.31577626,0.37417623,0.22231539,0.77669704,0.7281193,0.09623708,0.16642107,0.759901,0.6597928,-0.31698564,-0.23857278,0.7430072,788.93774,793.36993,787.72894,789.7436,696.26373,0.49578857421875,-0.03448486328125,0.86907958984375,5.3533935546875,-0.91217041015625,-0.79254150390625,1.0,1.0,1.0,1.0,1.0,25.0,
2023-09-08 00:03:43.139,0.35583535,0.093961746,-0.057559837,0.43495926,0.22426482,0.098646194,-0.14048718,0.31495452,0.3264833,0.40002564,0.21299261,0.76037806,0.7189666,0.09923749,0.137993,0.75940543,0.6595143,-0.32231304,-0.24550372,0.752114,783.2967,793.7729,790.9524,803.8461,627.76556,0.49578857421875,-0.03448486328125,0.86907958984375,5.3533935546875,-0.91217041015625,-0.79254150390625,1.0,1.0,1.0,1.0,1.0,25.0,
2023-09-08 00:03:43.188,0.35583535,0.093961746,-0.057559837,0.43495926,0.22426482,0.098646194,-0.14048718,0.31495452,0.3264833,0.40002564,0.21299261,0.76037806,0.7189666,0.09923749,0.137993,0.75940543,0.6595143,-0.32231304,-0.24550372,0.752114,801.4286,797.8022,791.3553,805.4579,643.0769,0.50347900390625,-0.045654296875,0.8525390625,4.68048095703125,0.9869384765625,-2.811279296875,1.0,1.0,1.0,1.0,1.0,25.0,
2023-09-08 00:03:43.222,0.35583535,0.093961746,-0.057559837,0.43495926,0.22426482,0.098646194,-0.14048718,0.31495452,0.3264833,0.40002564,0.21299261,0.76037806,0.7189666,0.09923749,0.137993,0.75940543,0.6595143,-0.32231304,-0.24550372,0.752114,804.2491,793.7729,793.36993,812.71063,811.9048,0.4765625,-0.04962158203125,0.85723876953125,3.805694580078125,0.01495361328125,-1.757049560546875,1.0,1.0,1.0,1.0,1.0,25.0,
2023-09-08 00:03:43.283,0.34422746,0.062279068,-0.08467822,0.3682735,0.22432329,0.08846392,-0.118901476,0.25147527,0.32802445,0.40359402,0.17984979,0.7328495,0.710946,0.095471874,0.12159151,0.7594085,0.6580829,-0.315836,-0.26219207,0.7580692,794.57874,792.5641,784.90845,797.8022,728.9011,0.4765625,-0.04962158203125,0.85723876953125,3.805694580078125,0.01495361328125,-1.757049560546875,1.0,1.0,1.0,1.0,1.0,25.0,
2023-09-08 00:03:43.342,0.34422746,0.062279068,-0.08467822,0.3682735,0.22432329,0.08846392,-0.118901476,0.25147527,0.32802445,0.40359402,0.17984979,0.7328495,0.710946,0.095471874,0.12159151,0.7594085,0.6580829,-0.315836,-0.26219207,0.7580692,788.5348,735.34796,794.57874,821.1722,976.30035,0.48681640625,-0.06060791015625,0.8516845703125,3.102874755859375,-3.132781982421875,-1.652374267578125,1.0,1.0,1.0,1.0,1.0,25.0,
2023-09-08 00:03:43.405,0.34422746,0.062279068,-0.08467822,0.3682735,0.22432329,0.08846392,-0.118901476,0.25147527,0.32802445,0.40359402,0.17984979,0.7328495,0.710946,0.095471874,0.12159151,0.7594085,0.6580829,-0.315836,-0.26219207,0.7580692,786.1172,761.53845,790.14655,778.0586,728.0952,0.49627685546875,-0.06146240234375,0.85125732421875,4.239349365234375,-4.3963623046875,-1.084136962890625,1.0,1.0,1.0,1.0,1.0,25.0,
2023-09-08 00:03:43.407,0.29917952,0.12383236,-0.12361148,0.3147979,0.22076553,0.0808502,-0.11758182,0.20208432,0.28763136,0.4132291,0.12552689,0.7010223,0.70538145,0.08889849,0.11011332,0.7546332,0.6543602,-0.30405074,-0.28322828,0.7615729,791.75824,761.13556,795.38464,782.49084,742.1978,0.49627685546875,-0.06146240234375,0.85125732421875,4.239349365234375,-4.3963623046875,-1.084136962890625,1.0,1.0,1.0,1.0,1.0,25.0,
2023-09-08 00:03:43.419,0.29917952,0.12383236,-0.12361148,0.3147979,0.22076553,0.0808502,-0.11758182,0.20208432,0.28763136,0.4132291,0.12552689,0.7010223,0.70538145,0.08889849,0.11011332,0.7546332,0.6543602,-0.30405074,-0.28322828,0.7615729,782.0879,776.04395,797.8022,806.6667,1101.2087,0.49676513671875,-0.05999755859375,0.85546875,5.51788330078125,-3.90289306640625,-0.25421142578125,1.0,1.0,1.0,1.0,1.0,25.0,
2023-09-08 00:03:43.466,0.29917952,0.12383236,-0.12361148,0.3147979,0.22076553,0.0808502,-0.11758182,0.20208432,0.28763136,0.4132291,0.12552689,0.7010223,0.70538145,0.08889849,0.11011332,0.7546332,0.6543602,-0.30405074,-0.28322828,0.7615729,774.0293,780.07324,796.1905,802.23444,699.4872,0.5003662109375,-0.0501708984375,0.863525390625,5.809478759765625,-3.566436767578125,-0.246734619140625,1.0,1.0,1.0,1.0,1.0,25.0,
2023-09-08 00:03:43.470,0.27316722,0.28310356,-0.17218286,0.27550948,0.22520345,0.12616743,-0.13810821,0.17922091,0.21089025,0.44917935,0.11380304,0.650674,0.6975101,0.09871644,0.09796693,0.7420234,0.646801,-0.28752297,-0.29825974,0.7627637,774.0293,778.46155,786.52014,782.0879,795.78754,0.5003662109375,-0.0501708984375,0.863525390625,5.809478759765625,-3.566436767578125,-0.246734619140625,1.0,1.0,1.0,1.0,1.0,25.0,
2023-09-08 00:03:43.521,0.27316722,0.28310356,-0.17218286,0.27550948,0.22520345,0.12616743,-0.13810821,0.17922091,0.21089025,0.44917935,0.11380304,0.650674,0.6975101,0.09871644,0.09796693,0.7420234,0.646801,-0.28752297,-0.29825974,0.7627637,789.7436,787.72894,796.5934,793.7729,705.9341,0.49041748046875,-0.03570556640625,0.8641357421875,5.659942626953125,-2.818756103515625,0.037384033203125,1.0,1.0,1.0,1.0,1.0,25.0,
2023-09-08 00:03:43.576,0.2667013,0.2979928,-0.22571273,0.2625456,0.2268246,0.14000966,-0.17495185,0.1800878,0.179051,0.44321808,0.10243806,0.596141,0.68774945,0.087031454,0.08626456,0.7242873,0.6347276,-0.28798977,-0.30012375,0.7608679,788.5348,788.5348,791.3553,759.92676,741.39197,0.49041748046875,-0.03570556640625,0.8641357421875,5.659942626953125,-2.818756103515625,0.037384033203125,1.0,1.0,1.0,1.0,1.0,25.0,
2023-09-08 00:03:43.611,0.2667013,0.2979928,-0.22571273,0.2625456,0.2268246,0.14000966,-0.17495185,0.1800878,0.179051,0.44321808,0.10243806,0.596141,0.68774945,0.087031454,0.08626456,0.7242873,0.6347276,-0.28798977,-0.30012375,0.7608679,792.5641,786.52014,797.8022,790.9524,764.35895,0.49127197265625,-0.04205322265625,0.85333251953125,4.224395751953125,-3.90289306640625,-0.530853271484375,1.0,1.0,1.0,1.0,1.0,25.0,
2023-09-08 00:03:43.665,0.2667013,0.2979928,-0.22571273,0.2625456,0.2268246,0.14000966,-0.17495185,0.1800878,0.179051,0.44321808,0.10243806,0.596141,0.68774945,0.087031454,0.08626456,0.7242873,0.6347276,-0.28798977,-0.30012375,0.7608679,799.41394,795.78754,799.011,794.57874,770.40295,0.49444580078125,-0.037353515625,0.8541259765625,5.420684814453125,-4.732818603515625,-0.43365478515625,1.0,1.0,1.0,1.0,1.0,25.0,
2023-09-08 00:03:43.673,0.28597954,0.31410637,-0.2792779,0.292916,0.2221289,0.16022111,-0.217872,0.19793223,0.18291967,0.43810222,0.09608849,0.5520587,0.6794852,0.08318552,0.08324562,0.70833385,0.621533,-0.284635,-0.2883339,0.7561857,771.2088,794.9817,786.52014,788.1319,996.4469,0.49444580078125,-0.037353515625,0.8541259765625,5.420684814453125,-4.732818603515625,-0.43365478515625,1.0,1.0,1.0,1.0,1.0,25.0,
2023-09-08 00:03:43.726,0.28597954,0.31410637,-0.2792779,0.292916,0.2221289,0.16022111,-0.217872,0.19793223,0.18291967,0.43810222,0.09608849,0.5520587,0.6794852,0.08318552,0.08324562,0.70833385,0.621533,-0.284635,-0.2883339,0.7561857,803.0403,788.1319,788.93774,797.3993,1048.8279,0.49127197265625,-0.03448486328125,0.85894775390625,5.764617919921875,-4.942169189453125,-0.112152099609375,1.0,1.0,1.0,1.0,1.0,25.0,
2023-09-08 00:03:43.767,0.28597954,0.31410637,-0.2792779,0.292916,0.2221289,0.16022111,-0.217872,0.19793223,0.18291967,0.43810222,0.09608849,0.5520587,0.6794852,0.08318552,0.08324562,0.70833385,0.621533,-0.284635,-0.2883339,0.7561857,806.6667,797.8022,790.14655,781.28204,776.4469,0.52978515625,-0.033203125,0.85546875,5.689849853515625,-6.258087158203125,-1.03179931640625,1.0,1.0,1.0,1.0,1.0,25.0,
2023-09-08 00:03:43.776,0.31655428,0.32529384,-0.32473135,0.34380114,0.21282862,0.17799875,-0.25128007,0.2277747,0.2054556,0.43681914,0.1353135,0.54211503,0.6757174,0.08887981,0.09552861,0.69965357,0.6087288,-0.2816897,-0.2701918,0.7528229,781.685,796.99634,795.78754,811.9048,877.1795,0.52978515625,-0.033203125,0.85546875,5.689849853515625,-6.258087158203125,-1.03179931640625,1.0,1.0,1.0,1.0,1.0,25.0,
2023-09-08 00:03:43.835,0.31655428,0.32529384,-0.32473135,0.34380114,0.21282862,0.17799875,-0.25128007,0.2277747,0.2054556,0.43681914,0.1353135,0.54211503,0.6757174,0.08887981,0.09552861,0.69965357,0.6087288,-0.2816897,-0.2701918,0.7528229,790.9524,797.8022,798.20514,778.46155,615.6777,0.52191162109375,-0.0274658203125,0.859130859375,6.317901611328125,-3.626251220703125,1.562652587890625,1.0,1.0,1.0,1.0,1.0,25.0,
2023-09-08 00:03:43.894,0.31655428,0.32529384,-0.32473135,0.34380114,0.21282862,0.17799875,-0.25128007,0.2277747,0.2054556,0.43681914,0.1353135,0.54211503,0.6757174,0.08887981,0.09552861,0.69965357,0.6087288,-0.2816897,-0.2701918,0.7528229,781.28204,795.38464,797.3993,796.5934,693.44324,0.4962158203125,-0.02874755859375,0.8414306640625,4.94964599609375,-2.093505859375,-0.0,1.0,1.0,1.0,1.0,1.0,25.0,
2023-09-08 00:03:43.895,0.35499415,0.3314857,-0.3588693,0.39170712,0.19974148,0.1861577,-0.26629332,0.2596566,0.21136387,0.43396306,0.14305022,0.54211503,0.6735213,0.101521,0.119785674,0.6970775,0.59498954,-0.28192142,-0.2539084,0.7565476,774.0293,790.9524,793.36993,786.52014,776.8498,0.4962158203125,-0.02874755859375,0.8414306640625,4.94964599609375,-2.093505859375,-0.0,1.0,1.0,1.0,1.0,1.0,25.0,
2023-09-08 00:03:43.940,0.35499415,0.3314857,-0.3588693,0.39170712,0.19974148,0.1861577,-0.26629332,0.2596566,0.21136387,0.43396306,0.14305022,0.54211503,0.6735213,0.101521,0.119785674,0.6970775,0.59498954,-0.28192142,-0.2539084,0.7565476,787.326,796.5934,787.72894,786.52014,613.2601,0.48974609375,-0.031494140625,0.84063720703125,3.835601806640625,-3.536529541015625,-2.51220703125,1.0,1.0,1.0,1.0,1.0,25.0,
2023-09-08 00:03:43.974,0.35499415,0.3314857,-0.3588693,0.39170712,0.19974148,0.1861577,-0.26629332,0.2596566,0.21136387,0.43396306,0.14305022,0.54211503,0.6735213,0.101521,0.119785674,0.6970775,0.59498954,-0.28192142,-0.2539084,0.7565476,809.4872,796.5934,794.57874,796.1905,726.4835,0.51507568359375,-0.0391845703125,0.86737060546875,2.5421142578125,-7.237548828125,-2.6019287109375,1.0,1.0,1.0,1.0,1.0,25.0,
2023-09-08 00:03:43.976,0.38538367,0.33895946,-0.38187537,0.4212379,0.17883189,0.18280405,-0.26512268,0.28054228,0.22257401,0.43396306,0.13464198,0.54211503,0.6666914,0.119227804,0.14465398,0.6960182,0.5822652,-0.28345063,-0.24369271,0.7685355,791.3553,795.78754,787.326,799.011,647.1062,0.51507568359375,-0.0391845703125,0.86737060546875,2.5421142578125,-7.237548828125,-2.6019287109375,1.0,1.0,1.0,1.0,1.0,25.0,
2023-09-08 00:03:44.033,0.38538367,0.33895946,-0.38187537,0.4212379,0.17883189,0.18280405,-0.26512268,0.28054228,0.22257401,0.43396306,0.13464198,0.54211503,0.6666914,0.119227804,0.14465398,0.6960182,0.5822652,-0.28345063,-0.24369271,0.7685355,792.96704,792.96704,792.96704,792.1612,836.8865,0.54400634765625,-0.04766845703125,0.85577392578125,1.6448974609375,-4.284210205078125,-0.9271240234375,1.0,1.0,1.0,1.0,1.0,25.0,
2023-09-08 00:03:44.105,0.40428504,0.35321122,-0.39726755,0.4361462,0.14550512,0.17184196,-0.2542035,0.28369784,0.22649792,0.43396306,0.12085972,0.54211503,0.6545614,0.14029662,0.16048822,0.69445366,0.5771312,-0.28066123,-0.23862097,0.78339154,788.5348,799.81683,784.5055,810.696,790.14655,0.54400634765625,-0.04766845703125,0.85577392578125,1.6448974609375,-4.284210205078125,-0.9271240234375,1.0,1.0,1.0,1.0,1.0,25.0,
2023-09-08 00:03:44.153,0.40428504,0.35321122,-0.39726755,0.4361462,0.14550512,0.17184196,-0.2542035,0.28369784,0.22649792,0.43396306,0.12085972,0.54211503,0.6545614,0.14029662,0.16048822,0.69445366,0.5771312,-0.28066123,-0.23862097,0.78339154,791.75824,801.8315,789.34064,799.011,727.28937,0.5186767578125,-0.06024169921875,0.84521484375,2.968292236328125,-0.76263427734375,-0.897216796875,1.0,1.0,1.0,1.0,1.0,25.0,
2023-09-08 00:03:44.164,0.40428504,0.35321122,-0.39726755,0.4361462,0.14550512,0.17184196,-0.2542035,0.28369784,0.22649792,0.43396306,0.12085972,0.54211503,0.6545614,0.14029662,0.16048822,0.69445366,0.5771312,-0.28066123,-0.23862097,0.78339154,812.3077,792.96704,796.99634,801.4286,786.1172,0.4993896484375,-0.04901123046875,0.84649658203125,4.972076416015625,0.43365478515625,-2.310333251953125,1.0,1.0,1.0,1.0,1.0,25.0,
2023-09-08 00:03:44.171,0.41092095,0.3779084,-0.40542248,0.4446409,0.10219183,0.160928,-0.23432088,0.27018377,0.22649792,0.43317986,0.09644057,0.54211503,0.6424187,0.16327491,0.1655734,0.69413805,0.58109915,-0.26891822,-0.2367379,0.7933028,768.7912,791.75824,788.1319,807.0696,1015.38464,0.4993896484375,-0.04901123046875,0.84649658203125,4.972076416015625,0.43365478515625,-2.310333251953125,1.0,1.0,1.0,1.0,1.0,25.0,
2023-09-08 00:03:44.211,0.41092095,0.3779084,-0.40542248,0.4446409,0.10219183,0.160928,-0.23432088,0.27018377,0.22649792,0.43317986,0.09644057,0.54211503,0.6424187,0.16327491,0.1655734,0.69413805,0.58109915,-0.26891822,-0.2367379,0.7933028,786.1172,794.17584,799.011,798.60803,653.5531,0.49627685546875,-0.04730224609375,0.85125732421875,4.448699951171875,0.142059326171875,-3.5888671875,1.0,1.0,1.0,1.0,1.0,25.0,
2023-09-08 00:03:44.245,0.41092095,0.3779084,-0.40542248,0.4446409,0.10219183,0.160928,-0.23432088,0.27018377,0.22649792,0.43317986,0.09644057,0.54211503,0.6424187,0.16327491,0.1655734,0.69413805,0.58109915,-0.26891822,-0.2367379,0.7933028,795.38464,797.3993,788.93774,817.9487,720.84247,0.488525390625,-0.04449462890625,0.85015869140625,4.792633056640625,-0.64300537109375,-1.831817626953125,1.0,1.0,1.0,1.0,1.0,25.0,
2023-09-08 00:03:44.251,0.41223407,0.41391602,-0.40351874,0.4559969,0.061004248,0.15332085,-0.20653781,0.2515244,0.22649792,0.43317163,0.068834394,0.54211503,0.6339563,0.18576534,0.16409172,0.6951594,0.5863279,-0.24662203,-0.2392599,0.7944255,797.3993,797.8022,799.81683,811.50183,676.52014,0.488525390625,-0.04449462890625,0.85015869140625,4.792633056640625,-0.64300537109375,-1.831817626953125,1.0,1.0,1.0,1.0,1.0,25.0,
2023-09-08 00:03:44.309,0.41223407,0.41391602,-0.40351874,0.4559969,0.061004248,0.15332085,-0.20653781,0.2515244,0.22649792,0.43317163,0.068834394,0.54211503,0.6339563,0.18576534,0.16409172,0.6951594,0.5863279,-0.24662203,-0.2392599,0.7944255,811.50183,797.3993,793.36993,789.34064,668.0586,0.489501953125,-0.04296875,0.85992431640625,3.9178466796875,-3.2598876953125,-0.2093505859375,1.0,1.0,1.0,1.0,1.0,25.0,
2023-09-08 00:03:44.374,0.41755673,0.46340105,-0.39125946,0.47405005,0.03376665,0.1467414,-0.18178713,0.2412639,0.22649792,0.4275367,0.027277926,0.5547301,0.6288748,0.20447132,0.1600633,0.69355106,0.5853818,-0.21146646,-0.24806903,0.78868335,801.8315,795.38464,783.2967,796.1905,662.8205,0.489501953125,-0.04296875,0.85992431640625,3.9178466796875,-3.2598876953125,-0.2093505859375,1.0,1.0,1.0,1.0,1.0,25.0,
2023-09-08 00:03:44.412,0.41755673,0.46340105,-0.39125946,0.47405005,0.03376665,0.1467414,-0.18178713,0.2412639,0.22649792,0.4275367,0.027277926,0.5547301,0.6288748,0.20447132,0.1600633,0.69355106,0.5853818,-0.21146646,-0.24806903,0.78868335,776.04395,793.7729,784.90845,790.14655,808.68134,0.51080322265625,-0.0687255859375,0.85614013671875,1.7645263671875,-5.33843994140625,0.770111083984375,1.0,1.0,1.0,1.0,1.0,25.0,
2023-09-08 00:03:44.462,0.41755673,0.46340105,-0.39125946,0.47405005,0.03376665,0.1467414,-0.18178713,0.2412639,0.22649792,0.4275367,0.027277926,0.5547301,0.6288748,0.20447132,0.1600633,0.69355106,0.5853818,-0.21146646,-0.24806903,0.78868335,788.1319,790.9524,788.1319,799.81683,956.9597,0.51800537109375,-0.0765380859375,0.83856201171875,4.29168701171875,-2.99072265625,0.97198486328125,1.0,1.0,1.0,1.0,1.0,25.0,
2023-09-08 00:03:44.526,0.41755673,0.46340105,-0.39125946,0.47405005,0.03376665,0.1467414,-0.18178713,0.2412639,0.22649792,0.4275367,0.027277926,0.5547301,0.6288748,0.20447132,0.1600633,0.69355106,0.5853818,-0.21146646,-0.24806903,0.78868335,804.65204,794.9817,789.34064,788.1319,1100.403,0.5018310546875,-0.04351806640625,0.85400390625,9.5404052734375,-0.11962890625,-2.160797119140625,1.0,1.0,1.0,1.0,1.0,25.0,
2023-09-08 00:03:44.527,0.42988762,0.45973876,-0.379073,0.49762458,0.023638584,0.09069248,-0.1734222,0.24803005,0.23139073,0.39173305,-0.018844731,0.549603,0.6284401,0.18290544,0.15343173,0.6860055,0.5792449,-0.15907456,-0.26226178,0.77996176,791.3553,798.60803,790.14655,796.99634,966.2271,0.5018310546875,-0.04351806640625,0.85400390625,9.5404052734375,-0.11962890625,-2.160797119140625,1.0,1.0,1.0,1.0,1.0,25.0,
2023-09-08 00:03:44.562,0.42988762,0.45973876,-0.379073,0.49762458,0.023638584,0.09069248,-0.1734222,0.24803005,0.23139073,0.39173305,-0.018844731,0.549603,0.6284401,0.18290544,0.15343173,0.6860055,0.5792449,-0.15907456,-0.26226178,0.77996176,797.3993,795.78754,789.7436,784.10254,1066.1538,0.49493408203125,-0.02862548828125,0.85784912109375,7.319793701171875,1.614990234375,-5.046844482421875,1.0,1.0,1.0,1.0,1.0,25.0,
2023-09-08 00:03:44.582,0.4431854,0.44823188,-0.37472534,0.50883627,0.02076337,0.044601325,-0.18671484,0.24823749,0.23430642,0.3487597,-0.04898008,0.5248454,0.63585967,0.15716453,0.14274105,0.6739647,0.572497,-0.12989485,-0.2757606,0.77470833,787.326,804.65204,797.3993,633.00366,796.5934,0.49493408203125,-0.02862548828125,0.85784912109375,7.319793701171875,1.614990234375,-5.046844482421875,1.0,1.0,1.0,1.0,1.0,25.0,
2023-09-08 00:03:44.626,0.4431854,0.44823188,-0.37472534,0.50883627,0.02076337,0.044601325,-0.18671484,0.24823749,0.23430642,0.3487597,-0.04898008,0.5248454,0.63585967,0.15716453,0.14274105,0.6739647,0.572497,-0.12989485,-0.2757606,0.77470833,809.4872,798.20514,792.5641,518.5714,670.07324,0.5032958984375,-0.02349853515625,0.86309814453125,4.747772216796875,0.411224365234375,-2.930908203125,1.0,1.0,1.0,1.0,1.0,25.0,
2023-09-08 00:03:44.670,0.4431854,0.44823188,-0.37472534,0.50883627,0.02076337,0.044601325,-0.18671484,0.24823749,0.23430642,0.3487597,-0.04898008,0.5248454,0.63585967,0.15716453,0.14274105,0.6739647,0.572497,-0.12989485,-0.2757606,0.77470833,782.49084,794.57874,798.60803,535.89746,691.8315,0.4677734375,-0.04296875,0.8592529296875,2.6019287109375,0.112152099609375,-1.2261962890625,1.0,1.0,1.0,1.0,1.0,25.0,
2023-09-08 00:03:44.674,0.45235112,0.4366364,-0.3834268,0.523347,0.01382901,0.01852881,-0.21546425,0.25951898,0.226463,0.3296713,-0.05328927,0.5010531,0.64890605,0.13314489,0.12881565,0.66025054,0.56484985,-0.12275774,-0.28091633,0.76782286,782.49084,799.011,788.5348,539.12085,851.79486,0.4677734375,-0.04296875,0.8592529296875,2.6019287109375,0.112152099609375,-1.2261962890625,1.0,1.0,1.0,1.0,1.0,25.0,
2023-09-08 00:03:44.708,0.45235112,0.4366364,-0.3834268,0.523347,0.01382901,0.01852881,-0.21546425,0.25951898,0.226463,0.3296713,-0.05328927,0.5010531,0.64890605,0.13314489,0.12881565,0.66025054,0.56484985,-0.12275774,-0.28091633,0.76782286,800.6227,794.17584,790.14655,527.4359,683.36993,0.46893310546875,-0.056396484375,0.8436279296875,2.40753173828125,-3.24493408203125,-4.224395751953125,1.0,1.0,1.0,1.0,1.0,25.0,
2023-09-08 00:03:44.782,0.45235112,0.4366364,-0.3834268,0.523347,0.01382901,0.01852881,-0.21546425,0.25951898,0.226463,0.3296713,-0.05328927,0.5010531,0.64890605,0.13314489,0.12881565,0.66025054,0.56484985,-0.12275774,-0.28091633,0.76782286,757.1062,795.78754,800.2198,511.3187,741.79486,0.49560546875,-0.04864501953125,0.84869384765625,5.30853271484375,-5.4132080078125,-4.127197265625,1.0,1.0,1.0,1.0,1.0,25.0,
2023-09-08 00:03:44.788,0.45605668,0.43090168,-0.38932195,0.539685,-0.0013504996,0.007273637,-0.24563022,0.27481103,0.19104518,0.31474203,-0.058490466,0.46787167,0.6593141,0.111062594,0.11556186,0.64521295,0.5545402,-0.13155368,-0.27452216,0.76466185,776.8498,784.10254,795.78754,519.7802,720.84247,0.49560546875,-0.04864501953125,0.84869384765625,5.30853271484375,-5.4132080078125,-4.127197265625,1.0,1.0,1.0,1.0,1.0,25.0,
2023-09-08 00:03:44.817,0.45605668,0.43090168,-0.38932195,0.539685,-0.0013504996,0.007273637,-0.24563022,0.27481103,0.19104518,0.31474203,-0.058490466,0.46787167,0.6593141,0.111062594,0.11556186,0.64521295,0.5545402,-0.13155368,-0.27452216,0.76466185,804.65204,793.7729,794.57874,676.52014,975.09155,0.5113525390625,-0.03350830078125,0.87396240234375,6.048736572265625,-4.942169189453125,-0.007476806640625,1.0,1.0,1.0,1.0,1.0,25.0,
2023-09-08 00:03:44.881,0.45470166,0.35260525,-0.3774721,0.5548364,-0.022474768,-0.030545961,-0.2653782,0.28715497,0.17670941,0.30496234,-0.053714544,0.42751518,0.6634648,0.08003894,0.1067559,0.62694865,0.5462625,-0.1509973,-0.2601667,0.770064,766.77655,793.7729,782.49084,831.2454,814.7253,0.5113525390625,-0.03350830078125,0.87396240234375,6.048736572265625,-4.942169189453125,-0.007476806640625,1.0,1.0,1.0,1.0,1.0,25.0,
2023-09-08 00:03:44.908,0.45470166,0.35260525,-0.3774721,0.5548364,-0.022474768,-0.030545961,-0.2653782,0.28715497,0.17670941,0.30496234,-0.053714544,0.42751518,0.6634648,0.08003894,0.1067559,0.62694865,0.5462625,-0.1509973,-0.2601667,0.770064,770.80585,792.96704,789.34064,848.97437,821.5751,0.48431396484375,-0.035888671875,0.869140625,4.388885498046875,-3.03558349609375,1.114044189453125,1.0,1.0,1.0,1.0,1.0,25.0,
2023-09-08 00:03:44.975,0.45470166,0.35260525,-0.3774721,0.5548364,-0.022474768,-0.030545961,-0.2653782,0.28715497,0.17670941,0.30496234,-0.053714544,0.42751518,0.6634648,0.08003894,0.1067559,0.62694865,0.5462625,-0.1509973,-0.2601667,0.770064,800.2198,798.60803,790.54944,908.20514,699.4872,0.4998779296875,-0.041748046875,0.8580322265625,4.77020263671875,-3.715972900390625,-2.6019287109375,1.0,1.0,1.0,1.0,1.0,25.0,
2023-09-08 00:03:44.984,0.4496151,-0.02765316,-0.34574002,0.56983584,-0.039795168,-0.3090068,-0.27272,0.29826143,0.20684439,-0.17802617,-0.042017743,0.40538526,0.6683795,-0.011935407,0.10365775,0.6075739,0.54787505,-0.18387124,-0.24512295,0.7838804,779.2674,790.9524,793.36993,911.4286,879.19415,0.4998779296875,-0.041748046875,0.8580322265625,4.77020263671875,-3.715972900390625,-2.6019287109375,1.0,1.0,1.0,1.0,1.0,25.0,
2023-09-08 00:03:45.010,0.4496151,-0.02765316,-0.34574002,0.56983584,-0.039795168,-0.3090068,-0.27272,0.29826143,0.20684439,-0.17802617,-0.042017743,0.40538526,0.6683795,-0.011935407,0.10365775,0.6075739,0.54787505,-0.18387124,-0.24512295,0.7838804,783.69965,798.60803,793.7729,906.1905,713.9927,0.53485107421875,-0.0355224609375,0.8455810546875,5.1739501953125,-4.044952392578125,-0.07476806640625,1.0,1.0,1.0,1.0,1.0,25.0,
2023-09-08 00:03:45.117,0.4496151,-0.02765316,-0.34574002,0.56983584,-0.039795168,-0.3090068,-0.27272,0.29826143,0.20684439,-0.17802617,-0.042017743,0.40538526,0.6683795,-0.011935407,0.10365775,0.6075739,0.54787505,-0.18387124,-0.24512295,0.7838804,805.4579,796.5934,791.3553,821.5751,661.6117,0.49847412109375,-0.03436279296875,0.84735107421875,5.839385986328125,-1.1663818359375,2.76641845703125,1.0,1.0,1.0,1.0,1.0,25.0,
2023-09-08 00:03:45.128,0.4426214,0.025327941,-0.31312937,0.576189,-0.0398561,-0.3168218,-0.2734339,0.31001028,0.3178107,-0.1717354,-0.041295383,0.40538526,0.6811238,-0.019778827,0.10558546,0.59532714,0.5619587,-0.19751267,-0.23635802,0.8008983,799.41394,784.5055,792.96704,426.30035,894.5055,0.49847412109375,-0.03436279296875,0.84735107421875,5.839385986328125,-1.1663818359375,2.76641845703125,1.0,1.0,1.0,1.0,1.0,25.0,
2023-09-08 00:03:45.180,0.4426214,0.025327941,-0.31312937,0.576189,-0.0398561,-0.3168218,-0.2734339,0.31001028,0.3178107,-0.1717354,-0.041295383,0.40538526,0.6811238,-0.019778827,0.10558546,0.59532714,0.5619587,-0.19751267,-0.23635802,0.8008983,792.5641,792.96704,792.96704,547.1795,796.5934,0.48077392578125,-0.026123046875,0.8575439453125,5.921630859375,-1.622467041015625,0.85235595703125,1.0,1.0,1.0,1.0,1.0,25.0,
2023-09-08 00:03:45.191,0.4426214,0.025327941,-0.31312937,0.576189,-0.0398561,-0.3168218,-0.2734339,0.31001028,0.3178107,-0.1717354,-0.041295383,0.40538526,0.6811238,-0.019778827,0.10558546,0.59532714,0.5619587,-0.19751267,-0.23635802,0.8008983,781.28204,792.5641,792.1612,772.4176,904.9817,0.50128173828125,-0.03131103515625,0.8504638671875,4.38140869140625,-2.953338623046875,-1.218719482421875,1.0,1.0,1.0,1.0,1.0,25.0,
2023-09-08 00:03:45.194,0.43235657,0.039397094,-0.2891037,0.5655405,-0.017483681,-0.33002317,-0.27462703,0.31759733,0.44475055,-0.12833813,-0.057711728,0.39779112,0.69837874,-0.03013438,0.10760564,0.5976674,0.5827357,-0.21057206,-0.23718363,0.8142436,780.4762,797.3993,790.9524,797.3993,664.43225,0.50128173828125,-0.03131103515625,0.8504638671875,4.38140869140625,-2.953338623046875,-1.218719482421875,1.0,1.0,1.0,1.0,1.0,25.0,
2023-09-08 00:03:45.250,0.43235657,0.039397094,-0.2891037,0.5655405,-0.017483681,-0.33002317,-0.27462703,0.31759733,0.44475055,-0.12833813,-0.057711728,0.39779112,0.69837874,-0.03013438,0.10760564,0.5976674,0.5827357,-0.21057206,-0.23718363,0.8142436,779.67035,792.1612,796.1905,779.2674,778.46155,0.50213623046875,-0.0316162109375,0.86053466796875,4.17205810546875,-3.850555419921875,-0.1495361328125,1.0,1.0,1.0,1.0,1.0,25.0,
2023-09-08 00:03:45.299,0.43235657,0.039397094,-0.2891037,0.5655405,-0.017483681,-0.33002317,-0.27462703,0.31759733,0.44475055,-0.12833813,-0.057711728,0.39779112,0.69837874,-0.03013438,0.10760564,0.5976674,0.5827357,-0.21057206,-0.23718363,0.8142436,810.696,793.36993,789.34064,371.0989,760.7326,0.4959716796875,-0.036376953125,0.85809326171875,3.99261474609375,-3.18511962890625,0.73272705078125,1.0,1.0,1.0,1.0,1.0,25.0,
2023-09-08 00:03:45.303,0.41708413,0.025057863,-0.27342775,0.54095304,0.019766584,-0.3533761,-0.28285617,0.31455424,0.5333516,-0.047770843,-0.06328473,0.35447267,0.7101106,-0.041278984,0.10211393,0.6135367,0.6023966,-0.2225965,-0.24610983,0.816005,798.20514,791.3553,793.36993,316.30035,608.8278,0.4959716796875,-0.036376953125,0.85809326171875,3.99261474609375,-3.18511962890625,0.73272705078125,1.0,1.0,1.0,1.0,1.0,25.0,
2023-09-08 00:03:45.360,0.41708413,0.025057863,-0.27342775,0.54095304,0.019766584,-0.3533761,-0.28285617,0.31455424,0.5333516,-0.047770843,-0.06328473,0.35447267,0.7101106,-0.041278984,0.10211393,0.6135367,0.6023966,-0.2225965,-0.24610983,0.816005,792.1612,798.60803,799.011,270.76923,720.4396,0.49822998046875,-0.0396728515625,0.8564453125,3.671112060546875,-3.00567626953125,-0.949554443359375,1.0,1.0,1.0,1.0,1.0,25.0,
2023-09-08 00:03:45.413,0.394449,-0.0043900963,-0.26425713,0.5131378,0.06173271,-0.38489825,-0.29891834,0.30222037,0.5691659,0.02406155,-0.09258817,0.28327963,0.711255,-0.053954955,0.08444698,0.63576764,0.61571956,-0.23805624,-0.2578889,0.7981259,779.67035,794.17584,782.8938,367.47253,981.13556,0.49822998046875,-0.0396728515625,0.8564453125,3.671112060546875,-3.00567626953125,-0.949554443359375,1.0,1.0,1.0,1.0,1.0,25.0,
2023-09-08 00:03:45.474,0.394449,-0.0043900963,-0.26425713,0.5131378,0.06173271,-0.38489825,-0.29891834,0.30222037,0.5691659,0.02406155,-0.09258817,0.28327963,0.711255,-0.053954955,0.08444698,0.63576764,0.61571956,-0.23805624,-0.2578889,0.7981259,806.26373,802.6374,803.44324,387.61905,639.0476,0.49542236328125,-0.04547119140625,0.85870361328125,3.880462646484375,-2.938385009765625,-1.906585693359375,1.0,1.0,1.0,1.0,1.0,25.0,
2023-09-08 00:03:45.506,0.394449,-0.0043900963,-0.26425713,0.5131378,0.06173271,-0.38489825,-0.29891834,0.30222037,0.5691659,0.02406155,-0.09258817,0.28327963,0.711255,-0.053954955,0.08444698,0.63576764,0.61571956,-0.23805624,-0.2578889,0.7981259,797.8022,801.02563,797.8022,485.1282,669.2674,0.50250244140625,-0.04510498046875,0.85321044921875,3.72344970703125,-3.81317138671875,-2.31781005859375,1.0,1.0,1.0,1.0,1.0,25.0,
2023-09-08 00:03:45.510,0.37766448,-0.037121713,-0.25644457,0.5094548,0.09941455,-0.41858476,-0.31950513,0.2959264,0.5805419,0.04606873,-0.16619019,0.21457478,0.705458,-0.06605109,0.05817812,0.6595158,0.6203725,-0.25998512,-0.26564178,0.7564596,799.011,800.6227,797.8022,629.7802,1099.1941,0.50250244140625,-0.04510498046875,0.85321044921875,3.72344970703125,-3.81317138671875,-2.31781005859375,1.0,1.0,1.0,1.0,1.0,25.0,
2023-09-08 00:03:45.518,0.37766448,-0.037121713,-0.25644457,0.5094548,0.09941455,-0.41858476,-0.31950513,0.2959264,0.5805419,0.04606873,-0.16619019,0.21457478,0.705458,-0.06605109,0.05817812,0.6595158,0.6203725,-0.25998512,-0.26564178,0.7564596,783.2967,801.4286,794.57874,694.2491,775.64105,0.51318359375,-0.0491943359375,0.8548583984375,4.26177978515625,-3.1402587890625,-0.635528564453125,1.0,1.0,1.0,1.0,1.0,25.0,
2023-09-08 00:03:45.608,0.37766448,-0.037121713,-0.25644457,0.5094548,0.09941455,-0.41858476,-0.31950513,0.2959264,0.5805419,0.04606873,-0.16619019,0.21457478,0.705458,-0.06605109,0.05817812,0.6595158,0.6203725,-0.25998512,-0.26564178,0.7564596,794.57874,800.2198,792.5641,769.19415,1083.4799,0.49859619140625,-0.04541015625,0.85003662109375,5.9515380859375,-1.33087158203125,0.58319091796875,1.0,1.0,1.0,1.0,1.0,25.0,
2023-09-08 00:03:45.616,0.3676568,-0.06881973,-0.24823815,0.5362345,0.12894787,-0.44930756,-0.3424408,0.31535867,0.5874607,0.0510459,-0.19962952,0.18877144,0.69957274,-0.0720517,0.032967348,0.6818879,0.6163573,-0.28678125,-0.26513606,0.6962783,767.1795,792.1612,799.011,757.9121,711.978,0.49859619140625,-0.04541015625,0.85003662109375,5.9515380859375,-1.33087158203125,0.58319091796875,1.0,1.0,1.0,1.0,1.0,25.0,
2023-09-08 00:03:45.625,0.3676568,-0.06881973,-0.24823815,0.5362345,0.12894787,-0.44930756,-0.3424408,0.31535867,0.5874607,0.0510459,-0.19962952,0.18877144,0.69957274,-0.0720517,0.032967348,0.6818879,0.6163573,-0.28678125,-0.26513606,0.6962783,776.4469,797.3993,798.20514,758.315,728.9011,0.48675537109375,-0.03485107421875,0.86090087890625,6.44500732421875,-1.435546875,-0.485992431640625,1.0,1.0,1.0,1.0,1.0,25.0,
2023-09-08 00:03:45.708,0.3676568,-0.06881973,-0.24823815,0.5362345,0.12894787,-0.44930756,-0.3424408,0.31535867,0.5874607,0.0510459,-0.19962952,0.18877144,0.69957274,-0.0720517,0.032967348,0.6818879,0.6163573,-0.28678125,-0.26513606,0.6962783,775.64105,784.90845,800.6227,873.1502,664.0293,0.517578125,-0.0394287109375,0.85589599609375,4.418792724609375,-2.026214599609375,-0.994415283203125,1.0,1.0,1.0,1.0,1.0,25.0,
2023-09-08 00:03:45.709,0.3649833,-0.09216167,-0.24061078,0.5362345,0.15047318,-0.47133017,-0.37314868,0.31535867,0.59395987,0.05309602,-0.14868882,0.18877144,0.696715,-0.0678654,0.016581874,0.6818879,0.60648364,-0.31334716,-0.2562817,0.6962783,790.54944,786.9231,798.60803,858.6447,661.6117,0.517578125,-0.0394287109375,0.85589599609375,4.418792724609375,-2.026214599609375,-0.994415283203125,1.0,1.0,1.0,1.0,1.0,25.0,
2023-09-08 00:03:45.744,0.3649833,-0.09216167,-0.24061078,0.5362345,0.15047318,-0.47133017,-0.37314868,0.31535867,0.59395987,0.05309602,-0.14868882,0.18877144,0.696715,-0.0678654,0.016581874,0.6818879,0.60648364,-0.31334716,-0.2562817,0.6962783,799.81683,795.78754,799.011,881.2088,684.17584,0.484619140625,-0.0306396484375,0.8568115234375,6.50482177734375,0.64300537109375,1.308441162109375,1.0,1.0,1.0,1.0,1.0,25.0,
2023-09-08 00:03:45.785,0.3649833,-0.09216167,-0.24061078,0.5362345,0.15047318,-0.47133017,-0.37314868,0.31535867,0.59395987,0.05309602,-0.14868882,0.18877144,0.696715,-0.0678654,0.016581874,0.6818879,0.60648364,-0.31334716,-0.2562817,0.6962783,799.011,795.78754,789.34064,881.6117,673.69965,0.46246337890625,-0.02838134765625,0.85382080078125,5.226287841796875,-3.39447021484375,-3.087921142578125,1.0,1.0,1.0,1.0,1.0,25.0,
2023-09-08 00:03:45.788,0.36094427,-0.09958296,-0.2303337,0.5362345,0.16721533,-0.48065764,-0.42096347,0.31535867,0.59398866,0.05594271,-0.029640889,0.18877144,0.69562423,-0.05633273,0.009249598,0.6818879,0.5950324,-0.33484003,-0.24322891,0.6962783,796.5934,799.011,792.5641,894.10254,740.58606,0.46246337890625,-0.02838134765625,0.85382080078125,5.226287841796875,-3.39447021484375,-3.087921142578125,1.0,1.0,1.0,1.0,1.0,25.0,
2023-09-08 00:03:45.883,0.36094427,-0.09958296,-0.2303337,0.5362345,0.16721533,-0.48065764,-0.42096347,0.31535867,0.59398866,0.05594271,-0.029640889,0.18877144,0.69562423,-0.05633273,0.009249598,0.6818879,0.5950324,-0.33484003,-0.24322891,0.6962783,778.0586,794.57874,793.7729,876.3736,701.50183,0.48779296875,-0.0218505859375,0.84906005859375,5.6524658203125,-4.05242919921875,-4.463653564453125,1.0,1.0,1.0,1.0,1.0,25.0,
2023-09-08 00:03:45.934,0.34655803,-0.091930985,-0.2179399,0.5362345,0.18131821,-0.47836405,-0.4900098,0.31535867,0.59635466,0.05594271,0.033276293,0.18877144,0.6941677,-0.043638274,0.0070395004,0.6818879,0.5869555,-0.35027766,-0.23182914,0.6962783,793.7729,804.2491,790.54944,881.6117,957.3626,0.48779296875,-0.0218505859375,0.84906005859375,5.6524658203125,-4.05242919921875,-4.463653564453125,1.0,1.0,1.0,1.0,1.0,25.0,
2023-09-08 00:03:45.943,0.34655803,-0.091930985,-0.2179399,0.5362345,0.18131821,-0.47836405,-0.4900098,0.31535867,0.59635466,0.05594271,0.033276293,0.18877144,0.6941677,-0.043638274,0.0070395004,0.6818879,0.5869555,-0.35027766,-0.23182914,0.6962783,788.5348,796.99634,792.1612,887.6557,1002.0879,0.49554443359375,-0.02728271484375,0.86572265625,4.246826171875,-4.957122802734375,-2.370147705078125,1.0,1.0,1.0,1.0,1.0,25.0,
2023-09-08 00:03:45.998,0.34655803,-0.091930985,-0.2179399,0.5362345,0.18131821,-0.47836405,-0.4900098,0.31535867,0.59635466,0.05594271,0.033276293,0.18877144,0.6941677,-0.043638274,0.0070395004,0.6818879,0.5869555,-0.35027766,-0.23182914,0.6962783,769.59705,799.011,791.75824,854.61536,682.1612,0.502197265625,-0.03228759765625,0.8616943359375,2.88604736328125,-4.80010986328125,-1.07666015625,1.0,1.0,1.0,1.0,1.0,25.0,
2023-09-08 00:03:46.004,0.3261091,-0.06085748,-0.20406497,0.5362345,0.19021825,-0.47589603,-0.57650656,0.31535867,0.6072089,0.03534706,0.04045238,0.18877144,0.69044834,-0.031927004,0.0058052405,0.6818879,0.5853014,-0.38127553,-0.2244911,0.6962783,782.8938,796.1905,797.3993,839.304,926.337,0.502197265625,-0.03228759765625,0.8616943359375,2.88604736328125,-4.80010986328125,-1.07666015625,1.0,1.0,1.0,1.0,1.0,25.0,
2023-09-08 00:03:46.062,0.3261091,-0.06085748,-0.20406497,0.5362345,0.19021825,-0.47589603,-0.57650656,0.31535867,0.6072089,0.03534706,0.04045238,0.18877144,0.69044834,-0.031927004,0.0058052405,0.6818879,0.5853014,-0.38127553,-0.2244911,0.6962783,784.90845,794.9817,795.38464,858.6447,941.2454,0.4930419921875,-0.046630859375,0.8592529296875,2.325286865234375,-5.30853271484375,-0.785064697265625,1.0,1.0,1.0,1.0,1.0,25.0,
2023-09-08 00:03:46.101,0.3261091,-0.06085748,-0.20406497,0.5362345,0.19021825,-0.47589603,-0.57650656,0.31535867,0.6072089,0.03534706,0.04045238,0.18877144,0.69044834,-0.031927004,0.0058052405,0.6818879,0.5853014,-0.38127553,-0.2244911,0.6962783,788.93774,798.20514,789.34064,829.2308,749.45056,0.513671875,-0.05224609375,0.8392333984375,2.504730224609375,-5.480499267578125,-2.953338623046875,1.0,1.0,1.0,1.0,1.0,25.0,
2023-09-08 00:03:46.109,0.31215304,-0.018982211,-0.19474751,0.5362345,0.19022125,-0.47193706,-0.6654671,0.31535867,0.62834114,0.011053385,0.06126256,0.18877144,0.68390113,-0.0232018,0.0021404105,0.6818879,0.5896645,-0.4046198,-0.2204442,0.6962783,799.41394,801.02563,798.60803,810.696,718.022,0.513671875,-0.05224609375,0.8392333984375,2.504730224609375,-5.480499267578125,-2.953338623046875,1.0,1.0,1.0,1.0,1.0,25.0,
2023-09-08 00:03:46.140,0.31215304,-0.018982211,-0.19474751,0.5362345,0.19022125,-0.47193706,-0.6654671,0.31535867,0.62834114,0.011053385,0.06126256,0.18877144,0.68390113,-0.0232018,0.0021404105,0.6818879,0.5896645,-0.4046198,-0.2204442,0.6962783,796.1905,797.8022,792.5641,813.5165,640.2564,0.5462646484375,-0.04052734375,0.85748291015625,5.38330078125,-4.643096923828125,-1.039276123046875,1.0,1.0,1.0,1.0,1.0,25.0,
2023-09-08 00:03:46.188,0.31068856,0.01191784,-0.18535094,0.5362345,0.18417504,-0.47343594,-0.73461396,0.31535867,0.6445984,0.0012751843,0.08428928,0.18877144,0.67843264,-0.017053083,-0.004320169,0.6818879,0.5979573,-0.42404982,-0.21869485,0.6962783,802.23444,796.99634,785.31134,814.3223,753.47986,0.5462646484375,-0.04052734375,0.85748291015625,5.38330078125,-4.643096923828125,-1.039276123046875,1.0,1.0,1.0,1.0,1.0,25.0,
2023-09-08 00:03:46.236,0.31068856,0.01191784,-0.18535094,0.5362345,0.18417504,-0.47343594,-0.73461396,0.31535867,0.6445984,0.0012751843,0.08428928,0.18877144,0.67843264,-0.017053083,-0.004320169,0.6818879,0.5979573,-0.42404982,-0.21869485,0.6962783,804.2491,796.99634,789.7436,822.381,719.6337,0.513671875,-0.03851318359375,0.85137939453125,4.97955322265625,-1.854248046875,2.579498291015625,1.0,1.0,1.0,1.0,1.0,25.0,
2023-09-08 00:03:46.299,0.31068856,0.01191784,-0.18535094,0.5362345,0.18417504,-0.47343594,-0.73461396,0.31535867,0.6445984,0.0012751843,0.08428928,0.18877144,0.67843264,-0.017053083,-0.004320169,0.6818879,0.5979573,-0.42404982,-0.21869485,0.6962783,783.2967,796.1905,794.9817,780.07324,695.05493,0.4840087890625,-0.035400390625,0.8402099609375,5.704803466796875,-1.03179931640625,-0.2691650390625,1.0,1.0,1.0,1.0,1.0,25.0,
2023-09-08 00:03:46.337,0.31068856,0.01191784,-0.18535094,0.5362345,0.18417504,-0.47343594,-0.73461396,0.31535867,0.6445984,0.0012751843,0.08428928,0.18877144,0.67843264,-0.017053083,-0.004320169,0.6818879,0.5979573,-0.42404982,-0.21869485,0.6962783,782.49084,800.2198,788.5348,767.5824,1036.337,0.50726318359375,-0.0372314453125,0.85015869140625,5.839385986328125,-2.923431396484375,-2.22808837890625,1.0,1.0,1.0,1.0,1.0,25.0,
2023-09-08 00:03:46.338,0.31944272,0.021750284,-0.17267948,0.5362345,0.17732036,-0.48001817,-0.7653966,0.31535867,0.6445984,0.022821192,0.08428928,0.18877144,0.6802538,-0.01438707,-0.009154869,0.6818879,0.60695374,-0.4399005,-0.22010225,0.6962783,787.326,799.011,792.96704,794.57874,1197.1062,0.50726318359375,-0.0372314453125,0.85015869140625,5.839385986328125,-2.923431396484375,-2.22808837890625,1.0,1.0,1.0,1.0,1.0,25.0,
2023-09-08 00:03:46.379,0.31944272,0.021750284,-0.17267948,0.5362345,0.17732036,-0.48001817,-0.7653966,0.31535867,0.6445984,0.022821192,0.08428928,0.18877144,0.6802538,-0.01438707,-0.009154869,0.6818879,0.60695374,-0.4399005,-0.22010225,0.6962783,806.26373,802.23444,796.5934,774.0293,741.79486,0.52099609375,-0.03515625,0.8565673828125,4.83001708984375,-3.27484130859375,0.0897216796875,1.0,1.0,1.0,1.0,1.0,25.0,
2023-09-08 00:03:46.390,0.33445016,0.0042577977,-0.15987039,0.5362345,0.17286669,-0.48827422,-0.758748,0.31535867,0.6445984,0.037542645,0.08428928,0.18877144,0.69090337,-0.015445109,-0.0067688944,0.6818879,0.61184067,-0.44965532,-0.22508284,0.6962783,783.69965,800.2198,793.36993,790.9524,805.4579,0.52099609375,-0.03515625,0.8565673828125,4.83001708984375,-3.27484130859375,0.0897216796875,1.0,1.0,1.0,1.0,1.0,25.0,
2023-09-08 00:03:46.458,0.33445016,0.0042577977,-0.15987039,0.5362345,0.17286669,-0.48827422,-0.758748,0.31535867,0.6445984,0.037542645,0.08428928,0.18877144,0.69090337,-0.015445109,-0.0067688944,0.6818879,0.61184067,-0.44965532,-0.22508284,0.6962783,806.26373,801.02563,796.5934,790.14655,983.1502,0.51904296875,-0.037109375,0.856689453125,4.403839111328125,-3.648681640625,1.996307373046875,1.0,1.0,1.0,1.0,1.0,25.0,
2023-09-08 00:03:46.545,0.33445016,0.0042577977,-0.15987039,0.5362345,0.17286669,-0.48827422,-0.758748,0.31535867,0.6445984,0.037542645,0.08428928,0.18877144,0.69090337,-0.015445109,-0.0067688944,0.6818879,0.61184067,-0.44965532,-0.22508284,0.6962783,792.1612,790.14655,792.5641,789.7436,673.2967,0.50445556640625,-0.04071044921875,0.85235595703125,4.493560791015625,-2.07855224609375,-0.1495361328125,1.0,1.0,1.0,1.0,1.0,25.0,
2023-09-08 00:03:46.549,0.34818682,-0.035538733,-0.1631806,0.5362345,0.17056923,-0.49485737,-0.72883105,0.31535867,0.6445984,0.041389834,0.08336813,0.18877144,0.70429605,-0.01891957,0.003338729,0.6818879,0.60865754,-0.4535905,-0.23092194,0.6962783,793.36993,792.1612,788.93774,774.0293,733.3333,0.50445556640625,-0.04071044921875,0.85235595703125,4.493560791015625,-2.07855224609375,-0.1495361328125,1.0,1.0,1.0,1.0,1.0,25.0,
2023-09-08 00:03:46.564,0.34818682,-0.035538733,-0.1631806,0.5362345,0.17056923,-0.49485737,-0.72883105,0.31535867,0.6445984,0.041389834,0.08336813,0.18877144,0.70429605,-0.01891957,0.003338729,0.6818879,0.60865754,-0.4535905,-0.23092194,0.6962783,776.04395,787.326,793.36993,772.01465,631.79486,0.5037841796875,-0.041015625,0.84429931640625,4.53094482421875,-1.383209228515625,-2.056121826171875,1.0,1.0,1.0,1.0,1.0,25.0,
2023-09-08 00:03:46.614,0.34818682,-0.035538733,-0.1631806,0.5362345,0.17056923,-0.49485737,-0.72883105,0.31535867,0.6445984,0.041389834,0.08336813,0.18877144,0.70429605,-0.01891957,0.003338729,0.6818879,0.60865754,-0.4535905,-0.23092194,0.6962783,779.67035,794.9817,797.3993,756.7033,880.0,0.50433349609375,-0.03741455078125,0.851318359375,4.5758056640625,-2.58697509765625,-1.00189208984375,1.0,1.0,1.0,1.0,1.0,25.0,
2023-09-08 00:03:46.618,0.35034102,-0.07867143,-0.17861058,0.5362345,0.16693807,-0.497871,-0.6941129,0.31535867,0.6445984,0.041389834,0.08778376,0.18877144,0.71384835,-0.023384517,0.014089056,0.6818879,0.5963123,-0.45753875,-0.23296148,0.6962783,793.7729,795.78754,787.72894,748.6447,624.1392,0.50433349609375,-0.03741455078125,0.851318359375,4.5758056640625,-2.58697509765625,-1.00189208984375,1.0,1.0,1.0,1.0,1.0,25.0,
2023-09-08 00:03:46.652,0.35034102,-0.07867143,-0.17861058,0.5362345,0.16693807,-0.497871,-0.6941129,0.31535867,0.6445984,0.041389834,0.08778376,0.18877144,0.71384835,-0.023384517,0.014089056,0.6818879,0.5963123,-0.45753875,-0.23296148,0.6962783,799.011,790.14655,791.75824,767.1795,656.3736,0.49957275390625,-0.03314208984375,0.8526611328125,4.80010986328125,-3.342132568359375,-0.560760498046875,1.0,1.0,1.0,1.0,1.0,25.0,
2023-09-08 00:03:46.688,0.33769062,-0.10172634,-0.19365285,0.5362345,0.15775195,-0.4907605,-0.6652284,0.31535867,0.64221305,0.041389834,0.115779474,0.18877144,0.71938515,-0.025972223,0.018930348,0.6818879,0.5796247,-0.46550602,-0.23078631,0.6962783,793.7729,792.5641,791.75824,841.7216,822.7839,0.49957275390625,-0.03314208984375,0.8526611328125,4.80010986328125,-3.342132568359375,-0.560760498046875,1.0,1.0,1.0,1.0,1.0,25.0,
2023-09-08 00:03:46.755,0.33769062,-0.10172634,-0.19365285,0.5362345,0.15775195,-0.4907605,-0.6652284,0.31535867,0.64221305,0.041389834,0.115779474,0.18877144,0.71938515,-0.025972223,0.018930348,0.6818879,0.5796247,-0.46550602,-0.23078631,0.6962783,800.6227,790.9524,801.8315,830.4396,709.5604,0.5123291015625,-0.03021240234375,0.853271484375,3.94775390625,-2.51220703125,0.082244873046875,1.0,1.0,1.0,1.0,1.0,25.0,
2023-09-08 00:03:46.789,0.33769062,-0.10172634,-0.19365285,0.5362345,0.15775195,-0.4907605,-0.6652284,0.31535867,0.64221305,0.041389834,0.115779474,0.18877144,0.71938515,-0.025972223,0.018930348,0.6818879,0.5796247,-0.46550602,-0.23078631,0.6962783,804.65204,794.57874,794.57874,830.84247,781.685,0.49456787109375,-0.04296875,0.85211181640625,4.0374755859375,-1.188812255859375,-0.441131591796875,1.0,1.0,1.0,1.0,1.0,25.0,
2023-09-08 00:03:46.798,0.3149239,-0.09157541,-0.20334232,0.5362345,0.1400533,-0.4686158,-0.63063943,0.31535867,0.6241064,0.041389834,0.13748409,0.18877144,0.7261421,-0.020787587,0.01810284,0.6818879,0.56672955,-0.47346106,-0.2270249,0.6962783,798.60803,803.44324,790.14655,811.0989,786.52014,0.49456787109375,-0.04296875,0.85211181640625,4.0374755859375,-1.188812255859375,-0.441131591796875,1.0,1.0,1.0,1.0,1.0,25.0,
2023-09-08 00:03:46.853,0.3149239,-0.09157541,-0.20334232,0.5362345,0.1400533,-0.4686158,-0.63063943,0.31535867,0.6241064,0.041389834,0.13748409,0.18877144,0.7261421,-0.020787587,0.01810284,0.6818879,0.56672955,-0.47346106,-0.2270249,0.6962783,796.1905,799.011,787.326,813.5165,730.9158,0.49969482421875,-0.03717041015625,0.84674072265625,4.42626953125,-1.891632080078125,-1.727142333984375,1.0,1.0,1.0,1.0,1.0,25.0,
2023-09-08 00:03:46.896,0.3149239,-0.09157541,-0.20334232,0.5362345,0.1400533,-0.4686158,-0.63063943,0.31535867,0.6241064,0.041389834,0.13748409,0.18877144,0.7261421,-0.020787587,0.01810284,0.6818879,0.56672955,-0.47346106,-0.2270249,0.6962783,790.14655,788.93774,787.326,774.43225,830.84247,0.49749755859375,-0.0347900390625,0.85699462890625,4.306640625,-1.443023681640625,-1.592559814453125,1.0,1.0,1.0,1.0,1.0,25.0,
2023-09-08 00:03:46.965,0.29257417,-0.06162614,-0.20636567,0.5362345,0.11329946,-0.4304837,-0.5668777,0.31535867,0.5878604,0.03693399,0.14111798,0.18877144,0.7381478,-0.0029564218,0.017072689,0.6818879,0.56503326,-0.47535115,-0.22415191,0.6962783,793.36993,794.9817,791.3553,783.69965,690.6227,0.49749755859375,-0.0347900390625,0.85699462890625,4.306640625,-1.443023681640625,-1.592559814453125,1.0,1.0,1.0,1.0,1.0,25.0,
2023-09-08 00:03:46.999,0.29257417,-0.06162614,-0.20636567,0.5362345,0.11329946,-0.4304837,-0.5668777,0.31535867,0.5878604,0.03693399,0.14111798,0.18877144,0.7381478,-0.0029564218,0.017072689,0.6818879,0.56503326,-0.47535115,-0.22415191,0.6962783,791.3553,792.1612,791.75824,786.52014,767.5824,0.50286865234375,-0.04376220703125,0.85162353515625,4.1571044921875,-2.2430419921875,-1.487884521484375,1.0,1.0,1.0,1.0,1.0,25.0,
2023-09-08 00:03:47.015,0.29257417,-0.06162614,-0.20636567,0.5362345,0.11329946,-0.4304837,-0.5668777,0.31535867,0.5878604,0.03693399,0.14111798,0.18877144,0.7381478,-0.0029564218,0.017072689,0.6818879,0.56503326,-0.47535115,-0.22415191,0.6962783,786.9231,795.78754,799.41394,747.4359,697.8755,0.50555419921875,-0.037109375,0.8502197265625,4.42626953125,-2.160797119140625,-0.605621337890625,1.0,1.0,1.0,1.0,1.0,25.0,
2023-09-08 00:03:47.017,0.2724597,-0.03484498,-0.20763355,0.5362345,0.084320076,-0.38539848,-0.46802717,0.31535867,0.5434074,-0.01904477,0.14271142,0.18877144,0.75449276,0.023588927,0.020042945,0.6818879,0.5774586,-0.4700505,-0.22247738,0.6962783,805.8608,800.6227,798.60803,713.9927,677.326,0.50555419921875,-0.037109375,0.8502197265625,4.42626953125,-2.160797119140625,-0.605621337890625,1.0,1.0,1.0,1.0,1.0,25.0,
2023-09-08 00:03:47.092,0.2724597,-0.03484498,-0.20763355,0.5362345,0.084320076,-0.38539848,-0.46802717,0.31535867,0.5434074,-0.01904477,0.14271142,0.18877144,0.75449276,0.023588927,0.020042945,0.6818879,0.5774586,-0.4700505,-0.22247738,0.6962783,801.4286,790.9524,789.7436,672.8938,885.64105,0.49383544921875,-0.04388427734375,0.85394287109375,3.880462646484375,-2.743988037109375,-0.2392578125,1.0,1.0,1.0,1.0,1.0,25.0,
2023-09-08 00:03:47.141,0.2724597,-0.03484498,-0.20763355,0.5362345,0.084320076,-0.38539848,-0.46802717,0.31535867,0.5434074,-0.01904477,0.14271142,0.18877144,0.75449276,0.023588927,0.020042945,0.6818879,0.5774586,-0.4700505,-0.22247738,0.6962783,777.6557,800.6227,792.96704,663.22345,771.6117,0.50042724609375,-0.04119873046875,0.85272216796875,5.084228515625,-4.478607177734375,-1.816864013671875,1.0,1.0,1.0,1.0,1.0,25.0,
2023-09-08 00:03:47.145,0.2612447,-0.015762292,-0.20706433,0.5362345,0.060294412,-0.34752607,-0.3631914,0.31535867,0.52891934,-0.109961405,0.14499481,0.18877144,0.7706144,0.04909338,0.027966913,0.6818879,0.6007034,-0.4610607,-0.2219683,0.6962783,782.0879,805.4579,790.14655,669.2674,767.98535,0.50042724609375,-0.04119873046875,0.85272216796875,5.084228515625,-4.478607177734375,-1.816864013671875,1.0,1.0,1.0,1.0,1.0,25.0,
2023-09-08 00:03:47.185,0.2612447,-0.015762292,-0.20706433,0.5362345,0.060294412,-0.34752607,-0.3631914,0.31535867,0.52891934,-0.109961405,0.14499481,0.18877144,0.7706144,0.04909338,0.027966913,0.6818879,0.6007034,-0.4610607,-0.2219683,0.6962783,802.6374,800.2198,792.5641,645.09155,818.7546,0.50811767578125,-0.0347900390625,0.8543701171875,5.0244140625,-3.312225341796875,-1.861724853515625,1.0,1.0,1.0,1.0,1.0,25.0,
2023-09-08 00:03:47.251,0.26108167,-0.003085526,-0.20095716,0.5362345,0.040734094,-0.32629368,-0.28231,0.31535867,0.52224493,-0.14230542,0.16989264,0.18877144,0.7817706,0.06576137,0.039618794,0.6818879,0.6267943,-0.45262223,-0.22508234,0.6962783,782.49084,798.60803,788.5348,712.7839,880.40295,0.50811767578125,-0.0347900390625,0.8543701171875,5.0244140625,-3.312225341796875,-1.861724853515625,1.0,1.0,1.0,1.0,1.0,25.0,
2023-09-08 00:03:47.278,0.26108167,-0.003085526,-0.20095716,0.5362345,0.040734094,-0.32629368,-0.28231,0.31535867,0.52224493,-0.14230542,0.16989264,0.18877144,0.7817706,0.06576137,0.039618794,0.6818879,0.6267943,-0.45262223,-0.22508234,0.6962783,780.07324,796.5934,778.0586,699.89014,945.6777,0.50970458984375,-0.04046630859375,0.85107421875,3.90289306640625,-2.549591064453125,-1.256103515625,1.0,1.0,1.0,1.0,1.0,25.0,
2023-09-08 00:03:47.312,0.26108167,-0.003085526,-0.20095716,0.5362345,0.040734094,-0.32629368,-0.28231,0.31535867,0.52224493,-0.14230542,0.16989264,0.18877144,0.7817706,0.06576137,0.039618794,0.6818879,0.6267943,-0.45262223,-0.22508234,0.6962783,808.2784,797.3993,784.5055,706.337,689.011,0.50701904296875,-0.04608154296875,0.85272216796875,3.84307861328125,-2.51220703125,-0.471038818359375,1.0,1.0,1.0,1.0,1.0,25.0,
2023-09-08 00:03:47.318,0.26727712,-0.0031597095,-0.19409285,0.5362345,0.017314062,-0.3228525,-0.2353031,0.31535867,0.51389533,-0.05174332,0.20723271,0.18877144,0.78629804,0.07256252,0.053519323,0.6818879,0.6482989,-0.44767073,-0.23347038,0.6962783,782.8938,786.52014,798.20514,741.39197,931.5751,0.50701904296875,-0.04608154296875,0.85272216796875,3.84307861328125,-2.51220703125,-0.471038818359375,1.0,1.0,1.0,1.0,1.0,25.0,
2023-09-08 00:03:47.351,0.26727712,-0.0031597095,-0.19409285,0.5362345,0.017314062,-0.3228525,-0.2353031,0.31535867,0.51389533,-0.05174332,0.20723271,0.18877144,0.78629804,0.07256252,0.053519323,0.6818879,0.6482989,-0.44767073,-0.23347038,0.6962783,770.80585,792.96704,795.38464,708.3516,663.22345,0.5064697265625,-0.0435791015625,0.85247802734375,4.62066650390625,-1.55517578125,-1.069183349609375,1.0,1.0,1.0,1.0,1.0,25.0,
2023-09-08 00:03:47.392,0.26727712,-0.0031597095,-0.19409285,0.5362345,0.017314062,-0.3228525,-0.2353031,0.31535867,0.51389533,-0.05174332,0.20723271,0.18877144,0.78629804,0.07256252,0.053519323,0.6818879,0.6482989,-0.44767073,-0.23347038,0.6962783,788.5348,794.17584,794.57874,657.1795,834.87177,0.5003662109375,-0.0416259765625,0.852294921875,5.06927490234375,-1.562652587890625,-0.859832763671875,1.0,1.0,1.0,1.0,1.0,25.0,
2023-09-08 00:03:47.399,0.27732748,-0.007325661,-0.1876024,0.5362345,-0.012771425,-0.3309651,-0.2165908,0.31535867,0.49071866,0.01728222,0.22934392,0.18877144,0.7856185,0.072978094,0.068822086,0.6818879,0.66088533,-0.44660652,-0.24371433,0.6962783,808.2784,803.44324,797.3993,707.5458,767.98535,0.5003662109375,-0.0416259765625,0.852294921875,5.06927490234375,-1.562652587890625,-0.859832763671875,1.0,1.0,1.0,1.0,1.0,25.0,
2023-09-08 00:03:47.426,0.27732748,-0.007325661,-0.1876024,0.5362345,-0.012771425,-0.3309651,-0.2165908,0.31535867,0.49071866,0.01728222,0.22934392,0.18877144,0.7856185,0.072978094,0.068822086,0.6818879,0.66088533,-0.44660652,-0.24371433,0.6962783,794.57874,800.2198,797.8022,729.304,1015.38464,0.49468994140625,-0.0430908203125,0.85101318359375,4.97955322265625,-3.237457275390625,0.007476806640625,1.0,1.0,1.0,1.0,1.0,25.0,
2023-09-08 00:03:47.537,0.27732748,-0.007325661,-0.1876024,0.5362345,-0.012771425,-0.3309651,-0.2165908,0.31535867,0.49071866,0.01728222,0.22934392,0.18877144,0.7856185,0.072978094,0.068822086,0.6818879,0.66088533,-0.44660652,-0.24371433,0.6962783,788.1319,797.8022,790.54944,755.89746,831.6484,0.49163818359375,-0.0360107421875,0.84759521484375,5.7421875,-4.80010986328125,-0.299072265625,1.0,1.0,1.0,1.0,1.0,25.0,
2023-09-08 00:03:47.538,0.28433794,-0.009281159,-0.17221884,0.5362345,-0.03817793,-0.3412076,-0.21093206,0.31535867,0.48410258,0.054399744,0.20602444,0.18877144,0.78218436,0.07317751,0.08461248,0.6818879,0.663782,-0.44821137,-0.24870884,0.6962783,797.8022,797.8022,795.38464,731.31866,735.34796,0.49163818359375,-0.0360107421875,0.84759521484375,5.7421875,-4.80010986328125,-0.299072265625,1.0,1.0,1.0,1.0,1.0,25.0,
2023-09-08 00:03:47.581,0.28433794,-0.009281159,-0.17221884,0.5362345,-0.03817793,-0.3412076,-0.21093206,0.31535867,0.48410258,0.054399744,0.20602444,0.18877144,0.78218436,0.07317751,0.08461248,0.6818879,0.663782,-0.44821137,-0.24870884,0.6962783,796.5934,792.1612,792.1612,666.8498,682.96704,0.50762939453125,-0.03460693359375,0.8516845703125,4.852447509765625,-4.3963623046875,-0.2093505859375,1.0,1.0,1.0,1.0,1.0,25.0,
2023-09-08 00:03:47.636,0.28433794,-0.009281159,-0.17221884,0.5362345,-0.03817793,-0.3412076,-0.21093206,0.31535867,0.48410258,0.054399744,0.20602444,0.18877144,0.78218436,0.07317751,0.08461248,0.6818879,0.663782,-0.44821137,-0.24870884,0.6962783,807.8755,788.1319,797.3993,607.619,746.63007,0.513427734375,-0.0374755859375,0.8585205078125,5.06927490234375,-3.21502685546875,-1.12152099609375,1.0,1.0,1.0,1.0,1.0,25.0,
2023-09-08 00:03:47.638,0.28409564,0.0012601181,-0.1383889,0.5362345,-0.03435778,-0.3408869,-0.20442748,0.31535867,0.49023739,0.063881904,0.19081119,0.18877144,0.77832365,0.07892016,0.0987901,0.6818879,0.6594624,-0.4492293,-0.2451051,0.6962783,779.2674,790.54944,797.8022,573.36993,723.2601,0.513427734375,-0.0374755859375,0.8585205078125,5.06927490234375,-3.21502685546875,-1.12152099609375,1.0,1.0,1.0,1.0,1.0,25.0,
2023-09-08 00:03:47.677,0.28409564,0.0012601181,-0.1383889,0.5362345,-0.03435778,-0.3408869,-0.20442748,0.31535867,0.49023739,0.063881904,0.19081119,0.18877144,0.77832365,0.07892016,0.0987901,0.6818879,0.6594624,-0.4492293,-0.2451051,0.6962783,808.2784,796.5934,789.34064,553.6264,703.1135,0.512451171875,-0.03509521484375,0.8544921875,4.927215576171875,-2.572021484375,-1.413116455078125,1.0,1.0,1.0,1.0,1.0,25.0,
2023-09-08 00:03:47.775,0.27651042,0.019820707,-0.098624356,0.5362345,0.007543682,-0.31878343,-0.19070196,0.31535867,0.53984505,0.070048705,0.19670337,0.18877144,0.77523315,0.091783606,0.10706924,0.6818879,0.6527063,-0.44788244,-0.23668149,0.6962783,786.52014,790.14655,793.36993,643.0769,906.1905,0.512451171875,-0.03509521484375,0.8544921875,4.927215576171875,-2.572021484375,-1.413116455078125,1.0,1.0,1.0,1.0,1.0,25.0,
