TimeStamp,Delta_TP9,Delta_AF7,Delta_AF8,Delta_TP10,Theta_TP9,Theta_AF7,Theta_AF8,Theta_TP10,Alpha_TP9,Alpha_AF7,Alpha_AF8,Alpha_TP10,Beta_TP9,Beta_AF7,Beta_AF8,Beta_TP10,Gamma_TP9,Gamma_AF7,Gamma_AF8,Gamma_TP10,RAW_TP9,RAW_AF7,RAW_AF8,RAW_TP10,AUX_RIGHT,Accelerometer_X,Accelerometer_Y,Accelerometer_Z,Gyro_X,Gyro_Y,Gyro_Z,HeadBandOn,HSI_TP9,HSI_AF7,HSI_AF8,HSI_TP10,Battery,Elements
2023-09-09 22:58:28.008,1.2656913,0.25888544,1.0292841,0.5542197,0.9257593,-0.0906647,0.27375028,0.59528804,0.8803097,0.2549411,0.3577247,0.6322367,0.5675632,0.007873694,-0.04991354,0.7599527,0.003962282,-0.3317267,-0.437452,0.6739496,727.6923,772.4176,777.6557,779.67035,776.04395,0.81072998046875,-0.127197265625,0.5758056640625,1.682281494140625,-3.2000732421875,-2.280426025390625,1.0,1.0,1.0,1.0,1.0,50.0,
2023-09-09 22:58:28.050,1.2656913,0.25888544,1.0292841,0.5542197,0.9257593,-0.0906647,0.27375028,0.59528804,0.8803097,0.2549411,0.3577247,0.6322367,0.5675632,0.007873694,-0.04991354,0.7599527,0.003962282,-0.3317267,-0.437452,0.6739496,749.85345,778.86444,777.6557,779.67035,836.4835,0.80047607421875,-0.1114501953125,0.56793212890625,4.493560791015625,-3.775787353515625,0.0299072265625,1.0,1.0,1.0,1.0,1.0,50.0,
2023-09-09 22:58:28.051,1.3714045,0.30775988,1.0510911,0.5542197,1.0124311,-0.030140236,0.26435736,0.59528804,0.93563527,0.26223364,0.363503,0.6322367,0.5788009,0.02542649,-0.04792778,0.7599527,-0.0024051669,-0.33004415,-0.4253935,0.6739496,757.1062,784.5055,779.67035,790.14655,876.77655,0.80047607421875,-0.1114501953125,0.56793212890625,4.493560791015625,-3.775787353515625,0.0299072265625,1.0,1.0,1.0,1.0,1.0,50.0,
2023-09-09 22:58:28.061,1.3714045,0.30775988,1.0510911,0.5542197,1.0124311,-0.030140236,0.26435736,0.59528804,0.93563527,0.26223364,0.363503,0.6322367,0.5788009,0.02542649,-0.04792778,0.7599527,-0.0024051669,-0.33004415,-0.4253935,0.6739496,763.1502,774.43225,782.49084,784.10254,973.47986,0.78814697265625,-0.0992431640625,0.56488037109375,6.108551025390625,-4.852447509765625,1.547698974609375,1.0,1.0,1.0,1.0,1.0,50.0,
2023-09-09 22:58:28.101,1.4285287,0.37047988,1.0626141,0.5542197,1.0701208,0.026695844,0.27567747,0.59528804,0.9652972,0.2637339,0.363503,0.6322367,0.59619415,0.049901195,-0.03624116,0.7599527,-0.0065486636,-0.3305667,-0.40896708,0.6739496,761.13556,787.326,790.14655,780.87915,843.73627,0.78814697265625,-0.0992431640625,0.56488037109375,6.108551025390625,-4.852447509765625,1.547698974609375,1.0,1.0,1.0,1.0,1.0,50.0,
2023-09-09 22:58:28.145,1.4285287,0.37047988,1.0626141,0.5542197,1.0701208,0.026695844,0.27567747,0.59528804,0.9652972,0.2637339,0.363503,0.6322367,0.59619415,0.049901195,-0.03624116,0.7599527,-0.0065486636,-0.3305667,-0.40896708,0.6739496,751.4652,780.87915,794.9817,765.56775,863.0769,0.8023681640625,-0.095703125,0.56982421875,5.091705322265625,-6.332855224609375,0.64300537109375,1.0,1.0,1.0,1.0,1.0,50.0,
2023-09-09 22:58:28.182,1.4285287,0.37047988,1.0626141,0.5542197,1.0701208,0.026695844,0.27567747,0.59528804,0.9652972,0.2637339,0.363503,0.6322367,0.59619415,0.049901195,-0.03624116,0.7599527,-0.0065486636,-0.3305667,-0.40896708,0.6739496,758.71796,783.2967,786.52014,773.6264,829.6337,0.81488037109375,-0.0975341796875,0.56640625,5.211334228515625,-5.39825439453125,0.157012939453125,1.0,1.0,1.0,1.0,1.0,50.0,
2023-09-09 22:58:28.185,1.4536464,0.43608856,1.0745187,0.5542197,1.101916,0.0701821,0.302339,0.59528804,0.986814,0.2637339,0.363503,0.6322367,0.61012,0.07047403,-0.021454813,0.7599527,-0.009893927,-0.33681804,-0.39545658,0.6739496,751.4652,775.64105,782.49084,778.46155,815.9341,0.81488037109375,-0.0975341796875,0.56640625,5.211334228515625,-5.39825439453125,0.157012939453125,1.0,1.0,1.0,1.0,1.0,50.0,
2023-09-09 22:58:28.232,1.4536464,0.43608856,1.0745187,0.5542197,1.101916,0.0701821,0.302339,0.59528804,0.986814,0.2637339,0.363503,0.6322367,0.61012,0.07047403,-0.021454813,0.7599527,-0.009893927,-0.33681804,-0.39545658,0.6739496,749.85345,788.1319,789.34064,794.57874,949.304,0.81805419921875,-0.09588623046875,0.561767578125,5.076751708984375,-4.164581298828125,-0.770111083984375,1.0,1.0,1.0,1.0,1.0,50.0,
2023-09-09 22:58:28.265,1.4536464,0.43608856,1.0745187,0.5542197,1.101916,0.0701821,0.302339,0.59528804,0.986814,0.2637339,0.363503,0.6322367,0.61012,0.07047403,-0.021454813,0.7599527,-0.009893927,-0.33681804,-0.39545658,0.6739496,750.65936,785.31134,784.5055,756.30035,814.3223,0.80975341796875,-0.0958251953125,0.5631103515625,4.403839111328125,-3.671112060546875,-1.024322509765625,1.0,1.0,1.0,1.0,1.0,50.0,
2023-09-09 22:58:28.269,1.4536464,0.4885913,1.086299,0.5542197,1.101916,0.09692572,0.3315191,0.59528804,0.986814,0.27008888,0.363503,0.6322367,0.61012,0.07903565,-0.011756565,0.7599527,-0.009893927,-0.35268244,-0.39294615,0.6739496,743.4066,786.9231,782.0879,768.3883,982.74725,0.80975341796875,-0.0958251953125,0.5631103515625,4.403839111328125,-3.671112060546875,-1.024322509765625,1.0,1.0,1.0,1.0,1.0,50.0,
2023-09-09 22:58:28.400,1.4536464,0.4885913,1.086299,0.5542197,1.101916,0.09692572,0.3315191,0.59528804,0.986814,0.27008888,0.363503,0.6322367,0.61012,0.07903565,-0.011756565,0.7599527,-0.009893927,-0.35268244,-0.39294615,0.6739496,759.12085,779.2674,788.93774,784.10254,747.03296,0.8043212890625,-0.10675048828125,0.56005859375,3.401947021484375,-3.910369873046875,-1.742095947265625,1.0,1.0,1.0,1.0,1.0,50.0,
2023-09-09 22:58:28.405,1.4536464,0.5167994,1.0918837,0.44582546,1.101916,0.1076928,0.35425937,0.7926816,0.986814,0.28373656,0.363503,0.8973327,0.61012,0.07452262,-0.01179691,0.8362031,-0.009893927,-0.37798795,-0.40471026,0.8923474,746.2271,784.90845,778.86444,785.7143,1073.8096,0.8043212890625,-0.10675048828125,0.56005859375,3.401947021484375,-3.910369873046875,-1.742095947265625,1.0,1.0,1.0,1.0,1.0,50.0,
2023-09-09 22:58:28.447,1.4536464,0.5167994,1.0918837,0.44582546,1.101916,0.1076928,0.35425937,0.7926816,0.986814,0.28373656,0.363503,0.8973327,0.61012,0.07452262,-0.01179691,0.8362031,-0.009893927,-0.37798795,-0.40471026,0.8923474,763.5531,784.5055,784.90845,794.9817,912.23444,0.82452392578125,-0.10797119140625,0.55169677734375,5.21881103515625,-4.366455078125,-0.201873779296875,1.0,1.0,1.0,1.0,1.0,50.0,
2023-09-09 22:58:28.498,1.4536464,0.5167994,1.0918837,0.44582546,1.101916,0.1076928,0.35425937,0.7926816,0.986814,0.28373656,0.363503,0.8973327,0.61012,0.07452262,-0.01179691,0.8362031,-0.009893927,-0.37798795,-0.40471026,0.8923474,748.6447,785.7143,784.10254,808.68134,794.9817,0.81463623046875,-0.10986328125,0.55133056640625,5.585174560546875,-4.000091552734375,1.8243408203125,1.0,1.0,1.0,1.0,1.0,50.0,
2023-09-09 22:58:28.503,1.4417679,0.5220211,1.0889467,0.40446892,1.0964482,0.10372736,0.36740243,0.76389194,0.986814,0.3086352,0.37286538,0.9105778,0.5944445,0.06095772,-0.023252917,0.8138465,-0.023820916,-0.40831715,-0.4269299,0.856454,751.06226,781.28204,774.83514,801.02563,911.8315,0.81463623046875,-0.10986328125,0.55133056640625,5.585174560546875,-4.000091552734375,1.8243408203125,1.0,1.0,1.0,1.0,1.0,50.0,
2023-09-09 22:58:28.556,1.4417679,0.5220211,1.0889467,0.40446892,1.0964482,0.10372736,0.36740243,0.76389194,0.986814,0.3086352,0.37286538,0.9105778,0.5944445,0.06095772,-0.023252917,0.8138465,-0.023820916,-0.40831715,-0.4269299,0.856454,755.09155,781.28204,778.0586,799.011,1102.8206,0.8021240234375,-0.09942626953125,0.552978515625,6.62445068359375,-3.282318115234375,1.36077880859375,1.0,1.0,1.0,1.0,1.0,50.0,
2023-09-09 22:58:28.608,1.4417679,0.5220211,1.0889467,0.40446892,1.0964482,0.10372736,0.36740243,0.76389194,0.986814,0.3086352,0.37286538,0.9105778,0.5944445,0.06095772,-0.023252917,0.8138465,-0.023820916,-0.40831715,-0.4269299,0.856454,746.2271,788.93774,788.5348,792.5641,901.75824,0.8070068359375,-0.09112548828125,0.56927490234375,7.110443115234375,-3.416900634765625,-0.31402587890625,1.0,1.0,1.0,1.0,1.0,50.0,
2023-09-09 22:58:28.616,1.4190034,0.50853336,1.0809642,0.3886855,1.0781437,0.08591667,0.37180114,0.7465394,0.986814,0.32248166,0.377883,0.9363482,0.5756881,0.043037675,-0.044851206,0.80118746,-0.037833888,-0.43641245,-0.4503709,0.8395511,734.5421,785.31134,778.0586,734.94507,806.26373,0.8070068359375,-0.09112548828125,0.56927490234375,7.110443115234375,-3.416900634765625,-0.31402587890625,1.0,1.0,1.0,1.0,1.0,50.0,
2023-09-09 22:58:28.675,1.4190034,0.50853336,1.0809642,0.3886855,1.0781437,0.08591667,0.37180114,0.7465394,0.986814,0.32248166,0.377883,0.9363482,0.5756881,0.043037675,-0.044851206,0.80118746,-0.037833888,-0.43641245,-0.4503709,0.8395511,737.76556,782.8938,780.4762,763.1502,787.326,0.8111572265625,-0.09375,0.56903076171875,5.15899658203125,-2.04864501953125,-1.60003662109375,1.0,1.0,1.0,1.0,1.0,50.0,
2023-09-09 22:58:28.705,1.4190034,0.50853336,1.0809642,0.3886855,1.0781437,0.08591667,0.37180114,0.7465394,0.986814,0.32248166,0.377883,0.9363482,0.5756881,0.043037675,-0.044851206,0.80118746,-0.037833888,-0.43641245,-0.4503709,0.8395511,740.58606,781.28204,776.04395,752.27106,817.5458,0.802978515625,-0.1024169921875,0.55792236328125,3.671112060546875,-1.667327880859375,-2.10845947265625,1.0,1.0,1.0,1.0,1.0,50.0,
2023-09-09 22:58:28.707,1.3924024,0.48888204,1.0750891,0.47063208,1.0528187,0.06040078,0.3709973,0.7415018,0.9880735,0.31661955,0.377883,0.9635667,0.56288683,0.024634222,-0.070498906,0.7987163,-0.04661543,-0.45467243,-0.46564803,0.8358587,741.79486,780.87915,779.67035,766.3736,866.7033,0.802978515625,-0.1024169921875,0.55792236328125,3.671112060546875,-1.667327880859375,-2.10845947265625,1.0,1.0,1.0,1.0,1.0,50.0,
2023-09-09 22:58:28.760,1.3924024,0.48888204,1.0750891,0.47063208,1.0528187,0.06040078,0.3709973,0.7415018,0.9880735,0.31661955,0.377883,0.9635667,0.56288683,0.024634222,-0.070498906,0.7987163,-0.04661543,-0.45467243,-0.46564803,0.8358587,748.24176,776.8498,781.28204,755.09155,772.4176,0.8045654296875,-0.09356689453125,0.546142578125,5.5029296875,-1.92901611328125,-1.562652587890625,1.0,1.0,1.0,1.0,1.0,50.0,
2023-09-09 22:58:28.814,1.3924024,0.48888204,1.0750891,0.47063208,1.0528187,0.06040078,0.3709973,0.7415018,0.9880735,0.31661955,0.377883,0.9635667,0.56288683,0.024634222,-0.070498906,0.7987163,-0.04661543,-0.45467243,-0.46564803,0.8358587,746.2271,782.8938,778.46155,758.71796,950.9158,0.82598876953125,-0.09368896484375,0.58258056640625,4.59075927734375,-2.87109375,-2.452392578125,1.0,1.0,1.0,1.0,1.0,50.0,
2023-09-09 22:58:28.818,1.392241,0.47442508,1.0688412,0.6948341,1.0425301,0.038397636,0.3681533,0.7441471,0.99209297,0.30555236,0.377883,0.9711019,0.5535755,0.0083508,-0.09183392,0.8056198,-0.05590141,-0.45874414,-0.47114608,0.8351554,749.85345,784.90845,781.685,772.01465,979.92676,0.82598876953125,-0.09368896484375,0.58258056640625,4.59075927734375,-2.87109375,-2.452392578125,1.0,1.0,1.0,1.0,1.0,50.0,
2023-09-09 22:58:28.929,1.392241,0.47442508,1.0688412,0.6948341,1.0425301,0.038397636,0.3681533,0.7441471,0.99209297,0.30555236,0.377883,0.9711019,0.5535755,0.0083508,-0.09183392,0.8056198,-0.05590141,-0.45874414,-0.47114608,0.8351554,720.4396,774.43225,772.01465,756.7033,921.50183,0.8245849609375,-0.080322265625,0.5631103515625,3.715972900390625,1.906585693359375,-1.0467529296875,1.0,1.0,1.0,1.0,1.0,50.0,
2023-09-09 22:58:28.934,1.3908911,0.46538943,1.047327,0.6948341,1.027288,0.028411971,0.36000958,0.7441471,0.9960711,0.294927,0.377883,0.9711019,0.54929376,-0.003852801,-0.102437764,0.8056198,-0.061903335,-0.4522808,-0.47137734,0.8351554,750.65936,778.86444,778.46155,773.22345,1003.2967,0.8245849609375,-0.080322265625,0.5631103515625,3.715972900390625,1.906585693359375,-1.0467529296875,1.0,1.0,1.0,1.0,1.0,50.0,
2023-09-09 22:58:28.945,1.3908911,0.46538943,1.047327,0.6948341,1.027288,0.028411971,0.36000958,0.7441471,0.9960711,0.294927,0.377883,0.9711019,0.54929376,-0.003852801,-0.102437764,0.8056198,-0.061903335,-0.4522808,-0.47137734,0.8351554,739.7802,780.4762,784.90845,784.5055,823.9927,0.8109130859375,-0.08612060546875,0.56610107421875,2.13836669921875,1.712188720703125,0.112152099609375,1.0,1.0,1.0,1.0,1.0,50.0,
2023-09-09 22:58:28.994,1.3908911,0.46538943,1.047327,0.6948341,1.027288,0.028411971,0.36000958,0.7441471,0.9960711,0.294927,0.377883,0.9711019,0.54929376,-0.003852801,-0.102437764,0.8056198,-0.061903335,-0.4522808,-0.47137734,0.8351554,743.4066,781.28204,789.34064,784.90845,857.03296,0.7978515625,-0.091064453125,0.5550537109375,0.366363525390625,1.45050048828125,0.785064697265625,1.0,1.0,1.0,1.0,1.0,50.0,
2023-09-09 22:58:29.000,1.3894013,0.456487,0.9986897,0.6948341,1.0124012,0.028656002,0.33888915,0.7441471,0.9963664,0.29083815,0.377883,0.9711019,0.54666036,-0.010458405,-0.10335905,0.8056198,-0.07506712,-0.4464838,-0.47252548,0.8351554,738.1685,788.93774,788.5348,772.8205,792.5641,0.7978515625,-0.091064453125,0.5550537109375,0.366363525390625,1.45050048828125,0.785064697265625,1.0,1.0,1.0,1.0,1.0,50.0,
2023-09-09 22:58:29.057,1.3894013,0.456487,0.9986897,0.6948341,1.0124012,0.028656002,0.33888915,0.7441471,0.9963664,0.29083815,0.377883,0.9711019,0.54666036,-0.010458405,-0.10335905,0.8056198,-0.07506712,-0.4464838,-0.47252548,0.8351554,735.34796,784.5055,780.4762,780.4762,780.07324,0.78863525390625,-0.12005615234375,0.5574951171875,-0.657958984375,1.054229736328125,-1.6748046875,1.0,1.0,1.0,1.0,1.0,50.0,
2023-09-09 22:58:29.091,1.3894013,0.456487,0.9986897,0.6948341,1.0124012,0.028656002,0.33888915,0.7441471,0.9963664,0.29083815,0.377883,0.9711019,0.54666036,-0.010458405,-0.10335905,0.8056198,-0.07506712,-0.4464838,-0.47252548,0.8351554,737.3626,775.64105,772.8205,783.69965,856.2271,0.797119140625,-0.1416015625,0.563232421875,0.022430419921875,-0.19439697265625,-4.5159912109375,1.0,1.0,1.0,1.0,1.0,50.0,
2023-09-09 22:58:29.099,1.3841975,0.44824564,0.91545624,0.6948341,1.005476,0.030068725,0.30231583,0.7441471,0.9963664,0.28687817,0.37392536,0.9711019,0.5431272,-0.010383069,-0.10128535,0.8056198,-0.09959776,-0.45148167,-0.47692865,0.8351554,753.0769,783.2967,782.49084,780.07324,843.3333,0.797119140625,-0.1416015625,0.563232421875,0.022430419921875,-0.19439697265625,-4.5159912109375,1.0,1.0,1.0,1.0,1.0,50.0,
2023-09-09 22:58:29.170,1.3841975,0.44824564,0.91545624,0.6948341,1.005476,0.030068725,0.30231583,0.7441471,0.9963664,0.28687817,0.37392536,0.9711019,0.5431272,-0.010383069,-0.10128535,0.8056198,-0.09959776,-0.45148167,-0.47692865,0.8351554,776.8498,780.4762,782.49084,788.5348,952.1245,0.8040771484375,-0.15447998046875,0.5518798828125,2.6318359375,-1.876678466796875,-5.016937255859375,1.0,1.0,1.0,1.0,1.0,50.0,
2023-09-09 22:58:29.217,1.3841975,0.44824564,0.91545624,0.6948341,1.005476,0.030068725,0.30231583,0.7441471,0.9963664,0.28687817,0.37392536,0.9711019,0.5431272,-0.010383069,-0.10128535,0.8056198,-0.09959776,-0.45148167,-0.47692865,0.8351554,758.315,786.1172,780.4762,794.17584,876.3736,0.8095703125,-0.14202880859375,0.572998046875,6.3702392578125,-2.25799560546875,-2.28790283203125,1.0,1.0,1.0,1.0,1.0,50.0,
2023-09-09 22:58:29.218,1.3684953,0.44237164,0.7980089,0.6948341,1.0058419,0.025319459,0.2636341,0.7441471,0.9963664,0.28687817,0.35656643,0.9711019,0.5413403,-0.0055125733,-0.10326852,0.8056198,-0.13036641,-0.46911496,-0.4838615,0.8351554,765.16486,783.2967,776.8498,777.6557,844.5421,0.8095703125,-0.14202880859375,0.572998046875,6.3702392578125,-2.25799560546875,-2.28790283203125,1.0,1.0,1.0,1.0,1.0,50.0,
2023-09-09 22:58:29.251,1.3684953,0.44237164,0.7980089,0.6948341,1.0058419,0.025319459,0.2636341,0.7441471,0.9963664,0.28687817,0.35656643,0.9711019,0.5413403,-0.0055125733,-0.10326852,0.8056198,-0.13036641,-0.46911496,-0.4838615,0.8351554,782.49084,790.14655,779.2674,790.14655,1094.359,0.7996826171875,-0.099609375,0.59185791015625,10.39276123046875,-2.983245849609375,2.82623291015625,1.0,1.0,1.0,1.0,1.0,50.0,
2023-09-09 22:58:29.329,1.3684953,0.44237164,0.7980089,0.6948341,1.0058419,0.025319459,0.2636341,0.7441471,0.9963664,0.28687817,0.35656643,0.9711019,0.5413403,-0.0055125733,-0.10326852,0.8056198,-0.13036641,-0.46911496,-0.4838615,0.8351554,748.24176,787.326,775.2381,771.2088,888.0586,0.76702880859375,-0.07666015625,0.61529541015625,7.67120361328125,-2.385101318359375,3.7384033203125,1.0,1.0,1.0,1.0,1.0,50.0,
2023-09-09 22:58:29.332,1.3300028,0.43419442,0.66619724,0.6948341,0.99863863,0.008819806,0.2445837,0.7441471,0.9963664,0.28687817,0.32165992,0.9711019,0.5415081,-0.0025099618,-0.11359717,0.8056198,-0.15747324,-0.49217263,-0.49271125,0.8351554,749.45056,784.90845,773.22345,768.3883,967.4359,0.76702880859375,-0.07666015625,0.61529541015625,7.67120361328125,-2.385101318359375,3.7384033203125,1.0,1.0,1.0,1.0,1.0,50.0,
2023-09-09 22:58:29.376,1.3300028,0.43419442,0.66619724,0.6948341,0.99863863,0.008819806,0.2445837,0.7441471,0.9963664,0.28687817,0.32165992,0.9711019,0.5415081,-0.0025099618,-0.11359717,0.8056198,-0.15747324,-0.49217263,-0.49271125,0.8351554,759.92676,789.7436,775.2381,784.10254,918.68134,0.75250244140625,-0.098876953125,0.5745849609375,2.788848876953125,-2.811279296875,-0.8074951171875,1.0,1.0,1.0,1.0,1.0,50.0,
2023-09-09 22:58:29.421,1.2672943,0.42053336,0.54956585,0.6948341,0.9723112,-0.02357052,0.25015494,0.7441471,0.98204297,0.28687817,0.25767317,0.9711019,0.5370538,-0.010108702,-0.13332613,0.8056198,-0.17146571,-0.5112698,-0.50645024,0.8351554,760.32965,785.31134,770.0,775.2381,881.6117,0.75250244140625,-0.098876953125,0.5745849609375,2.788848876953125,-2.811279296875,-0.8074951171875,1.0,1.0,1.0,1.0,1.0,50.0,
2023-09-09 22:58:29.468,1.2672943,0.42053336,0.54956585,0.6948341,0.9723112,-0.02357052,0.25015494,0.7441471,0.98204297,0.28687817,0.25767317,0.9711019,0.5370538,-0.010108702,-0.13332613,0.8056198,-0.17146571,-0.5112698,-0.50645024,0.8351554,754.68866,787.326,776.04395,783.2967,778.0586,0.78857421875,-0.11920166015625,0.5540771484375,3.6187744140625,-4.97955322265625,-4.254302978515625,1.0,1.0,1.0,1.0,1.0,50.0,
2023-09-09 22:58:29.511,1.2672943,0.42053336,0.54956585,0.6948341,0.9723112,-0.02357052,0.25015494,0.7441471,0.98204297,0.28687817,0.25767317,0.9711019,0.5370538,-0.010108702,-0.13332613,0.8056198,-0.17146571,-0.5112698,-0.50645024,0.8351554,759.92676,790.9524,783.69965,790.9524,839.707,0.82025146484375,-0.11248779296875,0.56243896484375,6.83380126953125,-6.123504638671875,-1.734619140625,1.0,1.0,1.0,1.0,1.0,50.0,
2023-09-09 22:58:29.518,1.1886235,0.39937708,0.47487324,0.6948341,0.9265314,-0.07772188,0.26089743,0.7441471,0.92424077,0.2755542,0.17371503,0.9711019,0.5243581,-0.032838423,-0.16248415,0.8056198,-0.17139822,-0.52570987,-0.5294134,0.8351554,756.30035,788.93774,776.4469,803.0403,767.98535,0.82025146484375,-0.11248779296875,0.56243896484375,6.83380126953125,-6.123504638671875,-1.734619140625,1.0,1.0,1.0,1.0,1.0,50.0,
2023-09-09 22:58:29.559,1.1886235,0.39937708,0.47487324,0.6948341,0.9265314,-0.07772188,0.26089743,0.7441471,0.92424077,0.2755542,0.17371503,0.9711019,0.5243581,-0.032838423,-0.16248415,0.8056198,-0.17139822,-0.52570987,-0.5294134,0.8351554,741.39197,786.9231,775.2381,805.05493,857.8388,0.8289794921875,-0.09429931640625,0.5665283203125,9.428253173828123,-5.682373046875,1.0467529296875,1.0,1.0,1.0,1.0,1.0,50.0,
2023-09-09 22:58:29.612,1.1886235,0.39937708,0.47487324,0.6948341,0.9265314,-0.07772188,0.26089743,0.7441471,0.92424077,0.2755542,0.17371503,0.9711019,0.5243581,-0.032838423,-0.16248415,0.8056198,-0.17139822,-0.52570987,-0.5294134,0.8351554,753.47986,783.69965,780.4762,791.3553,1054.0659,0.81219482421875,-0.06646728515625,0.5733642578125,10.609588623046877,-2.220611572265625,2.803802490234375,1.0,1.0,1.0,1.0,1.0,50.0,
2023-09-09 22:58:29.618,1.1176372,0.36807555,0.42941087,0.6934954,0.86899376,-0.15306212,0.25690457,0.74640864,0.88181716,0.25044125,0.117333606,0.9391698,0.5091265,-0.06572674,-0.1968522,0.7904907,-0.16511609,-0.5439804,-0.56327873,0.8061076,743.4066,787.72894,773.22345,763.1502,943.2601,0.81219482421875,-0.06646728515625,0.5733642578125,10.609588623046877,-2.220611572265625,2.803802490234375,1.0,1.0,1.0,1.0,1.0,50.0,
2023-09-09 22:58:29.697,1.1176372,0.36807555,0.42941087,0.6934954,0.86899376,-0.15306212,0.25690457,0.74640864,0.88181716,0.25044125,0.117333606,0.9391698,0.5091265,-0.06572674,-0.1968522,0.7904907,-0.16511609,-0.5439804,-0.56327873,0.8061076,765.56775,787.72894,783.2967,788.1319,760.7326,0.79412841796875,-0.06353759765625,0.57025146484375,7.738494873046875,-2.026214599609375,0.904693603515625,1.0,1.0,1.0,1.0,1.0,50.0,
2023-09-09 22:58:29.703,1.0536377,0.3269406,0.38163355,0.7224,0.8067174,-0.2359599,0.23538613,0.7254769,0.7820706,0.24087879,0.11440116,0.8853456,0.49905977,-0.09690315,-0.22865316,0.77474827,-0.16125907,-0.56967103,-0.6033022,0.7764699,773.22345,787.72894,786.9231,790.9524,829.6337,0.79412841796875,-0.06353759765625,0.57025146484375,7.738494873046875,-2.026214599609375,0.904693603515625,1.0,1.0,1.0,1.0,1.0,50.0,
2023-09-09 22:58:29.747,1.0536377,0.3269406,0.38163355,0.7224,0.8067174,-0.2359599,0.23538613,0.7254769,0.7820706,0.24087879,0.11440116,0.8853456,0.49905977,-0.09690315,-0.22865316,0.77474827,-0.16125907,-0.56967103,-0.6033022,0.7764699,778.46155,788.5348,785.31134,803.0403,889.2674,0.7926025390625,-0.07171630859375,0.5714111328125,5.203857421875,-3.431854248046875,-0.95703125,1.0,1.0,1.0,1.0,1.0,50.0,
2023-09-09 22:58:29.812,1.0536377,0.3269406,0.38163355,0.7224,0.8067174,-0.2359599,0.23538613,0.7254769,0.7820706,0.24087879,0.11440116,0.8853456,0.49905977,-0.09690315,-0.22865316,0.77474827,-0.16125907,-0.56967103,-0.6033022,0.7764699,755.4945,789.7436,783.2967,770.0,879.59705,0.80145263671875,-0.0792236328125,0.56951904296875,3.3795166015625,-3.96270751953125,-3.2598876953125,1.0,1.0,1.0,1.0,1.0,50.0,
2023-09-09 22:58:29.847,1.0536377,0.3269406,0.38163355,0.7224,0.8067174,-0.2359599,0.23538613,0.7254769,0.7820706,0.24087879,0.11440116,0.8853456,0.49905977,-0.09690315,-0.22865316,0.77474827,-0.16125907,-0.56967103,-0.6033022,0.7764699,748.6447,780.07324,783.69965,766.77655,853.4066,0.80450439453125,-0.09765625,0.55426025390625,1.532745361328125,-6.041259765625,-4.687957763671875,1.0,1.0,1.0,1.0,1.0,50.0,
2023-09-09 22:58:29.848,1.0582936,0.2757152,0.3276212,0.7744211,0.8048828,-0.30241522,0.20278248,0.6975316,0.80610883,0.23077025,0.11551841,0.818128,0.50969136,-0.11856675,-0.24877237,0.7671555,-0.1513104,-0.595738,-0.6395853,0.7604337,743.4066,777.6557,786.9231,771.6117,913.8461,0.80450439453125,-0.09765625,0.55426025390625,1.532745361328125,-6.041259765625,-4.687957763671875,1.0,1.0,1.0,1.0,1.0,50.0,
2023-09-09 22:58:29.896,1.0582936,0.2757152,0.3276212,0.7744211,0.8048828,-0.30241522,0.20278248,0.6975316,0.80610883,0.23077025,0.11551841,0.818128,0.50969136,-0.11856675,-0.24877237,0.7671555,-0.1513104,-0.595738,-0.6395853,0.7604337,749.45056,781.28204,782.8938,770.0,766.77655,0.80596923828125,-0.10125732421875,0.5467529296875,4.97955322265625,-4.463653564453125,-4.47113037109375,1.0,1.0,1.0,1.0,1.0,50.0,
2023-09-09 22:58:29.948,1.0513134,0.22487597,0.2818627,0.8542731,0.79816544,-0.33659303,0.17017418,0.6889065,0.80715096,0.20078702,0.14922965,0.74896574,0.5120864,-0.135233,-0.2563075,0.75994074,-0.13870275,-0.61266804,-0.66335845,0.73020494,738.97437,778.46155,774.43225,779.67035,776.4469,0.80596923828125,-0.10125732421875,0.5467529296875,4.97955322265625,-4.463653564453125,-4.47113037109375,1.0,1.0,1.0,1.0,1.0,50.0,
2023-09-09 22:58:29.986,1.0513134,0.22487597,0.2818627,0.8542731,0.79816544,-0.33659303,0.17017418,0.6889065,0.80715096,0.20078702,0.14922965,0.74896574,0.5120864,-0.135233,-0.2563075,0.75994074,-0.13870275,-0.61266804,-0.66335845,0.73020494,748.6447,775.2381,770.0,760.32965,840.10986,0.7958984375,-0.09686279296875,0.54290771484375,7.723541259765625,-4.62066650390625,-6.093597412109375,1.0,1.0,1.0,1.0,1.0,50.0,
2023-09-09 22:58:30.016,1.0513134,0.22487597,0.2818627,0.8542731,0.79816544,-0.33659303,0.17017418,0.6889065,0.80715096,0.20078702,0.14922965,0.74896574,0.5120864,-0.135233,-0.2563075,0.75994074,-0.13870275,-0.61266804,-0.66335845,0.73020494,754.68866,779.2674,780.87915,781.28204,866.30035,0.826416015625,-0.0965576171875,0.54364013671875,9.428253173828123,-6.766510009765625,-5.390777587890625,1.0,1.0,1.0,1.0,1.0,50.0,
2023-09-09 22:58:30.019,1.0211761,0.19256036,0.2526541,0.92756116,0.7691858,-0.34194422,0.14487949,0.73840076,0.80715096,0.17908415,0.20661965,0.68439066,0.5134605,-0.15669273,-0.2567551,0.7905909,-0.114567675,-0.6179502,-0.6747492,0.71897954,754.2857,779.2674,781.28204,793.36993,884.43225,0.826416015625,-0.0965576171875,0.54364013671875,9.428253173828123,-6.766510009765625,-5.390777587890625,1.0,1.0,1.0,1.0,1.0,50.0,
2023-09-09 22:58:30.103,1.0211761,0.19256036,0.2526541,0.92756116,0.7691858,-0.34194422,0.14487949,0.73840076,0.80715096,0.17908415,0.20661965,0.68439066,0.5134605,-0.15669273,-0.2567551,0.7905909,-0.114567675,-0.6179502,-0.6747492,0.71897954,756.30035,786.1172,775.64105,771.6117,925.5311,0.8441162109375,-0.06304931640625,0.560302734375,10.93109130859375,-8.874969482421875,-0.538330078125,1.0,1.0,1.0,1.0,1.0,50.0,
2023-09-09 22:58:30.168,1.0211761,0.19256036,0.2526541,0.92756116,0.7691858,-0.34194422,0.14487949,0.73840076,0.80715096,0.17908415,0.20661965,0.68439066,0.5134605,-0.15669273,-0.2567551,0.7905909,-0.114567675,-0.6179502,-0.6747492,0.71897954,730.9158,762.3443,783.2967,793.7729,1008.93774,0.81689453125,-0.05029296875,0.57354736328125,8.516082763671875,-4.628143310546875,-1.816864013671875,1.0,1.0,1.0,1.0,1.0,50.0,
2023-09-09 22:58:30.175,1.0224783,0.20358819,0.24523418,1.0117867,0.76050544,-0.32546008,0.1289636,0.79577917,0.80715096,0.1403644,0.22802575,0.7077184,0.5162884,-0.18413325,-0.25127104,0.8383857,-0.08422318,-0.6167607,-0.6812293,0.699931,759.12085,776.4469,777.25275,760.7326,930.7692,0.81689453125,-0.05029296875,0.57354736328125,8.516082763671875,-4.628143310546875,-1.816864013671875,1.0,1.0,1.0,1.0,1.0,50.0,
2023-09-09 22:58:30.224,1.0224783,0.20358819,0.24523418,1.0117867,0.76050544,-0.32546008,0.1289636,0.79577917,0.80715096,0.1403644,0.22802575,0.7077184,0.5162884,-0.18413325,-0.25127104,0.8383857,-0.08422318,-0.6167607,-0.6812293,0.699931,772.8205,776.04395,776.8498,766.77655,805.8608,0.8538818359375,-0.10101318359375,0.56597900390625,3.4991455078125,-2.205657958984375,-3.9178466796875,1.0,1.0,1.0,1.0,1.0,50.0,
2023-09-09 22:58:30.230,1.0442848,0.25297952,0.25100487,1.0811031,0.76521546,-0.2905342,0.12004914,0.8240101,0.80715096,0.09714513,0.21413004,0.7307433,0.5159985,-0.2095952,-0.23618563,0.87954783,-0.060337666,-0.614354,-0.68907034,0.66030204,746.63007,783.2967,776.4469,770.40295,947.6923,0.8538818359375,-0.10101318359375,0.56597900390625,3.4991455078125,-2.205657958984375,-3.9178466796875,1.0,1.0,1.0,1.0,1.0,50.0,
2023-09-09 22:58:30.264,1.0442848,0.25297952,0.25100487,1.0811031,0.76521546,-0.2905342,0.12004914,0.8240101,0.80715096,0.09714513,0.21413004,0.7307433,0.5159985,-0.2095952,-0.23618563,0.87954783,-0.060337666,-0.614354,-0.68907034,0.66030204,740.18317,781.685,775.64105,770.0,783.2967,0.8670654296875,-0.06915283203125,0.54888916015625,6.89361572265625,-1.577606201171875,8.4637451171875,1.0,1.0,1.0,1.0,1.0,50.0,
2023-09-09 22:58:30.292,1.0442848,0.25297952,0.25100487,1.0811031,0.76521546,-0.2905342,0.12004914,0.8240101,0.80715096,0.09714513,0.21413004,0.7307433,0.5159985,-0.2095952,-0.23618563,0.87954783,-0.060337666,-0.614354,-0.68907034,0.66030204,764.7619,789.34064,782.49084,802.6374,897.72894,0.81689453125,-0.05670166015625,0.542724609375,6.160888671875,0.859832763671875,9.817047119140623,1.0,1.0,1.0,1.0,1.0,50.0,
2023-09-09 22:58:30.301,1.0677774,0.31875196,0.26673013,1.0685065,0.77445465,-0.23306568,0.11722607,0.8063343,0.80715096,0.12127587,0.20987272,0.67436993,0.5102856,-0.22056268,-0.21284433,0.9032554,-0.047169603,-0.6139185,-0.69729877,0.60288936,780.4762,798.20514,784.5055,799.011,789.34064,0.81689453125,-0.05670166015625,0.542724609375,6.160888671875,0.859832763671875,9.817047119140623,1.0,1.0,1.0,1.0,1.0,50.0,
2023-09-09 22:58:30.333,1.0677774,0.31875196,0.26673013,1.0685065,0.77445465,-0.23306568,0.11722607,0.8063343,0.80715096,0.12127587,0.20987272,0.67436993,0.5102856,-0.22056268,-0.21284433,0.9032554,-0.047169603,-0.6139185,-0.69729877,0.60288936,761.53845,794.57874,780.87915,796.99634,964.61536,0.81658935546875,-0.0594482421875,0.53466796875,4.38140869140625,1.854248046875,4.6954345703125,1.0,1.0,1.0,1.0,1.0,50.0,
2023-09-09 22:58:30.392,1.0677774,0.31875196,0.26673013,1.0685065,0.77445465,-0.23306568,0.11722607,0.8063343,0.80715096,0.12127587,0.20987272,0.67436993,0.5102856,-0.22056268,-0.21284433,0.9032554,-0.047169603,-0.6139185,-0.69729877,0.60288936,742.6007,789.34064,779.2674,804.65204,900.54944,0.807373046875,-0.05926513671875,0.5517578125,3.865509033203125,2.145843505859375,1.816864013671875,1.0,1.0,1.0,1.0,1.0,50.0,
2023-09-09 22:58:30.430,1.0814787,0.38423994,0.2910546,1.1022619,0.7880227,-0.1633153,0.11846297,0.75534576,0.79657453,0.19668221,0.20698093,0.7565126,0.50900865,-0.21054676,-0.19184507,0.9147963,-0.039228953,-0.61292845,-0.7030584,0.59846,757.50916,784.10254,779.2674,798.60803,806.26373,0.807373046875,-0.05926513671875,0.5517578125,3.865509033203125,2.145843505859375,1.816864013671875,1.0,1.0,1.0,1.0,1.0,50.0,
2023-09-09 22:58:30.461,1.0814787,0.38423994,0.2910546,1.1022619,0.7880227,-0.1633153,0.11846297,0.75534576,0.79657453,0.19668221,0.20698093,0.7565126,0.50900865,-0.21054676,-0.19184507,0.9147963,-0.039228953,-0.61292845,-0.7030584,0.59846,816.337,834.0659,830.4396,855.82416,869.5238,0.77392578125,-0.088134765625,0.5518798828125,0.411224365234375,2.4822998046875,-2.833709716796875,1.0,1.0,1.0,1.0,1.0,50.0,
2023-09-09 22:58:30.523,1.0814787,0.38423994,0.2910546,1.1022619,0.7880227,-0.1633153,0.11846297,0.75534576,0.79657453,0.19668221,0.20698093,0.7565126,0.50900865,-0.21054676,-0.19184507,0.9147963,-0.039228953,-0.61292845,-0.7030584,0.59846,777.25275,825.6044,830.4396,821.1722,807.0696,0.8092041015625,-0.09197998046875,0.54931640625,2.82623291015625,-3.648681640625,-3.461761474609375,1.0,1.0,1.0,1.0,1.0,50.0,
2023-09-09 22:58:30.524,1.0975529,0.48321533,0.33717245,1.1022619,0.8146016,-0.07529477,0.12927559,0.75534576,0.8127618,0.27247927,0.19728492,0.7565126,0.5248427,-0.1816956,-0.18025988,0.9147963,-0.027341792,-0.60473716,-0.7048236,0.59846,770.40295,826.8132,831.2454,799.011,821.1722,0.8092041015625,-0.09197998046875,0.54931640625,2.82623291015625,-3.648681640625,-3.461761474609375,1.0,1.0,1.0,1.0,1.0,50.0,
2023-09-09 22:58:30.598,1.0975529,0.48321533,0.33717245,1.1022619,0.8146016,-0.07529477,0.12927559,0.75534576,0.8127618,0.27247927,0.19728492,0.7565126,0.5248427,-0.1816956,-0.18025988,0.9147963,-0.027341792,-0.60473716,-0.7048236,0.59846,738.5714,751.4652,828.4249,745.0183,826.4103,0.79461669921875,-0.1177978515625,0.55633544921875,2.848663330078125,-2.100982666015625,-4.68048095703125,1.0,1.0,1.0,1.0,1.0,50.0,
2023-09-09 22:58:30.637,1.0975529,0.48321533,0.33717245,1.1022619,0.8146016,-0.07529477,0.12927559,0.75534576,0.8127618,0.27247927,0.19728492,0.7565126,0.5248427,-0.1816956,-0.18025988,0.9147963,-0.027341792,-0.60473716,-0.7048236,0.59846,744.21246,745.42126,795.38464,763.1502,818.7546,0.82037353515625,-0.1163330078125,0.5347900390625,7.215118408203125,-0.55328369140625,-4.5458984375,1.0,1.0,1.0,1.0,1.0,50.0,
2023-09-09 22:58:30.641,1.114936,0.50889826,0.4496203,1.1022619,0.8675985,-0.0657225,0.15949531,0.75534576,0.85017943,0.26750907,0.18680228,0.7565126,0.5568465,-0.18633361,-0.17172334,0.9147963,-0.007407425,-0.6072394,-0.70123935,0.59846,756.7033,756.30035,788.93774,795.38464,983.1502,0.82037353515625,-0.1163330078125,0.5347900390625,7.215118408203125,-0.55328369140625,-4.5458984375,1.0,1.0,1.0,1.0,1.0,50.0,
2023-09-09 22:58:30.713,1.114936,0.50889826,0.4496203,1.1022619,0.8675985,-0.0657225,0.15949531,0.75534576,0.85017943,0.26750907,0.18680228,0.7565126,0.5568465,-0.18633361,-0.17172334,0.9147963,-0.007407425,-0.6072394,-0.70123935,0.59846,767.98535,765.16486,778.0586,800.2198,895.31134,0.855224609375,-0.07073974609375,0.55926513671875,12.149810791015623,-3.715972900390625,1.278533935546875,1.0,1.0,1.0,1.0,1.0,50.0,
2023-09-09 22:58:30.716,1.1439124,0.5351888,0.47548684,1.1022619,0.96491593,-0.059115335,0.16663405,0.75534576,0.8732231,0.26208806,0.18049484,0.7565126,0.5932625,-0.19332775,-0.16816142,0.9147963,0.01919523,-0.60119927,-0.7047397,0.59846,758.315,778.86444,786.9231,770.80585,924.3223,0.855224609375,-0.07073974609375,0.55926513671875,12.149810791015623,-3.715972900390625,1.278533935546875,1.0,1.0,1.0,1.0,1.0,50.0,
2023-09-09 22:58:30.780,1.1439124,0.5351888,0.47548684,1.1022619,0.96491593,-0.059115335,0.16663405,0.75534576,0.8732231,0.26208806,0.18049484,0.7565126,0.5932625,-0.19332775,-0.16816142,0.9147963,0.01919523,-0.60119927,-0.7047397,0.59846,763.95605,774.43225,778.0586,792.96704,916.6667,0.87353515625,-0.036865234375,0.5838623046875,11.132965087890623,-4.508514404296875,8.50860595703125,1.0,1.0,1.0,1.0,1.0,50.0,
2023-09-09 22:58:30.837,1.1439124,0.5351888,0.47548684,1.1022619,0.96491593,-0.059115335,0.16663405,0.75534576,0.8732231,0.26208806,0.18049484,0.7565126,0.5932625,-0.19332775,-0.16816142,0.9147963,0.01919523,-0.60119927,-0.7047397,0.59846,761.13556,778.86444,777.25275,793.7729,804.65204,0.8546142578125,-0.037109375,0.58441162109375,6.048736572265625,-0.336456298828125,13.218994140625,1.0,1.0,1.0,1.0,1.0,50.0,
2023-09-09 22:58:30.842,1.1593816,0.5620133,0.5036814,1.1022619,0.9664805,-0.05476805,0.15898757,0.75534576,0.8732231,0.26208806,0.17812203,0.7565126,0.60198605,-0.19990551,-0.15811892,0.9147963,0.03840119,-0.58810544,-0.7056455,0.59846,761.53845,782.49084,775.2381,786.9231,761.53845,0.8546142578125,-0.037109375,0.58441162109375,6.048736572265625,-0.336456298828125,13.218994140625,1.0,1.0,1.0,1.0,1.0,50.0,
2023-09-09 22:58:30.894,1.1593816,0.5620133,0.5036814,1.1022619,0.9664805,-0.05476805,0.15898757,0.75534576,0.8732231,0.26208806,0.17812203,0.7565126,0.60198605,-0.19990551,-0.15811892,0.9147963,0.03840119,-0.58810544,-0.7056455,0.59846,751.4652,788.93774,774.0293,778.86444,889.67035,0.7843017578125,-0.07427978515625,0.55767822265625,2.459869384765625,3.48419189453125,10.63201904296875,1.0,1.0,1.0,1.0,1.0,50.0,
2023-09-09 22:58:30.929,1.1593816,0.5620133,0.5036814,1.1022619,0.9664805,-0.05476805,0.15898757,0.75534576,0.8732231,0.26208806,0.17812203,0.7565126,0.60198605,-0.19990551,-0.15811892,0.9147963,0.03840119,-0.58810544,-0.7056455,0.59846,778.0586,881.2088,778.46155,792.96704,753.0769,0.73876953125,-0.1085205078125,0.56536865234375,1.472930908203125,4.47113037109375,3.15521240234375,1.0,1.0,1.0,1.0,1.0,50.0,
2023-09-09 22:58:30.936,1.165856,0.5878944,1.005475,1.1022619,0.96067494,-0.04845325,0.36156538,0.75534576,0.8732231,0.26208806,0.54766047,0.7565126,0.6102525,-0.20119725,-0.085623264,0.9147963,0.0527399,-0.57536584,-0.6523017,0.59846,759.5238,836.8865,772.01465,774.0293,854.61536,0.73876953125,-0.1085205078125,0.56536865234375,1.472930908203125,4.47113037109375,3.15521240234375,1.0,1.0,1.0,1.0,1.0,50.0,
2023-09-09 22:58:31.052,1.165856,0.5878944,1.005475,1.1022619,0.96067494,-0.04845325,0.36156538,0.75534576,0.8732231,0.26208806,0.54766047,0.7565126,0.6102525,-0.20119725,-0.085623264,0.9147963,0.0527399,-0.57536584,-0.6523017,0.59846,761.9414,811.50183,771.2088,760.32965,816.337,0.73822021484375,-0.10455322265625,0.60052490234375,2.893524169921875,0.321502685546875,-1.24114990234375,1.0,1.0,1.0,1.0,1.0,50.0,
2023-09-09 22:58:31.063,1.165856,0.5878944,1.005475,1.1022619,0.96067494,-0.04845325,0.36156538,0.75534576,0.8732231,0.26208806,0.54766047,0.7565126,0.6102525,-0.20119725,-0.085623264,0.9147963,0.0527399,-0.57536584,-0.6523017,0.59846,746.63007,788.1319,763.5531,782.0879,947.6923,0.7529296875,-0.09759521484375,0.61907958984375,3.7982177734375,-5.2337646484375,-0.605621337890625,1.0,1.0,1.0,1.0,1.0,50.0,
2023-09-09 22:58:31.064,1.1543998,0.6102166,1.0365491,1.1022619,0.9527369,-0.0336989,0.3568622,0.75534576,0.8732231,0.26208806,0.54766047,0.7565126,0.6181417,-0.19549954,-0.06720716,0.9147963,0.060242254,-0.5684442,-0.6404867,0.59846,752.27106,790.14655,769.59705,787.326,1187.4359,0.7529296875,-0.09759521484375,0.61907958984375,3.7982177734375,-5.2337646484375,-0.605621337890625,1.0,1.0,1.0,1.0,1.0,50.0,
2023-09-09 22:58:31.106,1.1543998,0.6102166,1.0365491,1.1022619,0.9527369,-0.0336989,0.3568622,0.75534576,0.8732231,0.26208806,0.54766047,0.7565126,0.6181417,-0.19549954,-0.06720716,0.9147963,0.060242254,-0.5684442,-0.6404867,0.59846,745.0183,790.54944,767.5824,773.6264,917.8755,0.73193359375,-0.11663818359375,0.62042236328125,0.58319091796875,-3.357086181640625,-4.29168701171875,1.0,1.0,1.0,1.0,1.0,50.0,
2023-09-09 22:58:31.135,1.1543998,0.6102166,1.0365491,1.1022619,0.9527369,-0.0336989,0.3568622,0.75534576,0.8732231,0.26208806,0.54766047,0.7565126,0.6181417,-0.19549954,-0.06720716,0.9147963,0.060242254,-0.5684442,-0.6404867,0.59846,752.27106,788.93774,776.4469,793.7729,943.663,0.72991943359375,-0.12921142578125,0.605712890625,1.31591796875,-3.6785888671875,-7.64129638671875,1.0,1.0,1.0,1.0,1.0,50.0,
2023-09-09 22:58:31.137,1.1295227,0.629177,1.0699687,1.1022619,0.94894385,-0.005892709,0.35982046,0.75534576,0.8732231,0.26208806,0.54766047,0.7565126,0.6225299,-0.18709946,-0.04798105,0.9147963,0.064062744,-0.56461716,-0.6255478,0.59846,754.2857,789.34064,775.2381,795.78754,912.6374,0.72991943359375,-0.12921142578125,0.605712890625,1.31591796875,-3.6785888671875,-7.64129638671875,1.0,1.0,1.0,1.0,1.0,50.0,
2023-09-09 22:58:31.195,1.1295227,0.629177,1.0699687,1.1022619,0.94894385,-0.005892709,0.35982046,0.75534576,0.8732231,0.26208806,0.54766047,0.7565126,0.6225299,-0.18709946,-0.04798105,0.9147963,0.064062744,-0.56461716,-0.6255478,0.59846,749.45056,788.5348,774.83514,761.9414,845.7509,0.7547607421875,-0.12298583984375,0.61944580078125,3.267364501953125,-7.529144287109375,-7.117919921875,1.0,1.0,1.0,1.0,1.0,50.0,
2023-09-09 22:58:31.231,1.1121594,0.64438957,1.105868,1.1022619,1.0283048,0.031863928,0.3764391,0.75534576,0.87059814,0.25970036,0.54766047,0.7565126,0.6298139,-0.17934598,-0.028356241,0.9147963,0.08745769,-0.5570417,-0.6115757,0.59846,728.0952,784.5055,778.86444,794.17584,832.8571,0.7547607421875,-0.12298583984375,0.61944580078125,3.267364501953125,-7.529144287109375,-7.117919921875,1.0,1.0,1.0,1.0,1.0,50.0,
2023-09-09 22:58:31.296,1.1121594,0.64438957,1.105868,1.1022619,1.0283048,0.031863928,0.3764391,0.75534576,0.87059814,0.25970036,0.54766047,0.7565126,0.6298139,-0.17934598,-0.028356241,0.9147963,0.08745769,-0.5570417,-0.6115757,0.59846,732.1245,786.52014,783.69965,778.0586,836.08057,0.773681640625,-0.1171875,0.58544921875,2.773895263671875,-7.22259521484375,-5.30853271484375,1.0,1.0,1.0,1.0,1.0,50.0,
2023-09-09 22:58:31.331,1.1121594,0.64438957,1.105868,1.1022619,1.0283048,0.031863928,0.3764391,0.75534576,0.87059814,0.25970036,0.54766047,0.7565126,0.6298139,-0.17934598,-0.028356241,0.9147963,0.08745769,-0.5570417,-0.6115757,0.59846,738.5714,780.87915,784.5055,768.3883,801.8315,0.783447265625,-0.1103515625,0.533935546875,5.779571533203125,-7.88055419921875,-5.271148681640625,1.0,1.0,1.0,1.0,1.0,50.0,
2023-09-09 22:58:31.336,1.0967107,0.6639589,1.1439687,1.1022619,1.0437129,0.07260675,0.40504858,0.75534576,0.84778875,0.25426963,0.54766047,0.7565126,0.64426255,-0.1686024,-0.0074707433,0.9147963,0.11110145,-0.5421379,-0.603465,0.59846,757.9121,788.1319,786.1172,785.7143,896.52014,0.783447265625,-0.1103515625,0.533935546875,5.779571533203125,-7.88055419921875,-5.271148681640625,1.0,1.0,1.0,1.0,1.0,50.0,
2023-09-09 22:58:31.381,1.0967107,0.6639589,1.1439687,1.1022619,1.0437129,0.07260675,0.40504858,0.75534576,0.84778875,0.25426963,0.54766047,0.7565126,0.64426255,-0.1686024,-0.0074707433,0.9147963,0.11110145,-0.5421379,-0.603465,0.59846,760.7326,787.326,789.34064,807.0696,801.4286,0.82244873046875,-0.0875244140625,0.51824951171875,12.628326416015623,-10.205841064453123,-3.00567626953125,1.0,1.0,1.0,1.0,1.0,50.0,
2023-09-09 22:58:31.427,1.0967107,0.6639589,1.1439687,1.1022619,1.0437129,0.07260675,0.40504858,0.75534576,0.84778875,0.25426963,0.54766047,0.7565126,0.64426255,-0.1686024,-0.0074707433,0.9147963,0.11110145,-0.5421379,-0.603465,0.59846,761.9414,788.5348,786.9231,817.5458,958.5714,0.86199951171875,-0.057861328125,0.53851318359375,14.6246337890625,-10.30303955078125,0.5682373046875,1.0,1.0,1.0,1.0,1.0,50.0,
2023-09-09 22:58:31.434,1.0937347,0.6943693,1.1860832,1.1375937,1.039624,0.11403031,0.4403115,0.76789063,0.7978237,0.2452279,0.54766047,0.7554584,0.6631704,-0.14652987,0.015907677,0.94689417,0.13048096,-0.5236483,-0.6023793,0.611765,740.989,781.28204,784.5055,804.2491,1081.4652,0.86199951171875,-0.057861328125,0.53851318359375,14.6246337890625,-10.30303955078125,0.5682373046875,1.0,1.0,1.0,1.0,1.0,50.0,
2023-09-09 22:58:31.548,1.0937347,0.6943693,1.1860832,1.1375937,1.039624,0.11403031,0.4403115,0.76789063,0.7978237,0.2452279,0.54766047,0.7554584,0.6631704,-0.14652987,0.015907677,0.94689417,0.13048096,-0.5236483,-0.6023793,0.611765,756.30035,794.57874,788.93774,790.9524,929.5604,0.87060546875,-0.03594970703125,0.5325927734375,13.0694580078125,-6.53472900390625,2.04864501953125,1.0,1.0,1.0,1.0,1.0,50.0,
2023-09-09 22:58:31.556,1.1066306,0.7378297,1.2343577,1.1800033,1.0632848,0.16069894,0.48047808,0.7430471,0.78051263,0.24263377,0.54766047,0.7554584,0.6813104,-0.10739475,0.043255676,0.9661863,0.13334893,-0.50793236,-0.6024502,0.613534,751.8681,788.93774,789.7436,789.7436,886.04395,0.87060546875,-0.03594970703125,0.5325927734375,13.0694580078125,-6.53472900390625,2.04864501953125,1.0,1.0,1.0,1.0,1.0,50.0,
2023-09-09 22:58:31.607,1.1066306,0.7378297,1.2343577,1.1800033,1.0632848,0.16069894,0.48047808,0.7430471,0.78051263,0.24263377,0.54766047,0.7554584,0.6813104,-0.10739475,0.043255676,0.9661863,0.13334893,-0.50793236,-0.6024502,0.613534,752.674,787.72894,790.54944,800.2198,853.4066,0.861328125,-0.038330078125,0.52166748046875,9.338531494140623,-5.63751220703125,1.203765869140625,1.0,1.0,1.0,1.0,1.0,50.0,
2023-09-09 22:58:31.617,1.1066306,0.7378297,1.2343577,1.1800033,1.0632848,0.16069894,0.48047808,0.7430471,0.78051263,0.24263377,0.54766047,0.7554584,0.6813104,-0.10739475,0.043255676,0.9661863,0.13334893,-0.50793236,-0.6024502,0.613534,743.8095,790.54944,792.1612,774.43225,892.49084,0.86053466796875,-0.04376220703125,0.51824951171875,6.362762451171875,-4.972076416015625,-1.457977294921875,1.0,1.0,1.0,1.0,1.0,50.0,
2023-09-09 22:58:31.677,1.1066306,0.7378297,1.2343577,1.1800033,1.0632848,0.16069894,0.48047808,0.7430471,0.78051263,0.24263377,0.54766047,0.7554584,0.6813104,-0.10739475,0.043255676,0.9661863,0.13334893,-0.50793236,-0.6024502,0.613534,765.9707,781.28204,792.5641,752.674,856.2271,0.86224365234375,-0.03997802734375,0.52325439453125,4.792633056640625,-3.506622314453125,-1.375732421875,1.0,1.0,1.0,1.0,1.0,50.0,
2023-09-09 22:58:31.678,1.1126375,0.7873804,1.2899367,1.1800033,1.0915855,0.21889973,0.5264061,0.7430471,0.78051263,0.24263377,0.54195845,0.7554584,0.70615983,-0.053698752,0.07120407,0.9661863,0.13120033,-0.49653706,-0.5926445,0.613534,764.35895,774.83514,792.96704,768.7912,826.8132,0.86224365234375,-0.03997802734375,0.52325439453125,4.792633056640625,-3.506622314453125,-1.375732421875,1.0,1.0,1.0,1.0,1.0,50.0,
2023-09-09 22:58:31.725,1.1126375,0.7873804,1.2899367,1.1800033,1.0915855,0.21889973,0.5264061,0.7430471,0.78051263,0.24263377,0.54195845,0.7554584,0.70615983,-0.053698752,0.07120407,0.9661863,0.13120033,-0.49653706,-0.5926445,0.613534,732.52747,776.8498,786.1172,793.36993,832.0513,0.867431640625,-0.0548095703125,0.54180908203125,0.829925537109375,-2.923431396484375,-0.67291259765625,1.0,1.0,1.0,1.0,1.0,50.0,
2023-09-09 22:58:31.765,1.1078066,0.7873804,1.3559147,1.1800033,1.1264199,0.21889973,0.5818189,0.7430471,0.78051263,0.24263377,0.5389089,0.7554584,0.73481095,-0.053698752,0.09181547,0.9661863,0.13023846,-0.49653706,-0.5672381,0.613534,753.8828,786.1172,778.0586,745.42126,782.49084,0.867431640625,-0.0548095703125,0.54180908203125,0.829925537109375,-2.923431396484375,-0.67291259765625,1.0,1.0,1.0,1.0,1.0,50.0,
2023-09-09 22:58:31.809,1.1078066,0.7873804,1.3559147,1.1800033,1.1264199,0.21889973,0.5818189,0.7430471,0.78051263,0.24263377,0.5389089,0.7554584,0.73481095,-0.053698752,0.09181547,0.9661863,0.13023846,-0.49653706,-0.5672381,0.613534,737.76556,782.0879,785.7143,756.7033,883.22345,0.849853515625,-0.0875244140625,0.53240966796875,-1.2261962890625,-1.203765869140625,0.418701171875,1.0,1.0,1.0,1.0,1.0,50.0,
2023-09-09 22:58:31.843,1.1078066,0.7873804,1.3559147,1.1800033,1.1264199,0.21889973,0.5818189,0.7430471,0.78051263,0.24263377,0.5389089,0.7554584,0.73481095,-0.053698752,0.09181547,0.9661863,0.13023846,-0.49653706,-0.5672381,0.613534,757.1062,790.54944,780.07324,776.04395,998.0586,0.84356689453125,-0.10589599609375,0.53741455078125,0.0897216796875,-1.375732421875,1.375732421875,1.0,1.0,1.0,1.0,1.0,50.0,
2023-09-09 22:58:31.845,1.0978341,0.7873804,1.3641504,1.1800033,1.1688999,0.21889973,0.5731827,0.7430471,0.7796384,0.24263377,0.5389089,0.7554584,0.76393974,-0.053698752,0.046728738,0.9661863,0.13619375,-0.49653706,-0.55224603,0.613534,742.6007,792.96704,785.31134,765.16486,893.69965,0.84356689453125,-0.10589599609375,0.53741455078125,0.0897216796875,-1.375732421875,1.375732421875,1.0,1.0,1.0,1.0,1.0,50.0,
2023-09-09 22:58:31.894,1.0978341,0.7873804,1.3641504,1.1800033,1.1688999,0.21889973,0.5731827,0.7430471,0.7796384,0.24263377,0.5389089,0.7554584,0.76393974,-0.053698752,0.046728738,0.9661863,0.13619375,-0.49653706,-0.55224603,0.613534,713.9927,790.14655,788.5348,749.45056,1170.9158,0.83197021484375,-0.1124267578125,0.53265380859375,1.846771240234375,0.306549072265625,3.24493408203125,1.0,1.0,1.0,1.0,1.0,50.0,
2023-09-09 22:58:31.931,1.0978341,0.7873804,1.3641504,1.1800033,1.1688999,0.21889973,0.5731827,0.7430471,0.7796384,0.24263377,0.5389089,0.7554584,0.76393974,-0.053698752,0.046728738,0.9661863,0.13619375,-0.49653706,-0.55224603,0.613534,691.4286,796.5934,780.07324,744.21246,869.12085,0.806640625,-0.1114501953125,0.5428466796875,3.66363525390625,1.218719482421875,4.119720458984375,1.0,1.0,1.0,1.0,1.0,50.0,
2023-09-09 22:58:31.936,1.0635304,0.7873804,1.370647,1.1800033,1.1816958,0.21889973,0.5641684,0.7430471,0.8325219,0.24263377,0.5389089,0.7554584,0.7474809,-0.053698752,0.0023276464,0.9661863,0.13400829,-0.49653706,-0.5397412,0.613534,727.28937,792.1612,764.35895,757.1062,1094.762,0.806640625,-0.1114501953125,0.5428466796875,3.66363525390625,1.218719482421875,4.119720458984375,1.0,1.0,1.0,1.0,1.0,50.0,
2023-09-09 22:58:32.041,1.0635304,0.7873804,1.370647,1.1800033,1.1816958,0.21889973,0.5641684,0.7430471,0.8325219,0.24263377,0.5389089,0.7554584,0.7474809,-0.053698752,0.0023276464,0.9661863,0.13400829,-0.49653706,-0.5397412,0.613534,752.27106,781.28204,764.7619,791.75824,749.85345,0.786865234375,-0.109130859375,0.54541015625,5.15899658203125,0.35888671875,3.66363525390625,1.0,1.0,1.0,1.0,1.0,50.0,
2023-09-09 22:58:32.052,1.0337478,0.7873804,1.3741328,1.1800033,1.181862,0.21889973,0.5498663,0.7430471,0.9131779,0.24263377,0.5389089,0.7554584,0.7213999,-0.053698752,-0.024703369,0.9661863,0.124539636,-0.49653706,-0.53123,0.613534,764.35895,786.52014,769.19415,767.5824,807.47253,0.786865234375,-0.109130859375,0.54541015625,5.15899658203125,0.35888671875,3.66363525390625,1.0,1.0,1.0,1.0,1.0,50.0,
2023-09-09 22:58:32.079,1.0337478,0.7873804,1.3741328,1.1800033,1.181862,0.21889973,0.5498663,0.7430471,0.9131779,0.24263377,0.5389089,0.7554584,0.7213999,-0.053698752,-0.024703369,0.9661863,0.124539636,-0.49653706,-0.53123,0.613534,758.315,785.31134,769.19415,791.3553,859.45056,0.77301025390625,-0.10870361328125,0.5506591796875,5.7720947265625,-0.95703125,2.0037841796875,1.0,1.0,1.0,1.0,1.0,50.0,
2023-09-09 22:58:32.114,1.0337478,0.7873804,1.3741328,1.1800033,1.181862,0.21889973,0.5498663,0.7430471,0.9131779,0.24263377,0.5389089,0.7554584,0.7213999,-0.053698752,-0.024703369,0.9661863,0.124539636,-0.49653706,-0.53123,0.613534,761.9414,785.31134,770.80585,778.86444,789.34064,0.7811279296875,-0.09844970703125,0.55755615234375,6.98333740234375,-3.446807861328125,0.418701171875,1.0,1.0,1.0,1.0,1.0,50.0,
2023-09-09 22:58:32.119,1.0474681,0.7873804,1.3584822,1.1800033,1.1643711,0.21889973,0.5273606,0.7430471,0.99725467,0.24263377,0.5389089,0.7554584,0.6901065,-0.053698752,-0.039109543,0.9661863,0.107221626,-0.49653706,-0.53610903,0.613534,747.8388,777.25275,772.8205,783.2967,807.0696,0.7811279296875,-0.09844970703125,0.55755615234375,6.98333740234375,-3.446807861328125,0.418701171875,1.0,1.0,1.0,1.0,1.0,50.0,
2023-09-09 22:58:32.149,1.0474681,0.7873804,1.3584822,1.1800033,1.1643711,0.21889973,0.5273606,0.7430471,0.99725467,0.24263377,0.5389089,0.7554584,0.6901065,-0.053698752,-0.039109543,0.9661863,0.107221626,-0.49653706,-0.53610903,0.613534,746.63007,770.40295,770.0,794.9817,957.3626,0.80096435546875,-0.0972900390625,0.56365966796875,5.8319091796875,-5.271148681640625,-0.5682373046875,1.0,1.0,1.0,1.0,1.0,50.0,
2023-09-09 22:58:32.227,1.0474681,0.7873804,1.3584822,1.1800033,1.1643711,0.21889973,0.5273606,0.7430471,0.99725467,0.24263377,0.5389089,0.7554584,0.6901065,-0.053698752,-0.039109543,0.9661863,0.107221626,-0.49653706,-0.53610903,0.613534,768.3883,788.5348,779.2674,793.7729,850.18317,0.81207275390625,-0.09564208984375,0.55511474609375,5.824432373046875,-4.23187255859375,-0.515899658203125,1.0,1.0,1.0,1.0,1.0,50.0,
2023-09-09 22:58:32.262,0.9962169,0.7873804,1.3087425,1.1800033,1.0580477,0.21889973,0.51614773,0.7430471,0.97302496,0.24263377,0.5505423,0.7554584,0.65154415,-0.053698752,-0.051515706,0.9661863,0.10835963,-0.49653706,-0.55822617,0.613534,765.9707,795.78754,773.22345,764.35895,921.50183,0.81207275390625,-0.09564208984375,0.55511474609375,5.824432373046875,-4.23187255859375,-0.515899658203125,1.0,1.0,1.0,1.0,1.0,50.0,
2023-09-09 22:58:32.316,0.9962169,0.7873804,1.3087425,1.1800033,1.0580477,0.21889973,0.51614773,0.7430471,0.97302496,0.24263377,0.5505423,0.7554584,0.65154415,-0.053698752,-0.051515706,0.9661863,0.10835963,-0.49653706,-0.55822617,0.613534,766.3736,794.57874,771.6117,776.8498,830.0366,0.8121337890625,-0.0927734375,0.546630859375,6.26556396484375,-4.23187255859375,-0.52337646484375,1.0,1.0,1.0,1.0,1.0,50.0,
2023-09-09 22:58:32.362,0.9962169,0.7873804,1.3087425,1.1800033,1.0580477,0.21889973,0.51614773,0.7430471,0.97302496,0.24263377,0.5505423,0.7554584,0.65154415,-0.053698752,-0.051515706,0.9661863,0.10835963,-0.49653706,-0.55822617,0.613534,754.2857,783.69965,778.0586,782.0879,831.2454,0.8111572265625,-0.08270263671875,0.53839111328125,6.92352294921875,-4.029998779296875,-0.859832763671875,1.0,1.0,1.0,1.0,1.0,50.0,
2023-09-09 22:58:32.364,0.9962169,0.7873804,1.2799771,1.1800033,1.0580477,0.21889973,0.5340841,0.7430471,0.97302496,0.24263377,0.56218666,0.7554584,0.65154415,-0.053698752,-0.061161276,0.9661863,0.10835963,-0.49653706,-0.5839729,0.613534,753.8828,784.5055,777.25275,783.69965,969.0476,0.8111572265625,-0.08270263671875,0.53839111328125,6.92352294921875,-4.029998779296875,-0.859832763671875,1.0,1.0,1.0,1.0,1.0,50.0,
2023-09-09 22:58:32.401,0.9962169,0.7873804,1.2799771,1.1800033,1.0580477,0.21889973,0.5340841,0.7430471,0.97302496,0.24263377,0.56218666,0.7554584,0.65154415,-0.053698752,-0.061161276,0.9661863,0.10835963,-0.49653706,-0.5839729,0.613534,759.12085,785.31134,778.0586,773.22345,768.3883,0.82586669921875,-0.08270263671875,0.53863525390625,6.81884765625,-5.585174560546875,-2.1234130859375,1.0,1.0,1.0,1.0,1.0,50.0,
2023-09-09 22:58:32.470,0.9962169,0.7873804,1.2799771,1.1800033,1.0580477,0.21889973,0.5340841,0.7430471,0.97302496,0.24263377,0.56218666,0.7554584,0.65154415,-0.053698752,-0.061161276,0.9661863,0.10835963,-0.49653706,-0.5839729,0.613534,787.326,794.17584,772.4176,781.685,829.6337,0.84332275390625,-0.07379150390625,0.5391845703125,7.28240966796875,-4.224395751953125,-2.70660400390625,1.0,1.0,1.0,1.0,1.0,50.0,
2023-09-09 22:58:32.474,0.9962169,0.74838096,0.8970686,1.1800033,1.0580477,-0.06830119,0.32153448,0.7430471,0.97302496,0.12234281,0.31070626,0.7554584,0.65154415,0.08050496,-0.16961333,0.9661863,0.10835963,-0.5574106,-0.678906,0.613534,760.32965,789.34064,778.46155,802.23444,899.34064,0.84332275390625,-0.07379150390625,0.5391845703125,7.28240966796875,-4.224395751953125,-2.70660400390625,1.0,1.0,1.0,1.0,1.0,50.0,
2023-09-09 22:58:32.553,0.9962169,0.74838096,0.8970686,1.1800033,1.0580477,-0.06830119,0.32153448,0.7430471,0.97302496,0.12234281,0.31070626,0.7554584,0.65154415,0.08050496,-0.16961333,0.9661863,0.10835963,-0.5574106,-0.678906,0.613534,751.4652,785.31134,788.5348,785.7143,869.12085,0.83343505859375,-0.07061767578125,0.536865234375,6.587066650390625,-2.459869384765625,-2.61688232421875,1.0,1.0,1.0,1.0,1.0,50.0,
2023-09-09 22:58:32.559,0.9962169,0.7225848,0.9167214,1.1800033,1.0580477,0.006825789,0.34749448,0.7430471,0.97302496,0.122938894,0.31070626,0.7554584,0.65154415,0.070939355,-0.17354392,0.9661863,0.10835963,-0.5815905,-0.6946861,0.613534,753.8828,787.326,783.2967,745.82416,813.1135,0.83343505859375,-0.07061767578125,0.536865234375,6.587066650390625,-2.459869384765625,-2.61688232421875,1.0,1.0,1.0,1.0,1.0,50.0,
2023-09-09 22:58:32.605,0.9962169,0.7225848,0.9167214,1.1800033,1.0580477,0.006825789,0.34749448,0.7430471,0.97302496,0.122938894,0.31070626,0.7554584,0.65154415,0.070939355,-0.17354392,0.9661863,0.10835963,-0.5815905,-0.6946861,0.613534,757.1062,779.2674,780.87915,762.74725,882.4176,0.8265380859375,-0.0704345703125,0.53564453125,6.213226318359375,-2.325286865234375,-3.072967529296875,1.0,1.0,1.0,1.0,1.0,50.0,
2023-09-09 22:58:32.665,0.9962169,0.7225848,0.9167214,1.1800033,1.0580477,0.006825789,0.34749448,0.7430471,0.97302496,0.122938894,0.31070626,0.7554584,0.65154415,0.070939355,-0.17354392,0.9661863,0.10835963,-0.5815905,-0.6946861,0.613534,770.40295,780.4762,783.69965,741.39197,919.4872,0.8231201171875,-0.0657958984375,0.53466796875,4.85992431640625,-3.22998046875,-2.056121826171875,1.0,1.0,1.0,1.0,1.0,50.0,
2023-09-09 22:58:32.671,0.9962169,0.6937951,0.9053622,1.1800033,1.0580477,0.06116139,0.3349728,0.7430471,0.97302496,0.122938894,0.31070626,0.7554584,0.65154415,0.065703444,-0.17974912,0.9661863,0.10835963,-0.60595167,-0.7079775,0.613534,762.74725,781.28204,781.685,789.34064,983.95605,0.8231201171875,-0.0657958984375,0.53466796875,4.85992431640625,-3.22998046875,-2.056121826171875,1.0,1.0,1.0,1.0,1.0,50.0,
2023-09-09 22:58:32.706,0.9962169,0.6937951,0.9053622,1.1800033,1.0580477,0.06116139,0.3349728,0.7430471,0.97302496,0.122938894,0.31070626,0.7554584,0.65154415,0.065703444,-0.17974912,0.9661863,0.10835963,-0.60595167,-0.7079775,0.613534,782.49084,786.9231,782.8938,763.1502,908.60803,0.8250732421875,-0.06854248046875,0.526611328125,4.35150146484375,-3.312225341796875,-1.472930908203125,1.0,1.0,1.0,1.0,1.0,50.0,
2023-09-09 22:58:32.717,0.9962169,0.6937951,0.9053622,1.1800033,1.0580477,0.06116139,0.3349728,0.7430471,0.97302496,0.122938894,0.31070626,0.7554584,0.65154415,0.065703444,-0.17974912,0.9661863,0.10835963,-0.60595167,-0.7079775,0.613534,743.4066,780.07324,779.2674,771.6117,875.16486,0.8367919921875,-0.0655517578125,0.5230712890625,4.4561767578125,-4.957122802734375,-1.21124267578125,1.0,1.0,1.0,1.0,1.0,50.0,
2023-09-09 22:58:32.729,0.96234185,0.6684143,0.8767935,1.1800033,0.91526306,0.09108239,0.3069136,0.7430471,0.9632476,0.1320128,0.31070626,0.7554584,0.64040315,0.057942264,-0.18338728,0.9661863,0.07961823,-0.6271599,-0.71567965,0.613534,741.79486,773.22345,770.40295,797.3993,817.9487,0.8367919921875,-0.0655517578125,0.5230712890625,4.4561767578125,-4.957122802734375,-1.21124267578125,1.0,1.0,1.0,1.0,1.0,50.0,
2023-09-09 22:58:32.875,0.96234185,0.6684143,0.8767935,1.1800033,0.91526306,0.09108239,0.3069136,0.7430471,0.9632476,0.1320128,0.31070626,0.7554584,0.64040315,0.057942264,-0.18338728,0.9661863,0.07961823,-0.6271599,-0.71567965,0.613534,763.1502,786.52014,783.69965,768.3883,791.75824,0.8355712890625,-0.06524658203125,0.52825927734375,4.687957763671875,-4.08233642578125,-1.5850830078125,1.0,1.0,1.0,1.0,1.0,50.0,
2023-09-09 22:58:32.891,0.96234185,0.6684143,0.8767935,1.1800033,0.91526306,0.09108239,0.3069136,0.7430471,0.9632476,0.1320128,0.31070626,0.7554584,0.64040315,0.057942264,-0.18338728,0.9661863,0.07961823,-0.6271599,-0.71567965,0.613534,747.03296,791.75824,782.8938,788.5348,802.6374,0.84075927734375,-0.06365966796875,0.5328369140625,4.3365478515625,-3.401947021484375,-1.36077880859375,1.0,1.0,1.0,1.0,1.0,50.0,
2023-09-09 22:58:32.892,0.9754563,0.6469915,0.8433227,1.1800033,0.88743556,0.09553263,0.27805895,0.7430471,0.95891935,0.14960673,0.3221145,0.7554584,0.60230815,0.044914905,-0.18305826,0.9661863,0.03539603,-0.64665955,-0.71128297,0.613534,747.8388,793.36993,788.93774,796.1905,872.74725,0.84075927734375,-0.06365966796875,0.5328369140625,4.3365478515625,-3.401947021484375,-1.36077880859375,1.0,1.0,1.0,1.0,1.0,50.0,
2023-09-09 22:58:32.924,0.9754563,0.6469915,0.8433227,1.1800033,0.88743556,0.09553263,0.27805895,0.7430471,0.95891935,0.14960673,0.3221145,0.7554584,0.60230815,0.044914905,-0.18305826,0.9661863,0.03539603,-0.64665955,-0.71128297,0.613534,753.8828,786.52014,782.49084,772.8205,840.9158,0.83740234375,-0.0684814453125,0.53472900390625,3.46923828125,-3.6785888671875,-0.321502685546875,1.0,1.0,1.0,1.0,1.0,50.0,
2023-09-09 22:58:32.957,0.9754563,0.6469915,0.8433227,1.1800033,0.88743556,0.09553263,0.27805895,0.7430471,0.95891935,0.14960673,0.3221145,0.7554584,0.60230815,0.044914905,-0.18305826,0.9661863,0.03539603,-0.64665955,-0.71128297,0.613534,739.7802,773.22345,786.9231,755.09155,1012.1612,0.83966064453125,-0.07171630859375,0.52557373046875,3.207550048828125,-3.342132568359375,-1.375732421875,1.0,1.0,1.0,1.0,1.0,50.0,
2023-09-09 22:58:32.959,0.9754563,0.6319534,0.81132114,1.1800033,0.88743556,0.08075979,0.25109532,0.7430471,0.95891935,0.1608559,0.33679503,0.7554584,0.60230815,0.030342089,-0.18163414,0.9661863,0.03539603,-0.6625159,-0.69180256,0.613534,754.68866,778.0586,786.1172,759.12085,778.46155,0.83966064453125,-0.07171630859375,0.52557373046875,3.207550048828125,-3.342132568359375,-1.375732421875,1.0,1.0,1.0,1.0,1.0,50.0,
2023-09-09 22:58:33.050,0.9754563,0.6319534,0.81132114,1.1800033,0.88743556,0.08075979,0.25109532,0.7430471,0.95891935,0.1608559,0.33679503,0.7554584,0.60230815,0.030342089,-0.18163414,0.9661863,0.03539603,-0.6625159,-0.69180256,0.613534,758.71796,788.93774,784.5055,753.0769,926.7399,0.82708740234375,-0.07733154296875,0.53045654296875,2.4224853515625,-2.086029052734375,-2.10845947265625,1.0,1.0,1.0,1.0,1.0,50.0,
2023-09-09 22:58:33.099,0.9754563,0.6165203,0.7814243,1.1800033,0.88743556,0.063516214,0.22719082,0.7430471,0.95891935,0.1608559,0.34244326,0.7554584,0.60230815,0.017262878,-0.18210258,0.9661863,0.03539603,-0.672616,-0.6648046,0.613534,753.8828,784.10254,780.87915,751.8681,891.28204,0.82708740234375,-0.07733154296875,0.53045654296875,2.4224853515625,-2.086029052734375,-2.10845947265625,1.0,1.0,1.0,1.0,1.0,50.0,
2023-09-09 22:58:33.107,0.9754563,0.6165203,0.7814243,1.1800033,0.88743556,0.063516214,0.22719082,0.7430471,0.95891935,0.1608559,0.34244326,0.7554584,0.60230815,0.017262878,-0.18210258,0.9661863,0.03539603,-0.672616,-0.6648046,0.613534,751.8681,778.86444,781.685,736.1539,1268.022,0.826416015625,-0.076904296875,0.530029296875,2.82623291015625,-2.4822998046875,-2.25799560546875,1.0,1.0,1.0,1.0,1.0,50.0,
2023-09-09 22:58:33.156,0.9754563,0.6165203,0.7814243,1.1800033,0.88743556,0.063516214,0.22719082,0.7430471,0.95891935,0.1608559,0.34244326,0.7554584,0.60230815,0.017262878,-0.18210258,0.9661863,0.03539603,-0.672616,-0.6648046,0.613534,753.47986,785.31134,782.49084,595.9341,762.3443,0.82147216796875,-0.0767822265625,0.52899169921875,2.55706787109375,-3.00567626953125,-1.614990234375,1.0,1.0,1.0,1.0,1.0,50.0,
2023-09-09 22:58:33.160,0.9181993,0.6010072,0.75414896,1.1800033,0.9525185,0.0619904,0.20662442,0.7430471,0.903129,0.1608559,0.34244326,0.7554584,0.5091456,0.0056627737,-0.18542615,0.9661863,0.003557248,-0.6759717,-0.64262086,0.613534,753.0769,787.72894,781.28204,654.7619,1212.4176,0.82147216796875,-0.0767822265625,0.52899169921875,2.55706787109375,-3.00567626953125,-1.614990234375,1.0,1.0,1.0,1.0,1.0,50.0,
2023-09-09 22:58:33.216,0.9181993,0.6010072,0.75414896,1.1800033,0.9525185,0.0619904,0.20662442,0.7430471,0.903129,0.1608559,0.34244326,0.7554584,0.5091456,0.0056627737,-0.18542615,0.9661863,0.003557248,-0.6759717,-0.64262086,0.613534,767.1795,786.1172,783.69965,656.77655,860.2564,0.8160400390625,-0.07904052734375,0.52978515625,2.265472412109375,-4.0374755859375,-1.128997802734375,1.0,1.0,1.0,1.0,1.0,50.0,
2023-09-09 22:58:33.254,0.9181993,0.6010072,0.75414896,1.1800033,0.9525185,0.0619904,0.20662442,0.7430471,0.903129,0.1608559,0.34244326,0.7554584,0.5091456,0.0056627737,-0.18542615,0.9661863,0.003557248,-0.6759717,-0.64262086,0.613534,751.06226,773.6264,780.87915,726.08057,803.8461,0.830322265625,-0.0848388671875,0.5313720703125,2.265472412109375,-4.628143310546875,-1.637420654296875,1.0,1.0,1.0,1.0,1.0,50.0,
2023-09-09 22:58:33.259,0.8594685,0.58498055,0.7298636,1.1800033,0.9400072,0.078645945,0.18860714,0.7430471,0.903129,0.1626156,0.34419313,0.7554584,0.49373588,-0.005357878,-0.19103426,0.9661863,0.03521983,-0.6730565,-0.63151777,0.613534,761.9414,777.25275,788.1319,734.94507,1064.9451,0.830322265625,-0.0848388671875,0.5313720703125,2.265472412109375,-4.628143310546875,-1.637420654296875,1.0,1.0,1.0,1.0,1.0,50.0,
2023-09-09 22:58:33.351,0.8594685,0.58498055,0.7298636,1.1800033,0.9400072,0.078645945,0.18860714,0.7430471,0.903129,0.1626156,0.34419313,0.7554584,0.49373588,-0.005357878,-0.19103426,0.9661863,0.03521983,-0.6730565,-0.63151777,0.613534,744.21246,775.2381,786.52014,740.58606,908.60803,0.844482421875,-0.08740234375,0.51904296875,3.431854248046875,-4.717864990234375,-2.295379638671875,1.0,1.0,1.0,1.0,1.0,50.0,
2023-09-09 22:58:33.358,0.8101841,0.57025605,0.7023585,1.1800033,0.91636103,0.10106038,0.18763044,0.7430471,0.9037715,0.16415556,0.34419313,0.7554584,0.49762672,-0.015388558,-0.1927907,0.9661863,0.047185175,-0.66608256,-0.6289307,0.613534,750.65936,773.6264,778.46155,805.05493,737.3626,0.844482421875,-0.08740234375,0.51904296875,3.431854248046875,-4.717864990234375,-2.295379638671875,1.0,1.0,1.0,1.0,1.0,50.0,
2023-09-09 22:58:33.402,0.8101841,0.57025605,0.7023585,1.1800033,0.91636103,0.10106038,0.18763044,0.7430471,0.9037715,0.16415556,0.34419313,0.7554584,0.49762672,-0.015388558,-0.1927907,0.9661863,0.047185175,-0.66608256,-0.6289307,0.613534,755.4945,775.2381,776.04395,805.4579,870.32965,0.85711669921875,-0.08111572265625,0.53271484375,3.835601806640625,-3.2000732421875,-1.77947998046875,1.0,1.0,1.0,1.0,1.0,50.0,
2023-09-09 22:58:33.455,0.8101841,0.57025605,0.7023585,1.1800033,0.91636103,0.10106038,0.18763044,0.7430471,0.9037715,0.16415556,0.34419313,0.7554584,0.49762672,-0.015388558,-0.1927907,0.9661863,0.047185175,-0.66608256,-0.6289307,0.613534,755.89746,785.7143,782.8938,834.87177,909.41394,0.84344482421875,-0.08074951171875,0.51861572265625,4.29168701171875,-0.88226318359375,-0.61309814453125,1.0,1.0,1.0,1.0,1.0,50.0,
2023-09-09 22:58:33.493,0.8101841,0.57025605,0.7023585,1.1800033,0.91636103,0.10106038,0.18763044,0.7430471,0.9037715,0.16415556,0.34419313,0.7554584,0.49762672,-0.015388558,-0.1927907,0.9661863,0.047185175,-0.66608256,-0.6289307,0.613534,755.09155,780.07324,776.04395,848.5714,1236.5934,0.82635498046875,-0.0709228515625,0.51361083984375,4.598236083984375,-1.353302001953125,-0.261688232421875,1.0,1.0,1.0,1.0,1.0,50.0,
2023-09-09 22:58:33.494,0.763711,0.5553979,0.6754579,1.1800033,0.8851772,0.1190003,0.18876371,0.7430471,0.8904144,0.19362156,0.34608966,0.7554584,0.5482787,-0.02290869,-0.20053706,0.9661863,0.054855008,-0.659267,-0.63473225,0.613534,746.63007,779.67035,776.04395,833.663,886.8498,0.82635498046875,-0.0709228515625,0.51361083984375,4.598236083984375,-1.353302001953125,-0.261688232421875,1.0,1.0,1.0,1.0,1.0,50.0,
2023-09-09 22:58:33.560,0.763711,0.5553979,0.6754579,1.1800033,0.8851772,0.1190003,0.18876371,0.7430471,0.8904144,0.19362156,0.34608966,0.7554584,0.5482787,-0.02290869,-0.20053706,0.9661863,0.054855008,-0.659267,-0.63473225,0.613534,750.65936,779.2674,787.72894,830.0366,792.1612,0.83526611328125,-0.071044921875,0.51910400390625,3.46923828125,-3.70849609375,-0.426177978515625,1.0,1.0,1.0,1.0,1.0,50.0,
2023-09-09 22:58:33.633,0.6645467,0.5379901,0.642474,1.1800033,0.83751327,0.12987511,0.18865928,0.7430471,0.8843818,0.23982571,0.34608966,0.7554584,0.618129,-0.028418105,-0.21224469,0.9661863,0.07328579,-0.6556919,-0.64583266,0.613534,756.30035,781.28204,778.86444,806.6667,924.7253,0.83526611328125,-0.071044921875,0.51910400390625,3.46923828125,-3.70849609375,-0.426177978515625,1.0,1.0,1.0,1.0,1.0,50.0,
2023-09-09 22:58:33.685,0.6645467,0.5379901,0.642474,1.1800033,0.83751327,0.12987511,0.18865928,0.7430471,0.8843818,0.23982571,0.34608966,0.7554584,0.618129,-0.028418105,-0.21224469,0.9661863,0.07328579,-0.6556919,-0.64583266,0.613534,767.98535,782.0879,780.07324,813.1135,809.0842,0.8304443359375,-0.07684326171875,0.5185546875,3.013153076171875,-3.46923828125,-0.426177978515625,1.0,1.0,1.0,1.0,1.0,50.0,
2023-09-09 22:58:33.696,0.6645467,0.5379901,0.642474,1.1800033,0.83751327,0.12987511,0.18865928,0.7430471,0.8843818,0.23982571,0.34608966,0.7554584,0.618129,-0.028418105,-0.21224469,0.9661863,0.07328579,-0.6556919,-0.64583266,0.613534,755.89746,781.685,790.9524,809.4872,929.15753,0.8438720703125,-0.0770263671875,0.5206298828125,4.366455078125,-3.985137939453125,-0.426177978515625,1.0,1.0,1.0,1.0,1.0,50.0,
2023-09-09 22:58:33.699,0.33300814,0.5069963,0.60154074,1.1800033,0.7321995,0.1524801,0.17516318,0.7430471,0.3119933,0.23086359,0.34608966,0.7554584,0.69215226,-0.045943942,-0.22345851,0.9661863,0.0982836,-0.66099244,-0.6559054,0.613534,750.65936,782.0879,789.34064,809.89014,903.36993,0.8438720703125,-0.0770263671875,0.5206298828125,4.366455078125,-3.985137939453125,-0.426177978515625,1.0,1.0,1.0,1.0,1.0,50.0,
2023-09-09 22:58:33.748,0.33300814,0.5069963,0.60154074,1.1800033,0.7321995,0.1524801,0.17516318,0.7430471,0.3119933,0.23086359,0.34608966,0.7554584,0.69215226,-0.045943942,-0.22345851,0.9661863,0.0982836,-0.66099244,-0.6559054,0.613534,755.09155,776.4469,784.10254,810.293,914.65204,0.8414306640625,-0.0806884765625,0.5174560546875,3.60382080078125,-3.2000732421875,0.16448974609375,1.0,1.0,1.0,1.0,1.0,50.0,
2023-09-09 22:58:33.756,0.33300814,0.5069963,0.60154074,1.1800033,0.7321995,0.1524801,0.17516318,0.7430471,0.3119933,0.23086359,0.34608966,0.7554584,0.69215226,-0.045943942,-0.22345851,0.9661863,0.0982836,-0.66099244,-0.6559054,0.613534,757.9121,780.87915,778.46155,790.54944,924.3223,0.8406982421875,-0.08587646484375,0.51812744140625,4.90478515625,-1.996307373046875,0.6878662109375,1.0,1.0,1.0,1.0,1.0,50.0,
2023-09-09 22:58:33.761,0.28726056,0.45608184,0.5423308,1.1800033,0.71519494,0.16763169,0.12893707,0.7430471,0.33563653,0.17819354,0.3417682,0.7554584,0.7456571,-0.06475384,-0.22841589,0.9661863,0.09101043,-0.6685429,-0.65665036,0.613534,772.4176,772.4176,781.28204,805.05493,872.74725,0.8406982421875,-0.08587646484375,0.51812744140625,4.90478515625,-1.996307373046875,0.6878662109375,1.0,1.0,1.0,1.0,1.0,50.0,
2023-09-09 22:58:33.868,0.28726056,0.45608184,0.5423308,1.1800033,0.71519494,0.16763169,0.12893707,0.7430471,0.33563653,0.17819354,0.3417682,0.7554584,0.7456571,-0.06475384,-0.22841589,0.9661863,0.09101043,-0.6685429,-0.65665036,0.613534,749.0476,774.0293,782.0879,803.44324,919.4872,0.82843017578125,-0.0826416015625,0.5228271484375,4.673004150390625,-3.087921142578125,0.710296630859375,1.0,1.0,1.0,1.0,1.0,50.0,
2023-09-09 22:58:33.873,0.25499192,0.393326,0.4410965,1.1800033,0.72124344,0.17259872,0.040720552,0.7430471,0.37424314,0.12643631,0.26777616,0.7554584,0.7712434,-0.0806536,-0.22462313,0.9661863,0.07835601,-0.6707911,-0.6446446,0.613534,755.89746,768.7912,771.6117,776.8498,762.3443,0.82843017578125,-0.0826416015625,0.5228271484375,4.673004150390625,-3.087921142578125,0.710296630859375,1.0,1.0,1.0,1.0,1.0,50.0,
2023-09-09 22:58:33.905,0.25499192,0.393326,0.4410965,1.1800033,0.72124344,0.17259872,0.040720552,0.7430471,0.37424314,0.12643631,0.26777616,0.7554584,0.7712434,-0.0806536,-0.22462313,0.9661863,0.07835601,-0.6707911,-0.6446446,0.613534,753.47986,773.6264,778.46155,783.2967,740.58606,0.8311767578125,-0.07843017578125,0.5194091796875,4.852447509765625,-3.162689208984375,0.426177978515625,1.0,1.0,1.0,1.0,1.0,50.0,
2023-09-09 22:58:33.956,0.25499192,0.393326,0.4410965,1.1800033,0.72124344,0.17259872,0.040720552,0.7430471,0.37424314,0.12643631,0.26777616,0.7554584,0.7712434,-0.0806536,-0.22462313,0.9661863,0.07835601,-0.6707911,-0.6446446,0.613534,771.2088,774.0293,774.43225,799.011,770.0,0.83294677734375,-0.08441162109375,0.5198974609375,4.448699951171875,-3.491668701171875,0.231781005859375,1.0,1.0,1.0,1.0,1.0,50.0,
2023-09-09 22:58:33.963,0.23515292,0.3366057,0.2860413,1.1800033,0.7360393,0.16575813,-0.07393766,0.7430471,0.39732686,0.07475251,0.104488395,0.7554584,0.7734489,-0.0951163,-0.21562298,0.9661863,0.0629059,-0.6645697,-0.62601924,0.613534,759.5238,777.25275,778.0586,813.91943,852.6007,0.83294677734375,-0.08441162109375,0.5198974609375,4.448699951171875,-3.491668701171875,0.231781005859375,1.0,1.0,1.0,1.0,1.0,50.0,
2023-09-09 22:58:34.031,0.23515292,0.3366057,0.2860413,1.1800033,0.7360393,0.16575813,-0.07393766,0.7430471,0.39732686,0.07475251,0.104488395,0.7554584,0.7734489,-0.0951163,-0.21562298,0.9661863,0.0629059,-0.6645697,-0.62601924,0.613534,759.92676,776.4469,777.6557,796.5934,797.3993,0.8414306640625,-0.08502197265625,0.51959228515625,4.583282470703125,-3.6187744140625,0.3887939453125,1.0,1.0,1.0,1.0,1.0,50.0,
2023-09-09 22:58:34.067,0.23515292,0.3366057,0.2860413,1.1800033,0.7360393,0.16575813,-0.07393766,0.7430471,0.39732686,0.07475251,0.104488395,0.7554584,0.7734489,-0.0951163,-0.21562298,0.9661863,0.0629059,-0.6645697,-0.62601924,0.613534,772.4176,772.8205,782.8938,802.6374,821.1722,0.837158203125,-0.08294677734375,0.51239013671875,4.71038818359375,-2.8411865234375,0.261688232421875,1.0,1.0,1.0,1.0,1.0,50.0,
2023-09-09 22:58:34.111,0.21715498,0.29774973,0.0971531,1.1800033,0.744192,0.14934526,-0.17526296,0.7430471,0.4477136,0.050316058,0.0010579685,0.7554584,0.76025665,-0.11275037,-0.2075542,0.9661863,0.05172109,-0.6510114,-0.6084156,0.613534,765.9707,771.6117,782.49084,821.1722,888.46155,0.837158203125,-0.08294677734375,0.51239013671875,4.71038818359375,-2.8411865234375,0.261688232421875,1.0,1.0,1.0,1.0,1.0,50.0,
2023-09-09 22:58:34.145,0.21715498,0.29774973,0.0971531,1.1800033,0.744192,0.14934526,-0.17526296,0.7430471,0.4477136,0.050316058,0.0010579685,0.7554584,0.76025665,-0.11275037,-0.2075542,0.9661863,0.05172109,-0.6510114,-0.6084156,0.613534,765.9707,772.01465,770.0,808.68134,902.96704,0.84393310546875,-0.07940673828125,0.5205078125,5.360870361328125,-2.878570556640625,-0.19439697265625,1.0,1.0,1.0,1.0,1.0,50.0,
2023-09-09 22:58:34.184,0.21715498,0.29774973,0.0971531,1.1800033,0.744192,0.14934526,-0.17526296,0.7430471,0.4477136,0.050316058,0.0010579685,0.7554584,0.76025665,-0.11275037,-0.2075542,0.9661863,0.05172109,-0.6510114,-0.6084156,0.613534,764.7619,766.77655,772.4176,838.9011,1232.5641,0.8448486328125,-0.08123779296875,0.5091552734375,4.02252197265625,-2.429962158203125,-0.04486083984375,1.0,1.0,1.0,1.0,1.0,50.0,
2023-09-09 22:58:34.187,0.2108464,0.278842,-0.04852305,1.1800033,0.74167204,0.13009843,-0.23021355,0.7430471,0.5877247,0.033441667,-0.026587274,0.7554584,0.7424433,-0.13146839,-0.20169972,0.9661863,0.049422693,-0.6328632,-0.5943174,0.613534,778.0586,774.43225,771.2088,830.84247,823.1868,0.8448486328125,-0.08123779296875,0.5091552734375,4.02252197265625,-2.429962158203125,-0.04486083984375,1.0,1.0,1.0,1.0,1.0,50.0,
2023-09-09 22:58:34.218,0.2108464,0.278842,-0.04852305,1.1800033,0.74167204,0.13009843,-0.23021355,0.7430471,0.5877247,0.033441667,-0.026587274,0.7554584,0.7424433,-0.13146839,-0.20169972,0.9661863,0.049422693,-0.6328632,-0.5943174,0.613534,755.09155,772.01465,773.22345,830.4396,991.6117,0.83990478515625,-0.08819580078125,0.5107421875,3.955230712890625,-2.8411865234375,0.11962890625,1.0,1.0,1.0,1.0,1.0,50.0,
2023-09-09 22:58:34.282,0.2108464,0.278842,-0.04852305,1.1800033,0.74167204,0.13009843,-0.23021355,0.7430471,0.5877247,0.033441667,-0.026587274,0.7554584,0.7424433,-0.13146839,-0.20169972,0.9661863,0.049422693,-0.6328632,-0.5943174,0.613534,767.98535,765.9707,778.0586,822.7839,735.34796,0.834716796875,-0.09228515625,0.51593017578125,4.089813232421875,-2.52716064453125,-0.635528564453125,1.0,1.0,1.0,1.0,1.0,50.0,
2023-09-09 22:58:34.286,0.2207255,0.26646864,-0.10823101,1.1800033,0.73339367,0.11910626,-0.24911644,0.7430471,0.7062101,0.10645332,-0.03249292,0.7554584,0.7303683,-0.14236344,-0.19540255,0.9661863,0.054755263,-0.6121352,-0.5845268,0.613534,780.87915,770.0,770.0,785.7143,984.35895,0.834716796875,-0.09228515625,0.51593017578125,4.089813232421875,-2.52716064453125,-0.635528564453125,1.0,1.0,1.0,1.0,1.0,50.0,
2023-09-09 22:58:34.350,0.2207255,0.26646864,-0.10823101,1.1800033,0.73339367,0.11910626,-0.24911644,0.7430471,0.7062101,0.10645332,-0.03249292,0.7554584,0.7303683,-0.14236344,-0.19540255,0.9661863,0.054755263,-0.6121352,-0.5845268,0.613534,761.53845,772.8205,766.3736,806.26373,813.1135,0.83349609375,-0.09625244140625,0.51654052734375,4.583282470703125,-2.878570556640625,-1.069183349609375,1.0,1.0,1.0,1.0,1.0,50.0,
2023-09-09 22:58:34.354,0.24192764,0.24955888,-0.11399913,1.1800033,0.7240212,0.12239854,-0.25206456,0.7430471,0.8125624,0.16036282,-0.030267987,0.7554584,0.72685575,-0.13869502,-0.18673426,0.9661863,0.06262664,-0.58946806,-0.58014804,0.613534,757.9121,768.3883,761.13556,803.0403,873.1502,0.83349609375,-0.09625244140625,0.51654052734375,4.583282470703125,-2.878570556640625,-1.069183349609375,1.0,1.0,1.0,1.0,1.0,50.0,
2023-09-09 22:58:34.420,0.24192764,0.24955888,-0.11399913,1.1800033,0.7240212,0.12239854,-0.25206456,0.7430471,0.8125624,0.16036282,-0.030267987,0.7554584,0.72685575,-0.13869502,-0.18673426,0.9661863,0.06262664,-0.58946806,-0.58014804,0.613534,752.27106,764.35895,760.7326,783.69965,828.4249,0.839111328125,-0.0941162109375,0.51727294921875,4.568328857421875,-3.289794921875,-0.52337646484375,1.0,1.0,1.0,1.0,1.0,50.0,
2023-09-09 22:58:34.466,0.24192764,0.24955888,-0.11399913,1.1800033,0.7240212,0.12239854,-0.25206456,0.7430471,0.8125624,0.16036282,-0.030267987,0.7554584,0.72685575,-0.13869502,-0.18673426,0.9661863,0.06262664,-0.58946806,-0.58014804,0.613534,763.1502,774.43225,768.7912,786.9231,819.9634,0.8409423828125,-0.09698486328125,0.51690673828125,3.955230712890625,-3.147735595703125,-0.4486083984375,1.0,1.0,1.0,1.0,1.0,50.0,
2023-09-09 22:58:34.473,0.262578,0.21881622,-0.091966756,1.1800033,0.7140722,0.13475692,-0.24240582,0.7430471,0.898375,0.17449805,-0.030267987,0.7554584,0.72507596,-0.12535241,-0.17713606,0.9661863,0.06757486,-0.5680712,-0.5842485,0.613534,770.80585,778.86444,770.80585,808.68134,959.7802,0.8409423828125,-0.09698486328125,0.51690673828125,3.955230712890625,-3.147735595703125,-0.4486083984375,1.0,1.0,1.0,1.0,1.0,50.0,
2023-09-09 22:58:34.506,0.262578,0.21881622,-0.091966756,1.1800033,0.7140722,0.13475692,-0.24240582,0.7430471,0.898375,0.17449805,-0.030267987,0.7554584,0.72507596,-0.12535241,-0.17713606,0.9661863,0.06757486,-0.5680712,-0.5842485,0.613534,773.6264,780.87915,772.4176,811.50183,1186.227,0.83648681640625,-0.09521484375,0.5140380859375,5.719757080078125,-2.325286865234375,-0.620574951171875,1.0,1.0,1.0,1.0,1.0,50.0,
2023-09-09 22:58:34.547,0.262578,0.21881622,-0.091966756,1.1800033,0.7140722,0.13475692,-0.24240582,0.7430471,0.898375,0.17449805,-0.030267987,0.7554584,0.72507596,-0.12535241,-0.17713606,0.9661863,0.06757486,-0.5680712,-0.5842485,0.613534,784.5055,766.3736,767.5824,807.8755,848.1685,0.8349609375,-0.08624267578125,0.5146484375,6.721649169921875,-1.80938720703125,-0.61309814453125,1.0,1.0,1.0,1.0,1.0,50.0,
2023-09-09 22:58:34.553,0.26912653,0.18681034,-0.043111805,1.1800033,0.70254254,0.1461363,-0.22627233,0.7430471,0.93746036,0.18398042,-0.0307305,0.7554584,0.7176917,-0.11079606,-0.16998926,0.9661863,0.06626833,-0.5511122,-0.5962692,0.613534,767.5824,772.8205,763.5531,798.20514,813.5165,0.8349609375,-0.08624267578125,0.5146484375,6.721649169921875,-1.80938720703125,-0.61309814453125,1.0,1.0,1.0,1.0,1.0,50.0,
2023-09-09 22:58:34.666,0.26912653,0.18681034,-0.043111805,1.1800033,0.70254254,0.1461363,-0.22627233,0.7430471,0.93746036,0.18398042,-0.0307305,0.7554584,0.7176917,-0.11079606,-0.16998926,0.9661863,0.06626833,-0.5511122,-0.5962692,0.613534,779.67035,780.87915,774.83514,808.68134,817.5458,0.830322265625,-0.0738525390625,0.51776123046875,6.781463623046875,-1.973876953125,0.22430419921875,1.0,1.0,1.0,1.0,1.0,50.0,
2023-09-09 22:58:34.708,0.26912653,0.18681034,-0.043111805,1.1800033,0.70254254,0.1461363,-0.22627233,0.7430471,0.93746036,0.18398042,-0.0307305,0.7554584,0.7176917,-0.11079606,-0.16998926,0.9661863,0.06626833,-0.5511122,-0.5962692,0.613534,782.8938,781.28204,765.9707,813.5165,794.57874,0.83148193359375,-0.07220458984375,0.51983642578125,5.682373046875,-2.893524169921875,-0.650482177734375,1.0,1.0,1.0,1.0,1.0,50.0,
2023-09-09 22:58:34.709,0.27015367,0.1543299,0.012026097,1.1800033,0.67072767,0.15332124,-0.21018964,0.7430471,0.9497429,0.18578215,-0.032631766,0.7554584,0.7175242,-0.099751554,-0.16747734,0.9661863,0.05295721,-0.54100287,-0.6085466,0.613534,778.86444,779.67035,764.7619,827.619,838.0952,0.83148193359375,-0.07220458984375,0.51983642578125,5.682373046875,-2.893524169921875,-0.650482177734375,1.0,1.0,1.0,1.0,1.0,50.0,
2023-09-09 22:58:34.751,0.27015367,0.1543299,0.012026097,1.1800033,0.67072767,0.15332124,-0.21018964,0.7430471,0.9497429,0.18578215,-0.032631766,0.7554584,0.7175242,-0.099751554,-0.16747734,0.9661863,0.05295721,-0.54100287,-0.6085466,0.613534,756.30035,770.0,760.32965,809.89014,726.08057,0.84063720703125,-0.07208251953125,0.5169677734375,4.538421630859375,-2.82623291015625,-2.0635986328125,1.0,1.0,1.0,1.0,1.0,50.0,
2023-09-09 22:58:34.827,0.27015367,0.1543299,0.012026097,1.1800033,0.67072767,0.15332124,-0.21018964,0.7430471,0.9497429,0.18578215,-0.032631766,0.7554584,0.7175242,-0.099751554,-0.16747734,0.9661863,0.05295721,-0.54100287,-0.6085466,0.613534,758.71796,770.40295,757.1062,803.44324,864.2857,0.835693359375,-0.073974609375,0.515625,4.104766845703125,-2.355194091796875,-2.82623291015625,1.0,1.0,1.0,1.0,1.0,50.0,
2023-09-09 22:58:34.830,0.32141504,0.120880924,0.04332269,1.1800033,0.65356785,0.16067356,-0.19664796,0.7430471,0.9813176,0.18735285,-0.017307451,0.7554584,0.71223927,-0.09200278,-0.16836159,0.9661863,0.032174002,-0.53798115,-0.61262983,0.613534,756.7033,769.19415,758.315,821.1722,815.5311,0.835693359375,-0.073974609375,0.515625,4.104766845703125,-2.355194091796875,-2.82623291015625,1.0,1.0,1.0,1.0,1.0,50.0,
2023-09-09 22:58:34.877,0.32141504,0.120880924,0.04332269,1.1800033,0.65356785,0.16067356,-0.19664796,0.7430471,0.9813176,0.18735285,-0.017307451,0.7554584,0.71223927,-0.09200278,-0.16836159,0.9661863,0.032174002,-0.53798115,-0.61262983,0.613534,764.7619,774.43225,756.30035,823.9927,857.03296,0.84759521484375,-0.07293701171875,0.51910400390625,3.372039794921875,-3.15521240234375,-2.624359130859375,1.0,1.0,1.0,1.0,1.0,50.0,
2023-09-09 22:58:34.888,0.418701,0.08477552,0.05884868,1.1800033,0.65772253,0.17274754,-0.18323918,0.7430471,0.9978373,0.18762039,0.015096969,0.7554584,0.7034935,-0.08614161,-0.16937824,0.9661863,0.010856069,-0.53962624,-0.6066263,0.613534,768.7912,773.6264,767.1795,817.1429,984.35895,0.84759521484375,-0.07293701171875,0.51910400390625,3.372039794921875,-3.15521240234375,-2.624359130859375,1.0,1.0,1.0,1.0,1.0,50.0,
2023-09-09 22:58:34.926,0.418701,0.08477552,0.05884868,1.1800033,0.65772253,0.17274754,-0.18323918,0.7430471,0.9978373,0.18762039,0.015096969,0.7554584,0.7034935,-0.08614161,-0.16937824,0.9661863,0.010856069,-0.53962624,-0.6066263,0.613534,817.9487,814.7253,808.68134,852.1978,805.05493,0.84991455078125,-0.07550048828125,0.5101318359375,3.357086181640625,-2.519683837890625,-1.383209228515625,1.0,1.0,1.0,1.0,1.0,50.0,
2023-09-09 22:58:34.967,0.418701,0.08477552,0.05884868,1.1800033,0.65772253,0.17274754,-0.18323918,0.7430471,0.9978373,0.18762039,0.015096969,0.7554584,0.7034935,-0.08614161,-0.16937824,0.9661863,0.010856069,-0.53962624,-0.6066263,0.613534,786.9231,794.17584,793.36993,847.76556,854.21246,0.8426513671875,-0.08251953125,0.509521484375,3.5589599609375,-1.6448974609375,-1.12152099609375,1.0,1.0,1.0,1.0,1.0,50.0,
2023-09-09 22:58:34.971,0.5121275,0.06893343,0.11183093,1.1800033,0.6760201,0.19026867,-0.1623591,0.7430471,1.0092096,0.18762039,0.05173024,0.7554584,0.6889657,-0.08147082,-0.16625759,0.9661863,-0.008269757,-0.54005575,-0.59550184,0.613534,777.25275,776.4469,778.0586,834.87177,1098.3883,0.8426513671875,-0.08251953125,0.509521484375,3.5589599609375,-1.6448974609375,-1.12152099609375,1.0,1.0,1.0,1.0,1.0,50.0,
2023-09-09 22:58:35.035,0.5121275,0.06893343,0.11183093,1.1800033,0.6760201,0.19026867,-0.1623591,0.7430471,1.0092096,0.18762039,0.05173024,0.7554584,0.6889657,-0.08147082,-0.16625759,0.9661863,-0.008269757,-0.54005575,-0.59550184,0.613534,788.1319,778.86444,780.4762,830.84247,793.7729,0.841796875,-0.0772705078125,0.512939453125,3.57391357421875,-1.68975830078125,-1.2860107421875,1.0,1.0,1.0,1.0,1.0,50.0,
2023-09-09 22:58:35.068,0.5121275,0.06893343,0.11183093,1.1800033,0.6760201,0.19026867,-0.1623591,0.7430471,1.0092096,0.18762039,0.05173024,0.7554584,0.6889657,-0.08147082,-0.16625759,0.9661863,-0.008269757,-0.54005575,-0.59550184,0.613534,787.326,782.0879,764.35895,814.3223,837.6923,0.83099365234375,-0.08062744140625,0.51275634765625,3.431854248046875,-1.532745361328125,-1.517791748046875,1.0,1.0,1.0,1.0,1.0,50.0,
2023-09-09 22:58:35.074,0.58556914,0.09830327,0.224866,1.1800033,0.698648,0.21963334,-0.11581853,0.7430471,1.0399843,0.21712886,0.13124458,0.7554584,0.6661265,-0.07426418,-0.1511738,0.9661863,-0.026032146,-0.5324638,-0.5805924,0.613534,773.22345,772.4176,761.13556,809.4872,894.10254,0.83099365234375,-0.08062744140625,0.51275634765625,3.431854248046875,-1.532745361328125,-1.517791748046875,1.0,1.0,1.0,1.0,1.0,50.0,
2023-09-09 22:58:35.145,0.58556914,0.09830327,0.224866,1.1800033,0.698648,0.21963334,-0.11581853,0.7430471,1.0399843,0.21712886,0.13124458,0.7554584,0.6661265,-0.07426418,-0.1511738,0.9661863,-0.026032146,-0.5324638,-0.5805924,0.613534,772.01465,772.01465,751.4652,774.43225,878.3883,0.8404541015625,-0.078369140625,0.51385498046875,3.386993408203125,-3.1103515625,-2.07855224609375,1.0,1.0,1.0,1.0,1.0,50.0,
2023-09-09 22:58:35.151,0.6694151,0.21487547,0.40695065,1.1800033,0.7239553,0.28083268,-0.00808183,0.7430471,1.0878396,0.4376893,0.29761633,0.7554584,0.6372196,-0.056353502,-0.112728514,0.9661863,-0.04104503,-0.5143274,-0.5547485,0.613534,771.2088,774.83514,759.12085,790.14655,763.95605,0.8404541015625,-0.078369140625,0.51385498046875,3.386993408203125,-3.1103515625,-2.07855224609375,1.0,1.0,1.0,1.0,1.0,50.0,
2023-09-09 22:58:35.236,0.6694151,0.21487547,0.40695065,1.1800033,0.7239553,0.28083268,-0.00808183,0.7430471,1.0878396,0.4376893,0.29761633,0.7554584,0.6372196,-0.056353502,-0.112728514,0.9661863,-0.04104503,-0.5143274,-0.5547485,0.613534,774.0293,776.4469,763.5531,788.1319,885.2381,0.84375,-0.07672119140625,0.51666259765625,3.349609375,-3.2000732421875,-1.39068603515625,1.0,1.0,1.0,1.0,1.0,50.0,
2023-09-09 22:58:35.269,0.6694151,0.21487547,0.40695065,1.1800033,0.7239553,0.28083268,-0.00808183,0.7430471,1.0878396,0.4376893,0.29761633,0.7554584,0.6372196,-0.056353502,-0.112728514,0.9661863,-0.04104503,-0.5143274,-0.5547485,0.613534,772.01465,767.98535,760.7326,762.74725,1024.652,0.8558349609375,-0.06390380859375,0.5233154296875,3.349609375,-2.392578125,-0.575714111328125,1.0,1.0,1.0,1.0,1.0,50.0,
2023-09-09 22:58:35.323,0.6694151,0.21487547,0.40695065,1.1800033,0.7239553,0.28083268,-0.00808183,0.7430471,1.0878396,0.4376893,0.29761633,0.7554584,0.6372196,-0.056353502,-0.112728514,0.9661863,-0.04104503,-0.5143274,-0.5547485,0.613534,769.19415,768.7912,762.3443,774.0293,837.6923,0.8546142578125,-0.05810546875,0.53021240234375,0.590667724609375,-1.62994384765625,0.411224365234375,1.0,1.0,1.0,1.0,1.0,50.0,
2023-09-09 22:58:35.324,0.7806183,0.3913212,0.61797905,1.1800033,0.74964404,0.37407145,0.15464583,0.7430471,1.1462895,0.7379202,0.4949488,0.7554584,0.60822886,-0.025635954,-0.05285122,0.9661863,-0.049689464,-0.49038342,-0.51732093,0.613534,773.6264,774.43225,765.56775,784.90845,728.9011,0.8546142578125,-0.05810546875,0.53021240234375,0.590667724609375,-1.62994384765625,0.411224365234375,1.0,1.0,1.0,1.0,1.0,50.0,
2023-09-09 22:58:35.397,0.7806183,0.3913212,0.61797905,1.1800033,0.74964404,0.37407145,0.15464583,0.7430471,1.1462895,0.7379202,0.4949488,0.7554584,0.60822886,-0.025635954,-0.05285122,0.9661863,-0.049689464,-0.49038342,-0.51732093,0.613534,784.5055,779.2674,773.22345,798.20514,844.5421,0.84417724609375,-0.0911865234375,0.5064697265625,-1.368255615234375,0.25421142578125,-0.777587890625,1.0,1.0,1.0,1.0,1.0,50.0,
2023-09-09 22:58:35.435,0.88728195,0.5558975,0.8012883,1.1800033,0.76907206,0.46950224,0.31097966,0.7430471,1.180802,0.8803812,0.6071883,0.7554584,0.5853889,0.009083881,0.008911725,0.9661863,-0.050972894,-0.46891305,-0.4784497,0.613534,782.0879,773.6264,769.19415,788.93774,851.79486,0.84417724609375,-0.0911865234375,0.5064697265625,-1.368255615234375,0.25421142578125,-0.777587890625,1.0,1.0,1.0,1.0,1.0,50.0,
2023-09-09 22:58:35.489,0.88728195,0.5558975,0.8012883,1.1800033,0.76907206,0.46950224,0.31097966,0.7430471,1.180802,0.8803812,0.6071883,0.7554584,0.5853889,0.009083881,0.008911725,0.9661863,-0.050972894,-0.46891305,-0.4784497,0.613534,800.6227,776.4469,768.7912,821.1722,857.4359,0.8360595703125,-0.1064453125,0.49835205078125,-0.31402587890625,-0.40374755859375,-1.861724853515625,1.0,1.0,1.0,1.0,1.0,50.0,
2023-09-09 22:58:35.555,0.88728195,0.5558975,0.8012883,1.1800033,0.76907206,0.46950224,0.31097966,0.7430471,1.180802,0.8803812,0.6071883,0.7554584,0.5853889,0.009083881,0.008911725,0.9661863,-0.050972894,-0.46891305,-0.4784497,0.613534,786.9231,780.07324,762.74725,819.9634,761.13556,0.83416748046875,-0.11907958984375,0.50262451171875,2.01873779296875,-1.1065673828125,-1.21124267578125,1.0,1.0,1.0,1.0,1.0,50.0,
2023-09-09 22:58:35.560,0.96091974,0.67126876,0.9308051,1.1800033,0.78007406,0.5415471,0.42150003,0.7430471,1.1860843,0.8965237,0.627363,0.7554584,0.5727475,0.036109474,0.0545406,0.9661863,-0.048460387,-0.454204,-0.44847494,0.613534,774.83514,774.0293,768.7912,827.2161,945.6777,0.83416748046875,-0.11907958984375,0.50262451171875,2.01873779296875,-1.1065673828125,-1.21124267578125,1.0,1.0,1.0,1.0,1.0,50.0,
2023-09-09 22:58:35.571,0.96091974,0.67126876,0.9308051,1.1800033,0.78007406,0.5415471,0.42150003,0.7430471,1.1860843,0.8965237,0.627363,0.7554584,0.5727475,0.036109474,0.0545406,0.9661863,-0.048460387,-0.454204,-0.44847494,0.613534,790.54944,777.6557,764.7619,832.8571,769.59705,0.8282470703125,-0.11676025390625,0.50555419921875,5.839385986328125,-1.256103515625,-0.979461669921875,1.0,1.0,1.0,1.0,1.0,50.0,
2023-09-09 22:58:35.612,0.96091974,0.67126876,0.9308051,1.1800033,0.78007406,0.5415471,0.42150003,0.7430471,1.1860843,0.8965237,0.627363,0.7554584,0.5727475,0.036109474,0.0545406,0.9661863,-0.048460387,-0.454204,-0.44847494,0.613534,785.31134,779.2674,759.92676,814.7253,938.022,0.838134765625,-0.09161376953125,0.53277587890625,8.68804931640625,-3.4393310546875,0.58319091796875,1.0,1.0,1.0,1.0,1.0,50.0,
2023-09-09 22:58:35.616,1.0057579,0.73550665,0.9587606,1.1800033,0.7835379,0.5827257,0.4459751,0.7430471,1.1860843,0.8965237,0.627363,0.7554584,0.57206297,0.05089899,0.06360246,0.9661863,-0.04903926,-0.44660097,-0.44331336,0.613534,781.685,779.67035,767.5824,828.4249,809.89014,0.838134765625,-0.09161376953125,0.53277587890625,8.68804931640625,-3.4393310546875,0.58319091796875,1.0,1.0,1.0,1.0,1.0,50.0,
2023-09-09 22:58:35.686,1.0057579,0.73550665,0.9587606,1.1800033,0.7835379,0.5827257,0.4459751,0.7430471,1.1860843,0.8965237,0.627363,0.7554584,0.57206297,0.05089899,0.06360246,0.9661863,-0.04903926,-0.44660097,-0.44331336,0.613534,803.44324,792.1612,766.77655,814.7253,829.6337,0.8343505859375,-0.0782470703125,0.53955078125,8.61328125,-2.056121826171875,2.46734619140625,1.0,1.0,1.0,1.0,1.0,50.0,
2023-09-09 22:58:35.690,1.0362002,0.7627291,0.9875522,1.1800033,0.783188,0.60016567,0.47295487,0.7430471,1.1860843,0.8965237,0.627363,0.7554584,0.57879657,0.055240072,0.07629974,0.9661863,-0.05663414,-0.4438793,-0.43493953,0.613534,795.78754,774.0293,764.7619,817.1429,901.75824,0.8343505859375,-0.0782470703125,0.53955078125,8.61328125,-2.056121826171875,2.46734619140625,1.0,1.0,1.0,1.0,1.0,50.0,
2023-09-09 22:58:35.726,1.0362002,0.7627291,0.9875522,1.1800033,0.783188,0.60016567,0.47295487,0.7430471,1.1860843,0.8965237,0.627363,0.7554584,0.57879657,0.055240072,0.07629974,0.9661863,-0.05663414,-0.4438793,-0.43493953,0.613534,784.5055,772.8205,771.6117,850.18317,976.30035,0.81646728515625,-0.07763671875,0.539794921875,6.826324462890625,-1.1962890625,1.398162841796875,1.0,1.0,1.0,1.0,1.0,50.0,
2023-09-09 22:58:35.791,1.0362002,0.7627291,0.9875522,1.1800033,0.783188,0.60016567,0.47295487,0.7430471,1.1860843,0.8965237,0.627363,0.7554584,0.57879657,0.055240072,0.07629974,0.9661863,-0.05663414,-0.4438793,-0.43493953,0.613534,780.87915,775.64105,770.80585,814.3223,735.7509,0.8067626953125,-0.0740966796875,0.53643798828125,6.32537841796875,-1.95892333984375,-0.171966552734375,1.0,1.0,1.0,1.0,1.0,50.0,
2023-09-09 22:58:35.798,1.0610056,0.77043223,1.0181727,1.1800033,0.7800961,0.6044262,0.5028152,0.7430471,1.1860843,0.8965237,0.627363,0.7554584,0.58334064,0.052921057,0.08970557,0.9661863,-0.07061416,-0.44254896,-0.42338622,0.613534,756.7033,763.95605,757.1062,847.3626,1097.1794,0.8067626953125,-0.0740966796875,0.53643798828125,6.32537841796875,-1.95892333984375,-0.171966552734375,1.0,1.0,1.0,1.0,1.0,50.0,
2023-09-09 22:58:35.826,1.0610056,0.77043223,1.0181727,1.1800033,0.7800961,0.6044262,0.5028152,0.7430471,1.1860843,0.8965237,0.627363,0.7554584,0.58334064,0.052921057,0.08970557,0.9661863,-0.07061416,-0.44254896,-0.42338622,0.613534,759.5238,765.16486,753.47986,835.6777,828.022,0.80828857421875,-0.07666015625,0.5296630859375,4.717864990234375,-2.968292236328125,-1.009368896484375,1.0,1.0,1.0,1.0,1.0,50.0,
2023-09-09 22:58:35.882,1.0610056,0.77043223,1.0181727,1.1800033,0.7800961,0.6044262,0.5028152,0.7430471,1.1860843,0.8965237,0.627363,0.7554584,0.58334064,0.052921057,0.08970557,0.9661863,-0.07061416,-0.44254896,-0.42338622,0.613534,774.83514,769.19415,755.4945,834.0659,774.0293,0.82952880859375,-0.07379150390625,0.5201416015625,4.568328857421875,-5.7421875,-1.12152099609375,1.0,1.0,1.0,1.0,1.0,50.0,
2023-09-09 22:58:35.946,1.080898,0.77217066,1.0516645,1.1800033,0.77619034,0.60228485,0.5344587,0.7430471,1.1887119,0.8965237,0.627363,0.7554584,0.5790898,0.04699513,0.10160219,0.9661863,-0.086955465,-0.4407564,-0.41063115,0.613534,772.01465,767.1795,760.7326,822.381,979.12085,0.82952880859375,-0.07379150390625,0.5201416015625,4.568328857421875,-5.7421875,-1.12152099609375,1.0,1.0,1.0,1.0,1.0,50.0,
2023-09-09 22:58:35.994,1.080898,0.77217066,1.0516645,1.1800033,0.77619034,0.60228485,0.5344587,0.7430471,1.1887119,0.8965237,0.627363,0.7554584,0.5790898,0.04699513,0.10160219,0.9661863,-0.086955465,-0.4407564,-0.41063115,0.613534,774.83514,772.01465,764.35895,817.1429,799.81683,0.84503173828125,-0.07904052734375,0.51837158203125,3.745880126953125,-5.5029296875,-2.0037841796875,1.0,1.0,1.0,1.0,1.0,50.0,
2023-09-09 22:58:36.032,1.080898,0.77217066,1.0516645,1.1800033,0.77619034,0.60228485,0.5344587,0.7430471,1.1887119,0.8965237,0.627363,0.7554584,0.5790898,0.04699513,0.10160219,0.9661863,-0.086955465,-0.4407564,-0.41063115,0.613534,784.10254,774.83514,772.8205,833.2601,941.2454,0.85565185546875,-0.08203125,0.51025390625,3.75335693359375,-4.366455078125,-1.936492919921875,1.0,1.0,1.0,1.0,1.0,50.0,
2023-09-09 22:58:36.034,1.1033487,0.7801734,1.0535228,1.1800033,0.77680135,0.5981045,0.53397197,0.7430471,1.2073482,0.8965237,0.627363,0.7554584,0.57067174,0.041430388,0.08906903,0.9661863,-0.10032956,-0.44019553,-0.41499105,0.613534,786.1172,771.2088,770.40295,830.0366,848.1685,0.85565185546875,-0.08203125,0.51025390625,3.75335693359375,-4.366455078125,-1.936492919921875,1.0,1.0,1.0,1.0,1.0,50.0,
2023-09-09 22:58:36.091,1.1033487,0.7801734,1.0535228,1.1800033,0.77680135,0.5981045,0.53397197,0.7430471,1.2073482,0.8965237,0.627363,0.7554584,0.57067174,0.041430388,0.08906903,0.9661863,-0.10032956,-0.44019553,-0.41499105,0.613534,792.5641,770.0,763.95605,811.50183,938.4249,0.86004638671875,-0.0843505859375,0.50177001953125,4.254302978515625,-3.207550048828125,-1.375732421875,1.0,1.0,1.0,1.0,1.0,50.0,
2023-09-09 22:58:36.138,1.1033487,0.7801734,1.0535228,1.1800033,0.77680135,0.5981045,0.53397197,0.7430471,1.2073482,0.8965237,0.627363,0.7554584,0.57067174,0.041430388,0.08906903,0.9661863,-0.10032956,-0.44019553,-0.41499105,0.613534,773.6264,760.7326,758.315,814.7253,915.8608,0.85369873046875,-0.082763671875,0.50390625,3.985137939453125,-2.9010009765625,-1.375732421875,1.0,1.0,1.0,1.0,1.0,50.0,
2023-09-09 22:58:36.142,1.1281518,0.80034655,1.0532134,1.1800033,0.7912805,0.59572476,0.5372777,0.7430471,1.2073482,0.8965237,0.627363,0.7554584,0.5686169,0.039664183,0.07962577,0.9661863,-0.1130996,-0.44242215,-0.42346168,0.613534,768.7912,758.315,766.77655,818.3516,761.9414,0.85369873046875,-0.082763671875,0.50390625,3.985137939453125,-2.9010009765625,-1.375732421875,1.0,1.0,1.0,1.0,1.0,50.0,
2023-09-09 22:58:36.187,1.1281518,0.80034655,1.0532134,1.1800033,0.7912805,0.59572476,0.5372777,0.7430471,1.2073482,0.8965237,0.627363,0.7554584,0.5686169,0.039664183,0.07962577,0.9661863,-0.1130996,-0.44242215,-0.42346168,0.613534,766.77655,762.3443,768.3883,815.5311,785.31134,0.85247802734375,-0.08477783203125,0.5057373046875,3.648681640625,-2.160797119140625,-0.2392578125,1.0,1.0,1.0,1.0,1.0,50.0,
2023-09-09 22:58:36.191,1.1529777,0.829207,1.0535313,1.1800033,0.80595833,0.5936388,0.5489896,0.7430471,1.2073482,0.8965237,0.627363,0.7554584,0.57900023,0.042705145,0.07742166,0.9661863,-0.11575452,-0.44639182,-0.43429807,0.613534,766.3736,772.01465,777.25275,799.81683,908.20514,0.85247802734375,-0.08477783203125,0.5057373046875,3.648681640625,-2.160797119140625,-0.2392578125,1.0,1.0,1.0,1.0,1.0,50.0,
2023-09-09 22:58:36.316,1.1529777,0.829207,1.0535313,1.1800033,0.80595833,0.5936388,0.5489896,0.7430471,1.2073482,0.8965237,0.627363,0.7554584,0.57900023,0.042705145,0.07742166,0.9661863,-0.11575452,-0.44639182,-0.43429807,0.613534,775.2381,766.3736,774.43225,818.7546,755.4945,0.849365234375,-0.0909423828125,0.49859619140625,4.149627685546875,-2.743988037109375,0.142059326171875,1.0,1.0,1.0,1.0,1.0,50.0,
2023-09-09 22:58:36.327,1.1529777,0.829207,1.0535313,1.1800033,0.80595833,0.5936388,0.5489896,0.7430471,1.2073482,0.8965237,0.627363,0.7554584,0.57900023,0.042705145,0.07742166,0.9661863,-0.11575452,-0.44639182,-0.43429807,0.613534,792.5641,764.7619,772.4176,838.0952,880.40295,0.840087890625,-0.0908203125,0.50933837890625,4.77020263671875,-2.19818115234375,0.037384033203125,1.0,1.0,1.0,1.0,1.0,50.0,
2023-09-09 22:58:36.335,1.1720872,0.8574335,1.0588675,1.1800033,0.8139627,0.5892055,0.5669334,0.7430471,1.2052082,0.8965237,0.627363,0.7554584,0.598344,0.049201805,0.081744485,0.9661863,-0.10787187,-0.44814196,-0.44368753,0.613534,780.4762,762.74725,777.6557,857.8388,1185.0183,0.840087890625,-0.0908203125,0.50933837890625,4.77020263671875,-2.19818115234375,0.037384033203125,1.0,1.0,1.0,1.0,1.0,50.0,
2023-09-09 22:58:36.376,1.1720872,0.8574335,1.0588675,1.1800033,0.8139627,0.5892055,0.5669334,0.7430471,1.2052082,0.8965237,0.627363,0.7554584,0.598344,0.049201805,0.081744485,0.9661863,-0.10787187,-0.44814196,-0.44368753,0.613534,795.78754,772.01465,788.93774,860.2564,867.9121,0.84271240234375,-0.08428955078125,0.52056884765625,5.00946044921875,-2.6019287109375,-0.097198486328125,1.0,1.0,1.0,1.0,1.0,50.0,
2023-09-09 22:58:36.384,1.1720872,0.8574335,1.0588675,1.1800033,0.8139627,0.5892055,0.5669334,0.7430471,1.2052082,0.8965237,0.627363,0.7554584,0.598344,0.049201805,0.081744485,0.9661863,-0.10787187,-0.44814196,-0.44368753,0.613534,782.8938,760.32965,787.326,839.304,969.85345,0.833984375,-0.090087890625,0.5172119140625,4.56085205078125,-1.801910400390625,0.291595458984375,1.0,1.0,1.0,1.0,1.0,50.0,
2023-09-09 22:58:36.391,1.1835945,0.8770079,1.0686853,1.1800033,0.81351316,0.5820036,0.5838928,0.7430471,1.1911798,0.8970556,0.627363,0.7554584,0.6199218,0.056714587,0.090405196,0.9661863,-0.09355472,-0.44256407,-0.44499135,0.613534,729.707,757.9121,771.2088,765.9707,810.696,0.833984375,-0.090087890625,0.5172119140625,4.56085205078125,-1.801910400390625,0.291595458984375,1.0,1.0,1.0,1.0,1.0,50.0,
2023-09-09 22:58:36.495,1.1835945,0.8770079,1.0686853,1.1800033,0.81351316,0.5820036,0.5838928,0.7430471,1.1911798,0.8970556,0.627363,0.7554584,0.6199218,0.056714587,0.090405196,0.9661863,-0.09355472,-0.44256407,-0.44499135,0.613534,780.07324,786.52014,782.8938,779.2674,878.7912,0.8297119140625,-0.088623046875,0.5172119140625,4.71038818359375,-2.534637451171875,0.16448974609375,1.0,1.0,1.0,1.0,1.0,50.0,
2023-09-09 22:58:36.538,1.1835945,0.8770079,1.0686853,1.1800033,0.81351316,0.5820036,0.5838928,0.7430471,1.1911798,0.8970556,0.627363,0.7554584,0.6199218,0.056714587,0.090405196,0.9661863,-0.09355472,-0.44256407,-0.44499135,0.613534,785.31134,784.10254,777.6557,797.3993,821.5751,0.82696533203125,-0.08856201171875,0.5162353515625,4.822540283203125,-2.714080810546875,0.16448974609375,1.0,1.0,1.0,1.0,1.0,50.0,
2023-09-09 22:58:36.539,1.1714826,0.88607264,1.0762321,1.1800033,0.7898603,0.57422024,0.59441245,0.7430471,1.1802933,0.8970556,0.627363,0.7554584,0.62816304,0.06198324,0.09968556,0.9661863,-0.0430959,-0.42819947,-0.4324412,0.613534,785.7143,784.5055,778.0586,803.8461,841.7216,0.82696533203125,-0.08856201171875,0.5162353515625,4.822540283203125,-2.714080810546875,0.16448974609375,1.0,1.0,1.0,1.0,1.0,50.0,
2023-09-09 22:58:36.577,1.1714826,0.88607264,1.0762321,1.1800033,0.7898603,0.57422024,0.59441245,0.7430471,1.1802933,0.8970556,0.627363,0.7554584,0.62816304,0.06198324,0.09968556,0.9661863,-0.0430959,-0.42819947,-0.4324412,0.613534,784.5055,776.4469,772.01465,788.5348,866.7033,0.82843017578125,-0.088623046875,0.51995849609375,4.725341796875,-3.1402587890625,0.1495361328125,1.0,1.0,1.0,1.0,1.0,50.0,
2023-09-09 22:58:36.627,1.1714826,0.88607264,1.0762321,1.1800033,0.7898603,0.57422024,0.59441245,0.7430471,1.1802933,0.8970556,0.627363,0.7554584,0.62816304,0.06198324,0.09968556,0.9661863,-0.0430959,-0.42819947,-0.4324412,0.613534,788.1319,778.46155,777.6557,803.44324,827.2161,0.83526611328125,-0.082763671875,0.51959228515625,4.41131591796875,-3.745880126953125,-0.418701171875,1.0,1.0,1.0,1.0,1.0,50.0,
2023-09-09 22:58:36.629,1.1598451,0.887583,1.0761402,1.1800033,0.797452,0.5642196,0.59656256,0.7430471,1.1839694,0.8970556,0.627363,0.7554584,0.63563114,0.060841363,0.10178796,0.9661863,0.0051497384,-0.40965647,-0.41017765,0.613534,776.8498,775.2381,775.64105,782.49084,752.27106,0.83526611328125,-0.082763671875,0.51959228515625,4.41131591796875,-3.745880126953125,-0.418701171875,1.0,1.0,1.0,1.0,1.0,50.0,
2023-09-09 22:58:36.695,1.1598451,0.887583,1.0761402,1.1800033,0.797452,0.5642196,0.59656256,0.7430471,1.1839694,0.8970556,0.627363,0.7554584,0.63563114,0.060841363,0.10178796,0.9661863,0.0051497384,-0.40965647,-0.41017765,0.613534,773.22345,776.04395,778.46155,770.40295,894.90845,0.83905029296875,-0.08013916015625,0.51617431640625,3.72344970703125,-3.985137939453125,-1.4654541015625,1.0,1.0,1.0,1.0,1.0,50.0,
2023-09-09 22:58:36.739,1.1506801,0.87562686,1.0532368,1.1800033,0.8664881,0.54345316,0.5816152,0.7430471,1.1963964,0.8970556,0.627363,0.7554584,0.6369853,0.047800258,0.08306755,0.9661863,0.04104761,-0.39398548,-0.39326543,0.613534,782.0879,783.69965,778.46155,773.6264,945.6777,0.83905029296875,-0.08013916015625,0.51617431640625,3.72344970703125,-3.985137939453125,-1.4654541015625,1.0,1.0,1.0,1.0,1.0,50.0,
2023-09-09 22:58:36.774,1.1506801,0.87562686,1.0532368,1.1800033,0.8664881,0.54345316,0.5816152,0.7430471,1.1963964,0.8970556,0.627363,0.7554584,0.6369853,0.047800258,0.08306755,0.9661863,0.04104761,-0.39398548,-0.39326543,0.613534,780.87915,780.07324,775.2381,736.9597,912.6374,0.84234619140625,-0.08856201171875,0.507080078125,3.9776611328125,-2.37762451171875,-2.100982666015625,1.0,1.0,1.0,1.0,1.0,50.0,
2023-09-09 22:58:36.806,1.1506801,0.87562686,1.0532368,1.1800033,0.8664881,0.54345316,0.5816152,0.7430471,1.1963964,0.8970556,0.627363,0.7554584,0.6369853,0.047800258,0.08306755,0.9661863,0.04104761,-0.39398548,-0.39326543,0.613534,772.01465,779.2674,779.2674,767.5824,1024.249,0.85357666015625,-0.08740234375,0.5025634765625,4.015045166015625,-3.312225341796875,-1.77947998046875,1.0,1.0,1.0,1.0,1.0,50.0,
2023-09-09 22:58:36.810,1.1313581,0.8441284,0.98314434,1.1800033,0.97174734,0.50181216,0.53210896,0.7430471,1.1995667,0.8970556,0.6137673,0.7554584,0.6306967,0.02107411,0.03465128,0.9661863,0.063644364,-0.38530958,-0.39228472,0.613534,759.92676,776.4469,782.8938,785.7143,1075.4213,0.85357666015625,-0.08740234375,0.5025634765625,4.015045166015625,-3.312225341796875,-1.77947998046875,1.0,1.0,1.0,1.0,1.0,50.0,
2023-09-09 22:58:36.838,1.1313581,0.8441284,0.98314434,1.1800033,0.97174734,0.50181216,0.53210896,0.7430471,1.1995667,0.8970556,0.6137673,0.7554584,0.6306967,0.02107411,0.03465128,0.9661863,0.063644364,-0.38530958,-0.39228472,0.613534,760.7326,780.87915,786.1172,795.38464,876.77655,0.85076904296875,-0.08660888671875,0.50555419921875,3.955230712890625,-3.282318115234375,-1.375732421875,1.0,1.0,1.0,1.0,1.0,50.0,
2023-09-09 22:58:36.904,1.1313581,0.8441284,0.98314434,1.1800033,0.97174734,0.50181216,0.53210896,0.7430471,1.1995667,0.8970556,0.6137673,0.7554584,0.6306967,0.02107411,0.03465128,0.9661863,0.063644364,-0.38530958,-0.39228472,0.613534,764.35895,778.0586,784.5055,802.23444,770.80585,0.85302734375,-0.08660888671875,0.50567626953125,3.955230712890625,-2.64678955078125,-1.12152099609375,1.0,1.0,1.0,1.0,1.0,50.0,
2023-09-09 22:58:36.910,1.0999048,0.7955645,0.8385293,1.1800033,1.0656703,0.44113782,0.4385153,0.7430471,1.1653684,0.8703626,0.5741428,0.7554584,0.62329423,-0.0131832855,-0.03700539,0.9661863,0.07866624,-0.381304,-0.40450847,0.613534,755.89746,774.83514,770.0,809.0842,823.5897,0.85302734375,-0.08660888671875,0.50567626953125,3.955230712890625,-2.64678955078125,-1.12152099609375,1.0,1.0,1.0,1.0,1.0,50.0,
2023-09-09 22:58:37.044,1.0999048,0.7955645,0.8385293,1.1800033,1.0656703,0.44113782,0.4385153,0.7430471,1.1653684,0.8703626,0.5741428,0.7554584,0.62329423,-0.0131832855,-0.03700539,0.9661863,0.07866624,-0.381304,-0.40450847,0.613534,770.80585,774.0293,780.4762,811.0989,729.707,0.85333251953125,-0.08782958984375,0.499755859375,4.119720458984375,-2.3626708984375,-0.83740234375,1.0,1.0,1.0,1.0,1.0,50.0,
2023-09-09 22:58:37.051,1.0722694,0.7382776,0.6005081,1.1800033,1.1228085,0.37712702,0.31541243,0.7430471,1.1234442,0.71610403,0.14508404,0.7554584,0.62318116,-0.041629806,-0.10683874,0.9661863,0.08992023,-0.37490574,-0.419793,0.613534,773.6264,779.67035,776.4469,790.14655,802.6374,0.85333251953125,-0.08782958984375,0.499755859375,4.119720458984375,-2.3626708984375,-0.83740234375,1.0,1.0,1.0,1.0,1.0,50.0,
2023-09-09 22:58:37.055,1.0722694,0.7382776,0.6005081,1.1800033,1.1228085,0.37712702,0.31541243,0.7430471,1.1234442,0.71610403,0.14508404,0.7554584,0.62318116,-0.041629806,-0.10683874,0.9661863,0.08992023,-0.37490574,-0.419793,0.613534,772.8205,777.6557,778.0586,804.2491,848.1685,0.83856201171875,-0.08599853515625,0.50677490234375,4.643096923828125,-2.10845947265625,-1.084136962890625,1.0,1.0,1.0,1.0,1.0,50.0,
2023-09-09 22:58:37.098,1.0722694,0.7382776,0.6005081,1.1800033,1.1228085,0.37712702,0.31541243,0.7430471,1.1234442,0.71610403,0.14508404,0.7554584,0.62318116,-0.041629806,-0.10683874,0.9661863,0.08992023,-0.37490574,-0.419793,0.613534,771.2088,790.14655,774.83514,796.99634,960.989,0.84307861328125,-0.08172607421875,0.51318359375,4.1571044921875,-3.386993408203125,-1.069183349609375,1.0,1.0,1.0,1.0,1.0,50.0,
2023-09-09 22:58:37.157,1.0722694,0.7382776,0.6005081,1.1800033,1.1228085,0.37712702,0.31541243,0.7430471,1.1234442,0.71610403,0.14508404,0.7554584,0.62318116,-0.041629806,-0.10683874,0.9661863,0.08992023,-0.37490574,-0.419793,0.613534,782.8938,786.1172,779.67035,789.7436,1057.6923,0.8433837890625,-0.0821533203125,0.50775146484375,4.127197265625,-1.996307373046875,-0.695343017578125,1.0,1.0,1.0,1.0,1.0,50.0,
2023-09-09 22:58:37.158,1.0584887,0.68410087,0.5713882,1.1800033,1.1452477,0.33043262,0.30884546,0.7430471,1.1101294,0.5198071,0.15008704,0.7554584,0.6318746,-0.054265898,-0.094511196,0.9661863,0.097290404,-0.3618328,-0.41263047,0.613534,778.46155,786.1172,780.07324,789.7436,882.01465,0.8433837890625,-0.0821533203125,0.50775146484375,4.127197265625,-1.996307373046875,-0.695343017578125,1.0,1.0,1.0,1.0,1.0,50.0,
2023-09-09 22:58:37.197,1.0584887,0.68410087,0.5713882,1.1800033,1.1452477,0.33043262,0.30884546,0.7430471,1.1101294,0.5198071,0.15008704,0.7554584,0.6318746,-0.054265898,-0.094511196,0.9661863,0.097290404,-0.3618328,-0.41263047,0.613534,780.4762,786.9231,784.5055,803.44324,835.6777,0.84356689453125,-0.08465576171875,0.50372314453125,4.358978271484375,-2.400054931640625,-0.777587890625,1.0,1.0,1.0,1.0,1.0,50.0,
2023-09-09 22:58:37.229,1.0548397,0.6435335,0.5461972,1.1800033,1.1486683,0.3074942,0.30874655,0.7430471,1.1135489,0.45544717,0.1530168,0.7554584,0.6455088,-0.052337263,-0.08606354,0.9661863,0.0998904,-0.3455415,-0.40811238,0.613534,770.0,780.4762,777.6557,808.68134,950.9158,0.84356689453125,-0.08465576171875,0.50372314453125,4.358978271484375,-2.400054931640625,-0.777587890625,1.0,1.0,1.0,1.0,1.0,50.0,
2023-09-09 22:58:37.268,1.0548397,0.6435335,0.5461972,1.1800033,1.1486683,0.3074942,0.30874655,0.7430471,1.1135489,0.45544717,0.1530168,0.7554584,0.6455088,-0.052337263,-0.08606354,0.9661863,0.0998904,-0.3455415,-0.40811238,0.613534,759.12085,780.4762,783.2967,797.3993,797.8022,0.84820556640625,-0.087890625,0.5042724609375,4.5758056640625,-2.1234130859375,-1.00189208984375,1.0,1.0,1.0,1.0,1.0,50.0,
2023-09-09 22:58:37.323,1.0548397,0.6435335,0.5461972,1.1800033,1.1486683,0.3074942,0.30874655,0.7430471,1.1135489,0.45544717,0.1530168,0.7554584,0.6455088,-0.052337263,-0.08606354,0.9661863,0.0998904,-0.3455415,-0.40811238,0.613534,759.12085,784.90845,784.90845,794.17584,799.41394,0.843505859375,-0.08819580078125,0.50506591796875,4.583282470703125,-2.220611572265625,-0.725250244140625,1.0,1.0,1.0,1.0,1.0,50.0,
2023-09-09 22:58:37.327,1.0506573,0.6264496,0.5247973,1.1800033,1.1479502,0.2995719,0.31410554,0.7430471,1.1222063,0.45544717,0.1544009,0.7554584,0.65901494,-0.045268454,-0.08103435,0.9661863,0.101907775,-0.33048177,-0.40162328,0.613534,749.85345,782.49084,781.685,803.0403,949.304,0.843505859375,-0.08819580078125,0.50506591796875,4.583282470703125,-2.220611572265625,-0.725250244140625,1.0,1.0,1.0,1.0,1.0,50.0,
2023-09-09 22:58:37.377,1.0506573,0.6264496,0.5247973,1.1800033,1.1479502,0.2995719,0.31410554,0.7430471,1.1222063,0.45544717,0.1544009,0.7554584,0.65901494,-0.045268454,-0.08103435,0.9661863,0.101907775,-0.33048177,-0.40162328,0.613534,760.32965,785.31134,787.326,789.34064,827.2161,0.84326171875,-0.08258056640625,0.50738525390625,4.508514404296875,-3.297271728515625,-0.299072265625,1.0,1.0,1.0,1.0,1.0,50.0,
2023-09-09 22:58:37.424,1.0506573,0.6264496,0.5247973,1.1800033,1.1479502,0.2995719,0.31410554,0.7430471,1.1222063,0.45544717,0.1544009,0.7554584,0.65901494,-0.045268454,-0.08103435,0.9661863,0.101907775,-0.33048177,-0.40162328,0.613534,753.8828,780.4762,779.2674,795.78754,954.1392,0.84246826171875,-0.08428955078125,0.506103515625,4.314117431640625,-2.280426025390625,-0.9271240234375,1.0,1.0,1.0,1.0,1.0,50.0,
2023-09-09 22:58:37.429,1.0444701,0.6334192,0.5059179,1.1800033,1.1472533,0.2972952,0.31607175,0.7430471,1.130877,0.45558557,0.15785739,0.7554584,0.66834617,-0.040886376,-0.07945723,0.9661863,0.10719638,-0.31715944,-0.3913319,0.613534,763.5531,785.7143,781.28204,813.91943,815.12823,0.84246826171875,-0.08428955078125,0.506103515625,4.314117431640625,-2.280426025390625,-0.9271240234375,1.0,1.0,1.0,1.0,1.0,50.0,
2023-09-09 22:58:37.493,1.0444701,0.6334192,0.5059179,1.1800033,1.1472533,0.2972952,0.31607175,0.7430471,1.130877,0.45558557,0.15785739,0.7554584,0.66834617,-0.040886376,-0.07945723,0.9661863,0.10719638,-0.31715944,-0.3913319,0.613534,760.32965,782.8938,777.25275,778.86444,1043.9927,0.84515380859375,-0.0828857421875,0.5091552734375,4.104766845703125,-2.729034423828125,-0.88226318359375,1.0,1.0,1.0,1.0,1.0,50.0,
2023-09-09 22:58:37.499,1.0319883,0.64329726,0.49795622,1.1800033,1.1439621,0.29708794,0.32809535,0.7430471,1.1206862,0.45627862,0.15785739,0.7554584,0.6696545,-0.043950073,-0.0687607,0.9661863,0.11515845,-0.3024526,-0.36488396,0.613534,754.68866,781.685,779.2674,773.22345,1050.4396,0.84515380859375,-0.0828857421875,0.5091552734375,4.104766845703125,-2.729034423828125,-0.88226318359375,1.0,1.0,1.0,1.0,1.0,50.0,
2023-09-09 22:58:37.558,1.0319883,0.64329726,0.49795622,1.1800033,1.1439621,0.29708794,0.32809535,0.7430471,1.1206862,0.45627862,0.15785739,0.7554584,0.6696545,-0.043950073,-0.0687607,0.9661863,0.11515845,-0.3024526,-0.36488396,0.613534,763.1502,785.7143,785.7143,785.7143,863.47986,0.8421630859375,-0.0870361328125,0.5047607421875,4.0673828125,-2.863616943359375,-0.76263427734375,1.0,1.0,1.0,1.0,1.0,50.0,
2023-09-09 22:58:37.596,1.0319883,0.64329726,0.49795622,1.1800033,1.1439621,0.29708794,0.32809535,0.7430471,1.1206862,0.45627862,0.15785739,0.7554584,0.6696545,-0.043950073,-0.0687607,0.9661863,0.11515845,-0.3024526,-0.36488396,0.613534,754.68866,784.5055,780.07324,792.1612,968.6447,0.84393310546875,-0.0908203125,0.50701904296875,4.702911376953125,-2.87109375,-0.979461669921875,1.0,1.0,1.0,1.0,1.0,50.0,
2023-09-09 22:58:37.604,1.0338109,0.6356784,0.48912418,1.1800033,1.1114465,0.29409158,0.32396817,0.7430471,1.1206862,0.45627862,0.15263204,0.7554584,0.65427774,-0.05501178,-0.059336513,0.9661863,0.11107184,-0.28710487,-0.33643815,0.613534,755.09155,781.685,794.17584,786.9231,916.26373,0.84393310546875,-0.0908203125,0.50701904296875,4.702911376953125,-2.87109375,-0.979461669921875,1.0,1.0,1.0,1.0,1.0,50.0,
2023-09-09 22:58:37.650,1.0338109,0.6356784,0.48912418,1.1800033,1.1114465,0.29409158,0.32396817,0.7430471,1.1206862,0.45627862,0.15263204,0.7554584,0.65427774,-0.05501178,-0.059336513,0.9661863,0.11107184,-0.28710487,-0.33643815,0.613534,749.45056,784.10254,796.99634,782.49084,846.9597,0.84967041015625,-0.08575439453125,0.51019287109375,4.83001708984375,-2.923431396484375,-0.530853271484375,1.0,1.0,1.0,1.0,1.0,50.0,
2023-09-09 22:58:37.708,1.0338109,0.6356784,0.48912418,1.1800033,1.1114465,0.29409158,0.32396817,0.7430471,1.1206862,0.45627862,0.15263204,0.7554584,0.65427774,-0.05501178,-0.059336513,0.9661863,0.11107184,-0.28710487,-0.33643815,0.613534,752.674,789.7436,793.7729,788.5348,883.22345,0.84967041015625,-0.08782958984375,0.5098876953125,4.5159912109375,-2.64678955078125,-0.381317138671875,1.0,1.0,1.0,1.0,1.0,50.0,
2023-09-09 22:58:37.748,1.036409,0.6031509,0.47155175,1.1800033,1.0795676,0.28742188,0.30223563,0.7430471,1.1206862,0.4468102,0.14958951,0.7554584,0.63522243,-0.0712978,-0.05133629,0.9661863,0.102569,-0.27590472,-0.31083572,0.613534,773.6264,790.9524,782.0879,792.5641,850.989,0.84967041015625,-0.08782958984375,0.5098876953125,4.5159912109375,-2.64678955078125,-0.381317138671875,1.0,1.0,1.0,1.0,1.0,50.0,
2023-09-09 22:58:37.802,1.036409,0.6031509,0.47155175,1.1800033,1.0795676,0.28742188,0.30223563,0.7430471,1.1206862,0.4468102,0.14958951,0.7554584,0.63522243,-0.0712978,-0.05133629,0.9661863,0.102569,-0.27590472,-0.31083572,0.613534,767.98535,792.1612,789.34064,789.34064,926.7399,0.8428955078125,-0.088134765625,0.50225830078125,4.852447509765625,-2.22808837890625,-0.6878662109375,1.0,1.0,1.0,1.0,1.0,50.0,
2023-09-09 22:58:37.875,1.036409,0.6031509,0.47155175,1.1800033,1.0795676,0.28742188,0.30223563,0.7430471,1.1206862,0.4468102,0.14958951,0.7554584,0.63522243,-0.0712978,-0.05133629,0.9661863,0.102569,-0.27590472,-0.31083572,0.613534,774.0293,787.72894,792.1612,798.20514,790.9524,0.8466796875,-0.08514404296875,0.5152587890625,4.314117431640625,-3.0804443359375,-0.49346923828125,1.0,1.0,1.0,1.0,1.0,50.0,
2023-09-09 22:58:37.878,1.0319346,0.55710477,0.44452062,1.1800033,1.0487688,0.2749049,0.26794016,0.7430471,1.1206862,0.41017914,0.14536278,0.7554584,0.61784637,-0.09071853,-0.04474182,0.9661863,0.0911423,-0.27186915,-0.2923989,0.613534,757.9121,788.1319,780.4762,776.04395,793.36993,0.8466796875,-0.08514404296875,0.5152587890625,4.314117431640625,-3.0804443359375,-0.49346923828125,1.0,1.0,1.0,1.0,1.0,50.0,
2023-09-09 22:58:37.919,1.0319346,0.55710477,0.44452062,1.1800033,1.0487688,0.2749049,0.26794016,0.7430471,1.1206862,0.41017914,0.14536278,0.7554584,0.61784637,-0.09071853,-0.04474182,0.9661863,0.0911423,-0.27186915,-0.2923989,0.613534,793.36993,794.17584,790.9524,780.07324,1192.2711,0.84747314453125,-0.083251953125,0.50018310546875,4.134674072265625,-2.310333251953125,-0.76263427734375,1.0,1.0,1.0,1.0,1.0,50.0,
2023-09-09 22:58:37.932,1.0319346,0.55710477,0.44452062,1.1800033,1.0487688,0.2749049,0.26794016,0.7430471,1.1206862,0.41017914,0.14536278,0.7554584,0.61784637,-0.09071853,-0.04474182,0.9661863,0.0911423,-0.27186915,-0.2923989,0.613534,767.1795,796.99634,799.011,792.96704,924.3223,0.84619140625,-0.081298828125,0.504150390625,4.239349365234375,-2.340240478515625,-1.36077880859375,1.0,1.0,1.0,1.0,1.0,50.0,
2023-09-09 22:58:37.935,1.0319346,0.52563727,0.41859266,1.1800033,1.0487688,0.25611913,0.23278129,0.7430471,1.1206862,0.3599557,0.14287296,0.7554584,0.61784637,-0.11325574,-0.038104955,0.9661863,0.0911423,-0.27301258,-0.28476092,0.613534,757.50916,792.96704,794.17584,789.7436,866.30035,0.84619140625,-0.081298828125,0.504150390625,4.239349365234375,-2.340240478515625,-1.36077880859375,1.0,1.0,1.0,1.0,1.0,50.0,
2023-09-09 22:58:38.029,1.0319346,0.52563727,0.41859266,1.1800033,1.0487688,0.25611913,0.23278129,0.7430471,1.1206862,0.3599557,0.14287296,0.7554584,0.61784637,-0.11325574,-0.038104955,0.9661863,0.0911423,-0.27301258,-0.28476092,0.613534,764.35895,798.60803,791.75824,791.3553,807.0696,0.844970703125,-0.0828857421875,0.50579833984375,4.134674072265625,-2.684173583984375,-0.59814453125,1.0,1.0,1.0,1.0,1.0,50.0,
2023-09-09 22:58:38.033,1.0440602,0.5203998,0.39579168,1.1800033,1.0717063,0.2295229,0.20707756,0.7430471,1.1206862,0.33881694,0.14270979,0.7554584,0.624998,-0.13793938,-0.028471483,0.9661863,0.08126722,-0.27233464,-0.28947636,0.613534,749.0476,790.54944,790.54944,785.31134,1145.1282,0.844970703125,-0.0828857421875,0.50579833984375,4.134674072265625,-2.684173583984375,-0.59814453125,1.0,1.0,1.0,1.0,1.0,50.0,
2023-09-09 22:58:38.079,1.0440602,0.5203998,0.39579168,1.1800033,1.0717063,0.2295229,0.20707756,0.7430471,1.1206862,0.33881694,0.14270979,0.7554584,0.624998,-0.13793938,-0.028471483,0.9661863,0.08126722,-0.27233464,-0.28947636,0.613534,753.8828,796.1905,787.72894,782.8938,806.6667,0.84552001953125,-0.090576171875,0.50677490234375,4.56085205078125,-2.5421142578125,-1.114044189453125,1.0,1.0,1.0,1.0,1.0,50.0,
2023-09-09 22:58:38.147,1.0440602,0.5203998,0.39579168,1.1800033,1.0717063,0.2295229,0.20707756,0.7430471,1.1206862,0.33881694,0.14270979,0.7554584,0.624998,-0.13793938,-0.028471483,0.9661863,0.08126722,-0.27233464,-0.28947636,0.613534,750.2564,788.93774,793.7729,789.34064,734.5421,0.849853515625,-0.07965087890625,0.50921630859375,4.508514404296875,-2.953338623046875,-0.43365478515625,1.0,1.0,1.0,1.0,1.0,50.0,
2023-09-09 22:58:38.155,1.0602447,0.525773,0.35827348,1.1800033,1.0832272,0.19461647,0.18848246,0.7430471,1.1206862,0.3252974,0.15157156,0.7554584,0.625183,-0.16031376,-0.014044204,0.9661863,0.06475675,-0.26295725,-0.3051935,0.613534,752.27106,790.14655,787.72894,781.28204,1028.2784,0.849853515625,-0.07965087890625,0.50921630859375,4.508514404296875,-2.953338623046875,-0.43365478515625,1.0,1.0,1.0,1.0,1.0,50.0,
2023-09-09 22:58:38.202,1.0602447,0.525773,0.35827348,1.1800033,1.0832272,0.19461647,0.18848246,0.7430471,1.1206862,0.3252974,0.15157156,0.7554584,0.625183,-0.16031376,-0.014044204,0.9661863,0.06475675,-0.26295725,-0.3051935,0.613534,746.63007,784.90845,785.7143,782.49084,866.30035,0.8458251953125,-0.08306884765625,0.5084228515625,4.104766845703125,-2.76641845703125,0.067291259765625,1.0,1.0,1.0,1.0,1.0,50.0,
2023-09-09 22:58:38.249,1.0602447,0.525773,0.35827348,1.1800033,1.0832272,0.19461647,0.18848246,0.7430471,1.1206862,0.3252974,0.15157156,0.7554584,0.625183,-0.16031376,-0.014044204,0.9661863,0.06475675,-0.26295725,-0.3051935,0.613534,754.2857,788.1319,785.31134,772.4176,885.64105,0.84564208984375,-0.08441162109375,0.50421142578125,3.985137939453125,-1.92901611328125,-0.52337646484375,1.0,1.0,1.0,1.0,1.0,50.0,
2023-09-09 22:58:38.257,1.0813575,0.5236496,0.29530534,1.1800033,1.0276257,0.1436134,0.16529255,0.7430471,1.1086279,0.3114028,0.15788688,0.7554584,0.655374,-0.17446609,0.0025056822,0.9661863,0.025507905,-0.24545257,-0.32658595,0.613534,772.8205,799.41394,786.9231,783.69965,765.9707,0.84564208984375,-0.08441162109375,0.50421142578125,3.985137939453125,-1.92901611328125,-0.52337646484375,1.0,1.0,1.0,1.0,1.0,50.0,
2023-09-09 22:58:38.338,1.0813575,0.5236496,0.29530534,1.1800033,1.0276257,0.1436134,0.16529255,0.7430471,1.1086279,0.3114028,0.15788688,0.7554584,0.655374,-0.17446609,0.0025056822,0.9661863,0.025507905,-0.24545257,-0.32658595,0.613534,751.4652,796.1905,787.72894,792.1612,821.5751,0.84564208984375,-0.08563232421875,0.50616455078125,3.745880126953125,-2.6318359375,-0.740203857421875,1.0,1.0,1.0,1.0,1.0,50.0,
2023-09-09 22:58:38.373,1.0813575,0.5236496,0.29530534,1.1800033,1.0276257,0.1436134,0.16529255,0.7430471,1.1086279,0.3114028,0.15788688,0.7554584,0.655374,-0.17446609,0.0025056822,0.9661863,0.025507905,-0.24545257,-0.32658595,0.613534,756.7033,791.75824,785.7143,784.5055,808.2784,0.84417724609375,-0.08856201171875,0.50140380859375,4.373931884765625,-2.519683837890625,-0.40374755859375,1.0,1.0,1.0,1.0,1.0,50.0,
2023-09-09 22:58:38.374,1.1007566,0.4956015,0.22254212,0.669846,0.9191285,0.06987589,0.13190596,0.008951682,1.0917892,0.2926492,0.101301916,0.35589,0.69148445,-0.17673618,0.016346168,0.9408749,-0.009870761,-0.22823282,-0.34719774,0.4752642,765.56775,795.78754,787.326,786.9231,792.1612,0.84417724609375,-0.08856201171875,0.50140380859375,4.373931884765625,-2.519683837890625,-0.40374755859375,1.0,1.0,1.0,1.0,1.0,50.0,
2023-09-09 22:58:38.418,1.1007566,0.4956015,0.22254212,0.669846,0.9191285,0.06987589,0.13190596,0.008951682,1.0917892,0.2926492,0.101301916,0.35589,0.69148445,-0.17673618,0.016346168,0.9408749,-0.009870761,-0.22823282,-0.34719774,0.4752642,768.3883,796.1905,791.3553,803.8461,848.5714,0.850830078125,-0.08831787109375,0.50238037109375,3.850555419921875,-3.5589599609375,-0.276641845703125,1.0,1.0,1.0,1.0,1.0,50.0,
2023-09-09 22:58:38.474,1.1007566,0.4956015,0.22254212,0.669846,0.9191285,0.06987589,0.13190596,0.008951682,1.0917892,0.2926492,0.101301916,0.35589,0.69148445,-0.17673618,0.016346168,0.9408749,-0.009870761,-0.22823282,-0.34719774,0.4752642,772.8205,799.011,789.34064,786.1172,915.05493,0.849853515625,-0.087646484375,0.5029296875,4.605712890625,-2.295379638671875,-0.01495361328125,1.0,1.0,1.0,1.0,1.0,50.0,
2023-09-09 22:58:38.476,1.1139687,0.44110477,0.17906839,0.6668457,0.7534134,-0.025636023,0.09562152,-0.0036004598,1.0614046,0.21888427,0.055862244,0.3657439,0.7187855,-0.16862233,0.023985194,0.92086196,-0.03200212,-0.21965234,-0.36382458,0.42272493,782.49084,793.36993,784.90845,764.7619,852.1978,0.849853515625,-0.087646484375,0.5029296875,4.605712890625,-2.295379638671875,-0.01495361328125,1.0,1.0,1.0,1.0,1.0,50.0,
2023-09-09 22:58:38.531,1.1139687,0.44110477,0.17906839,0.6668457,0.7534134,-0.025636023,0.09562152,-0.0036004598,1.0614046,0.21888427,0.055862244,0.3657439,0.7187855,-0.16862233,0.023985194,0.92086196,-0.03200212,-0.21965234,-0.36382458,0.42272493,756.30035,796.5934,797.8022,788.93774,797.8022,0.84954833984375,-0.087646484375,0.50067138671875,4.7552490234375,-2.729034423828125,0.22430419921875,1.0,1.0,1.0,1.0,1.0,50.0,
