TimeStamp,Delta_TP9,Delta_AF7,Delta_AF8,Delta_TP10,Theta_TP9,Theta_AF7,Theta_AF8,Theta_TP10,Alpha_TP9,Alpha_AF7,Alpha_AF8,Alpha_TP10,Beta_TP9,Beta_AF7,Beta_AF8,Beta_TP10,Gamma_TP9,Gamma_AF7,Gamma_AF8,Gamma_TP10,RAW_TP9,RAW_AF7,RAW_AF8,RAW_TP10,AUX_RIGHT,Accelerometer_X,Accelerometer_Y,Accelerometer_Z,Gyro_X,Gyro_Y,Gyro_Z,HeadBandOn,HSI_TP9,HSI_AF7,HSI_AF8,HSI_TP10,Battery,Elements
2023-09-09 22:06:09.063,0.78773224,0.78517765,0.6911025,0.12680446,0.6451143,0.27428114,0.121410236,0.71530795,0.5931331,0.6471773,0.19466202,1.0058675,0.55273545,0.43028337,0.14506994,0.566307,0.22674051,0.34909707,0.19939427,0.08958308,788.5348,823.5897,805.05493,786.1172,979.12085,0.4332275390625,0.1976318359375,0.860595703125,2.938385009765625,-2.0037841796875,-3.566436767578125,1.0,1.0,1.0,1.0,1.0,15.0,
2023-09-09 22:06:09.103,0.78773224,0.78517765,0.6911025,0.12680446,0.6451143,0.27428114,0.121410236,0.71530795,0.5931331,0.6471773,0.19466202,1.0058675,0.55273545,0.43028337,0.14506994,0.566307,0.22674051,0.34909707,0.19939427,0.08958308,791.75824,823.1868,810.293,801.8315,812.71063,0.439453125,0.1982421875,0.8629150390625,3.39447021484375,-2.594451904296875,-2.295379638671875,1.0,1.0,1.0,1.0,1.0,15.0,
2023-09-09 22:06:09.112,0.78773224,0.78517765,0.6911025,0.12680446,0.6451143,0.27428114,0.121410236,0.71530795,0.5931331,0.6471773,0.19466202,1.0058675,0.55273545,0.43028337,0.14506994,0.566307,0.22674051,0.34909707,0.19939427,0.08958308,783.69965,822.7839,803.44324,801.02563,992.8205,0.437744140625,0.1978759765625,0.85528564453125,4.32159423828125,-3.431854248046875,-1.2261962890625,1.0,1.0,1.0,1.0,1.0,15.0,
2023-09-09 22:06:09.112,0.74064803,0.75997305,0.67328525,0.11252127,0.58971626,0.2731558,0.041267835,0.66908145,0.5787659,0.6471773,0.19466202,0.9897923,0.5666983,0.43764013,0.16136673,0.4976016,0.25346506,0.3620862,0.20759314,0.07131833,788.5348,827.619,801.8315,796.5934,778.0586,0.437744140625,0.1978759765625,0.85528564453125,4.32159423828125,-3.431854248046875,-1.2261962890625,1.0,1.0,1.0,1.0,1.0,15.0,
2023-09-09 22:06:09.149,0.74064803,0.75997305,0.67328525,0.11252127,0.58971626,0.2731558,0.041267835,0.66908145,0.5787659,0.6471773,0.19466202,0.9897923,0.5666983,0.43764013,0.16136673,0.4976016,0.25346506,0.3620862,0.20759314,0.07131833,795.78754,833.663,805.05493,803.0403,730.9158,0.44818115234375,0.20458984375,0.86077880859375,4.673004150390625,-2.699127197265625,-0.28411865234375,1.0,1.0,1.0,1.0,1.0,15.0,
2023-09-09 22:06:09.199,0.74064803,0.75997305,0.67328525,0.11252127,0.58971626,0.2731558,0.041267835,0.66908145,0.5787659,0.6471773,0.19466202,0.9897923,0.5666983,0.43764013,0.16136673,0.4976016,0.25346506,0.3620862,0.20759314,0.07131833,778.0586,821.978,799.81683,794.9817,800.6227,0.43731689453125,0.2081298828125,0.86090087890625,4.628143310546875,-0.0,0.76263427734375,1.0,1.0,1.0,1.0,1.0,15.0,
2023-09-09 22:06:09.200,0.66236275,0.7351626,0.6584229,0.120820746,0.49143067,0.27543616,-0.056485187,0.5738127,0.5679819,0.6471773,0.18791585,0.9320144,0.58383346,0.447562,0.17496686,0.4080882,0.27204794,0.37520888,0.21356732,0.039446037,782.49084,818.3516,806.6667,793.7729,884.0293,0.43731689453125,0.2081298828125,0.86090087890625,4.628143310546875,-0.0,0.76263427734375,1.0,1.0,1.0,1.0,1.0,15.0,
2023-09-09 22:06:09.258,0.66236275,0.7351626,0.6584229,0.120820746,0.49143067,0.27543616,-0.056485187,0.5738127,0.5679819,0.6471773,0.18791585,0.9320144,0.58383346,0.447562,0.17496686,0.4080882,0.27204794,0.37520888,0.21356732,0.039446037,786.9231,821.5751,805.05493,790.9524,782.49084,0.4342041015625,0.20654296875,0.8621826171875,3.416900634765625,-3.342132568359375,-1.128997802734375,1.0,1.0,1.0,1.0,1.0,15.0,
2023-09-09 22:06:09.311,0.5580916,0.7145587,0.65324295,0.15473196,0.3738149,0.28239125,-0.13505676,0.43365687,0.55558556,0.6471773,0.16191478,0.82967025,0.6041743,0.46031922,0.18688886,0.33714598,0.27260056,0.387606,0.22098136,0.0039784266,782.49084,824.7985,803.8461,807.8755,1185.8242,0.4342041015625,0.20654296875,0.8621826171875,3.416900634765625,-3.342132568359375,-1.128997802734375,1.0,1.0,1.0,1.0,1.0,15.0,
2023-09-09 22:06:09.352,0.5580916,0.7145587,0.65324295,0.15473196,0.3738149,0.28239125,-0.13505676,0.43365687,0.55558556,0.6471773,0.16191478,0.82967025,0.6041743,0.46031922,0.18688886,0.33714598,0.27260056,0.387606,0.22098136,0.0039784266,787.72894,809.4872,797.3993,782.8938,1037.5458,0.43902587890625,0.195068359375,0.86883544921875,2.25799560546875,-3.94775390625,-2.3028564453125,1.0,1.0,1.0,1.0,1.0,15.0,
2023-09-09 22:06:09.357,0.5580916,0.7145587,0.65324295,0.15473196,0.3738149,0.28239125,-0.13505676,0.43365687,0.55558556,0.6471773,0.16191478,0.82967025,0.6041743,0.46031922,0.18688886,0.33714598,0.27260056,0.387606,0.22098136,0.0039784266,784.10254,826.4103,806.26373,785.7143,807.0696,0.43829345703125,0.18768310546875,0.86004638671875,2.444915771484375,-2.8411865234375,-1.7047119140625,1.0,1.0,1.0,1.0,1.0,15.0,
2023-09-09 22:06:09.360,0.5580916,0.70354974,0.6538394,0.15473196,0.3738149,0.2904799,-0.17031486,0.43365687,0.55558556,0.6471773,0.1501787,0.82967025,0.6041743,0.47599596,0.19544859,0.33714598,0.27260056,0.39767358,0.22884221,0.0039784266,761.13556,815.5311,790.9524,778.86444,1025.4579,0.43829345703125,0.18768310546875,0.86004638671875,2.444915771484375,-2.8411865234375,-1.7047119140625,1.0,1.0,1.0,1.0,1.0,15.0,
2023-09-09 22:06:09.410,0.5580916,0.70354974,0.6538394,0.15473196,0.3738149,0.2904799,-0.17031486,0.43365687,0.55558556,0.6471773,0.1501787,0.82967025,0.6041743,0.47599596,0.19544859,0.33714598,0.27260056,0.39767358,0.22884221,0.0039784266,772.4176,805.8608,789.7436,786.52014,927.1429,0.4444580078125,0.18328857421875,0.85504150390625,3.192596435546875,-4.18701171875,-1.876678466796875,1.0,1.0,1.0,1.0,1.0,15.0,
2023-09-09 22:06:09.455,0.5580916,0.70354974,0.6538394,0.15473196,0.3738149,0.2904799,-0.17031486,0.43365687,0.55558556,0.6471773,0.1501787,0.82967025,0.6041743,0.47599596,0.19544859,0.33714598,0.27260056,0.39767358,0.22884221,0.0039784266,755.89746,817.9487,793.36993,774.83514,892.49084,0.456298828125,0.1893310546875,0.86065673828125,3.372039794921875,-5.39825439453125,-0.67291259765625,1.0,1.0,1.0,1.0,1.0,15.0,
2023-09-09 22:06:09.460,0.5580916,0.69347507,0.6525224,0.15473196,0.3738149,0.29230702,-0.1778865,0.43365687,0.55558556,0.6471773,0.13621852,0.82967025,0.6041743,0.49442863,0.20012645,0.33714598,0.27260056,0.40532598,0.23585655,0.0039784266,755.09155,826.8132,801.8315,763.5531,801.8315,0.456298828125,0.1893310546875,0.86065673828125,3.372039794921875,-5.39825439453125,-0.67291259765625,1.0,1.0,1.0,1.0,1.0,15.0,
2023-09-09 22:06:09.574,0.5580916,0.69347507,0.6525224,0.15473196,0.3738149,0.29230702,-0.1778865,0.43365687,0.55558556,0.6471773,0.13621852,0.82967025,0.6041743,0.49442863,0.20012645,0.33714598,0.27260056,0.40532598,0.23585655,0.0039784266,726.08057,838.49817,807.0696,747.03296,813.1135,0.45770263671875,0.181884765625,0.85711669921875,3.192596435546875,-4.77020263671875,-0.2691650390625,1.0,1.0,1.0,1.0,1.0,15.0,
2023-09-09 22:06:09.583,0.5580916,0.6730602,0.64194876,0.15473196,0.3738149,0.28397945,-0.18077064,0.43365687,0.55558556,0.6471773,0.13163339,0.82967025,0.6041743,0.5130501,0.20283611,0.33714598,0.27260056,0.41056103,0.24290122,0.0039784266,731.31866,816.337,793.7729,771.6117,946.8865,0.45770263671875,0.181884765625,0.85711669921875,3.192596435546875,-4.77020263671875,-0.2691650390625,1.0,1.0,1.0,1.0,1.0,15.0,
2023-09-09 22:06:09.636,0.5580916,0.6730602,0.64194876,0.15473196,0.3738149,0.28397945,-0.18077064,0.43365687,0.55558556,0.6471773,0.13163339,0.82967025,0.6041743,0.5130501,0.20283611,0.33714598,0.27260056,0.41056103,0.24290122,0.0039784266,745.0183,824.3956,796.1905,773.22345,840.5128,0.4539794921875,0.18902587890625,0.8607177734375,3.8580322265625,-4.149627685546875,0.07476806640625,1.0,1.0,1.0,1.0,1.0,15.0,
2023-09-09 22:06:09.693,0.5580916,0.6730602,0.64194876,0.15473196,0.3738149,0.28397945,-0.18077064,0.43365687,0.55558556,0.6471773,0.13163339,0.82967025,0.6041743,0.5130501,0.20283611,0.33714598,0.27260056,0.41056103,0.24290122,0.0039784266,790.9524,804.2491,781.28204,817.5458,850.18317,0.4466552734375,0.1844482421875,0.859375,3.7982177734375,-3.99261474609375,-0.04486083984375,1.0,1.0,1.0,1.0,1.0,15.0,
2023-09-09 22:06:09.711,0.5580916,0.6730602,0.64194876,0.15473196,0.3738149,0.28397945,-0.18077064,0.43365687,0.55558556,0.6471773,0.13163339,0.82967025,0.6041743,0.5130501,0.20283611,0.33714598,0.27260056,0.41056103,0.24290122,0.0039784266,805.8608,800.6227,792.96704,849.7802,988.7912,0.457275390625,0.18328857421875,0.85516357421875,4.344024658203125,-3.33465576171875,-0.650482177734375,1.0,1.0,1.0,1.0,1.0,15.0,
2023-09-09 22:06:09.712,0.5580916,0.63983,0.63027924,0.15473196,0.3738149,0.2696948,-0.17554815,0.43365687,0.55558556,0.64226556,0.13163339,0.82967025,0.6041743,0.525966,0.20502536,0.33714598,0.27260056,0.41102228,0.25123134,0.0039784266,807.0696,799.011,794.9817,848.97437,914.65204,0.457275390625,0.18328857421875,0.85516357421875,4.344024658203125,-3.33465576171875,-0.650482177734375,1.0,1.0,1.0,1.0,1.0,15.0,
2023-09-09 22:06:09.750,0.5580916,0.63983,0.63027924,0.15473196,0.3738149,0.2696948,-0.17554815,0.43365687,0.55558556,0.64226556,0.13163339,0.82967025,0.6041743,0.525966,0.20502536,0.33714598,0.27260056,0.41102228,0.25123134,0.0039784266,799.81683,790.14655,793.7729,823.1868,867.1062,0.45587158203125,0.178955078125,0.8560791015625,5.316009521484375,-3.648681640625,-0.22430419921875,1.0,1.0,1.0,1.0,1.0,15.0,
2023-09-09 22:06:09.793,0.5580916,0.6024788,0.6109575,0.15473196,0.3738149,0.25647894,-0.1403153,0.43365687,0.55558556,0.6346366,0.12671834,0.82967025,0.6041743,0.5280189,0.20612958,0.33714598,0.27260056,0.40116712,0.2590466,0.0039784266,781.28204,799.011,787.72894,813.5165,927.9487,0.45587158203125,0.178955078125,0.8560791015625,5.316009521484375,-3.648681640625,-0.22430419921875,1.0,1.0,1.0,1.0,1.0,15.0,
2023-09-09 22:06:09.836,0.5580916,0.6024788,0.6109575,0.15473196,0.3738149,0.25647894,-0.1403153,0.43365687,0.55558556,0.6346366,0.12671834,0.82967025,0.6041743,0.5280189,0.20612958,0.33714598,0.27260056,0.40116712,0.2590466,0.0039784266,782.49084,796.99634,795.78754,816.337,888.86444,0.468017578125,0.18743896484375,0.8497314453125,6.108551025390625,-2.61688232421875,-0.082244873046875,1.0,1.0,1.0,1.0,1.0,15.0,
2023-09-09 22:06:09.910,0.5580916,0.6024788,0.6109575,0.15473196,0.3738149,0.25647894,-0.1403153,0.43365687,0.55558556,0.6346366,0.12671834,0.82967025,0.6041743,0.5280189,0.20612958,0.33714598,0.27260056,0.40116712,0.2590466,0.0039784266,783.69965,802.6374,800.6227,801.4286,835.2747,0.4580078125,0.20428466796875,0.85565185546875,6.4599609375,-3.0804443359375,0.478515625,1.0,1.0,1.0,1.0,1.0,15.0,
2023-09-09 22:06:09.913,0.5580916,0.60086364,0.5793256,0.15473196,0.3738149,0.24824432,-0.06670354,0.43365687,0.55558556,0.631765,0.08708686,0.82967025,0.6041743,0.5182073,0.20423359,0.33714598,0.27260056,0.37581804,0.26003712,0.0039784266,780.87915,811.0989,798.60803,800.6227,962.1978,0.4580078125,0.20428466796875,0.85565185546875,6.4599609375,-3.0804443359375,0.478515625,1.0,1.0,1.0,1.0,1.0,15.0,
2023-09-09 22:06:09.956,0.5580916,0.60086364,0.5793256,0.15473196,0.3738149,0.24824432,-0.06670354,0.43365687,0.55558556,0.631765,0.08708686,0.82967025,0.6041743,0.5182073,0.20423359,0.33714598,0.27260056,0.37581804,0.26003712,0.0039784266,781.28204,815.12823,805.05493,800.6227,719.6337,0.45001220703125,0.19659423828125,0.86328125,3.985137939453125,-2.13836669921875,-1.906585693359375,1.0,1.0,1.0,1.0,1.0,15.0,
2023-09-09 22:06:09.997,0.5580916,0.60086364,0.5793256,0.15473196,0.3738149,0.24824432,-0.06670354,0.43365687,0.55558556,0.631765,0.08708686,0.82967025,0.6041743,0.5182073,0.20423359,0.33714598,0.27260056,0.37581804,0.26003712,0.0039784266,786.1172,809.89014,800.6227,776.4469,905.78754,0.4461669921875,0.1854248046875,0.8597412109375,3.81317138671875,-1.5850830078125,-3.1103515625,1.0,1.0,1.0,1.0,1.0,15.0,
2023-09-09 22:06:10.003,0.5580916,0.6632476,0.5327517,0.15473196,0.3738149,0.23464744,0.020623665,0.43365687,0.55558556,0.6134002,0.047445748,0.82967025,0.6041743,0.49908662,0.19860785,0.33714598,0.27260056,0.3340505,0.2444782,0.0039784266,794.57874,814.7253,806.26373,791.75824,790.14655,0.4461669921875,0.1854248046875,0.8597412109375,3.81317138671875,-1.5850830078125,-3.1103515625,1.0,1.0,1.0,1.0,1.0,15.0,
2023-09-09 22:06:10.073,0.5580916,0.6632476,0.5327517,0.15473196,0.3738149,0.23464744,0.020623665,0.43365687,0.55558556,0.6134002,0.047445748,0.82967025,0.6041743,0.49908662,0.19860785,0.33714598,0.27260056,0.3340505,0.2444782,0.0039784266,767.5824,813.91943,790.14655,793.7729,911.4286,0.4471435546875,0.180419921875,0.8511962890625,4.388885498046875,-2.340240478515625,-1.435546875,1.0,1.0,1.0,1.0,1.0,15.0,
2023-09-09 22:06:10.078,0.5580916,0.75069916,0.47218537,0.15473196,0.3738149,0.20644973,0.091795504,0.43365687,0.55558556,0.51859343,0.06384932,0.82967025,0.6041743,0.47486642,0.18874495,0.33714598,0.27260056,0.28015968,0.2046137,0.0039784266,769.59705,811.50183,792.96704,784.5055,1066.9597,0.4471435546875,0.180419921875,0.8511962890625,4.388885498046875,-2.340240478515625,-1.435546875,1.0,1.0,1.0,1.0,1.0,15.0,
2023-09-09 22:06:10.117,0.5580916,0.75069916,0.47218537,0.15473196,0.3738149,0.20644973,0.091795504,0.43365687,0.55558556,0.51859343,0.06384932,0.82967025,0.6041743,0.47486642,0.18874495,0.33714598,0.27260056,0.28015968,0.2046137,0.0039784266,759.5238,800.2198,797.3993,780.87915,839.707,0.450439453125,0.19183349609375,0.85272216796875,6.17584228515625,-2.85614013671875,2.071075439453125,1.0,1.0,1.0,1.0,1.0,15.0,
2023-09-09 22:06:10.189,0.5580916,0.75069916,0.47218537,0.15473196,0.3738149,0.20644973,0.091795504,0.43365687,0.55558556,0.51859343,0.06384932,0.82967025,0.6041743,0.47486642,0.18874495,0.33714598,0.27260056,0.28015968,0.2046137,0.0039784266,757.50916,807.8755,835.2747,780.87915,733.3333,0.44964599609375,0.20458984375,0.85589599609375,6.6693115234375,-3.775787353515625,4.000091552734375,1.0,1.0,1.0,1.0,1.0,15.0,
2023-09-09 22:06:10.196,0.5580916,0.8151127,0.41210717,0.15473196,0.3738149,0.16853118,0.13635458,0.43365687,0.55558556,0.3733931,0.045934513,0.82967025,0.6041743,0.4508086,0.17353329,0.33714598,0.27260056,0.22231692,0.14156218,0.0039784266,776.04395,809.4872,799.41394,796.5934,976.7033,0.44964599609375,0.20458984375,0.85589599609375,6.6693115234375,-3.775787353515625,4.000091552734375,1.0,1.0,1.0,1.0,1.0,15.0,
2023-09-09 22:06:10.232,0.5580916,0.8151127,0.41210717,0.15473196,0.3738149,0.16853118,0.13635458,0.43365687,0.55558556,0.3733931,0.045934513,0.82967025,0.6041743,0.4508086,0.17353329,0.33714598,0.27260056,0.22231692,0.14156218,0.0039784266,779.2674,813.5165,795.38464,800.2198,799.41394,0.45220947265625,0.20672607421875,0.8599853515625,6.0711669921875,-4.314117431640625,2.803802490234375,1.0,1.0,1.0,1.0,1.0,15.0,
2023-09-09 22:06:10.294,0.5580916,0.8151127,0.41210717,0.15473196,0.3738149,0.16853118,0.13635458,0.43365687,0.55558556,0.3733931,0.045934513,0.82967025,0.6041743,0.4508086,0.17353329,0.33714598,0.27260056,0.22231692,0.14156218,0.0039784266,784.10254,804.2491,797.3993,812.71063,794.57874,0.45654296875,0.2008056640625,0.857177734375,3.529052734375,-3.177642822265625,-1.697235107421875,1.0,1.0,1.0,1.0,1.0,15.0,
2023-09-09 22:06:10.328,0.5580916,0.84733105,0.37696138,0.15473196,0.3738149,0.13704962,0.15999255,0.43365687,0.55558556,0.19227156,0.0045887064,0.82967025,0.6041743,0.43276256,0.15556699,0.33714598,0.27260056,0.16999002,0.06979487,0.0039784266,785.7143,820.7692,788.93774,803.44324,964.61536,0.45654296875,0.2008056640625,0.857177734375,3.529052734375,-3.177642822265625,-1.697235107421875,1.0,1.0,1.0,1.0,1.0,15.0,
2023-09-09 22:06:10.383,0.5580916,0.84733105,0.37696138,0.15473196,0.3738149,0.13704962,0.15999255,0.43365687,0.55558556,0.19227156,0.0045887064,0.82967025,0.6041743,0.43276256,0.15556699,0.33714598,0.27260056,0.16999002,0.06979487,0.0039784266,762.74725,801.8315,788.1319,804.2491,796.1905,0.46112060546875,0.18798828125,0.86358642578125,2.452392578125,-2.332763671875,-3.641204833984375,1.0,1.0,1.0,1.0,1.0,15.0,
2023-09-09 22:06:10.449,0.5580916,0.84733105,0.37696138,0.15473196,0.3738149,0.13704962,0.15999255,0.43365687,0.55558556,0.19227156,0.0045887064,0.82967025,0.6041743,0.43276256,0.15556699,0.33714598,0.27260056,0.16999002,0.06979487,0.0039784266,794.57874,821.978,812.71063,813.91943,839.707,0.45849609375,0.17926025390625,0.85589599609375,2.130889892578125,-3.09539794921875,-2.729034423828125,1.0,1.0,1.0,1.0,1.0,15.0,
2023-09-09 22:06:10.452,0.5580916,0.8612137,0.37397283,0.15473196,0.3738149,0.12734985,0.17845213,0.43365687,0.55558556,0.037206106,-0.068806164,0.82967025,0.6041743,0.4241763,0.1476694,0.33714598,0.27260056,0.13368273,0.0140564125,0.0039784266,786.1172,813.1135,800.6227,805.8608,782.8938,0.45849609375,0.17926025390625,0.85589599609375,2.130889892578125,-3.09539794921875,-2.729034423828125,1.0,1.0,1.0,1.0,1.0,15.0,
2023-09-09 22:06:10.498,0.5580916,0.8612137,0.37397283,0.15473196,0.3738149,0.12734985,0.17845213,0.43365687,0.55558556,0.037206106,-0.068806164,0.82967025,0.6041743,0.4241763,0.1476694,0.33714598,0.27260056,0.13368273,0.0140564125,0.0039784266,780.87915,815.9341,803.8461,805.4579,916.26373,0.45867919921875,0.168701171875,0.8475341796875,2.64678955078125,-3.985137939453125,-1.921539306640625,1.0,1.0,1.0,1.0,1.0,15.0,
2023-09-09 22:06:10.509,0.5580916,0.8612137,0.37397283,0.15473196,0.3738149,0.12734985,0.17845213,0.43365687,0.55558556,0.037206106,-0.068806164,0.82967025,0.6041743,0.4241763,0.1476694,0.33714598,0.27260056,0.13368273,0.0140564125,0.0039784266,768.3883,812.3077,803.44324,799.41394,878.3883,0.47418212890625,0.17645263671875,0.84808349609375,4.32159423828125,-3.84307861328125,-1.77947998046875,1.0,1.0,1.0,1.0,1.0,15.0,
2023-09-09 22:06:10.513,0.5580916,0.88125277,0.38725242,0.15473196,0.3738149,0.13311608,0.20343621,0.43365687,0.55558556,-0.007382995,-0.0912611,0.82967025,0.6041743,0.430378,0.16374688,0.33714598,0.27260056,0.11342242,-0.008927157,0.0039784266,776.04395,812.71063,796.99634,804.65204,873.95605,0.47418212890625,0.17645263671875,0.84808349609375,4.32159423828125,-3.84307861328125,-1.77947998046875,1.0,1.0,1.0,1.0,1.0,15.0,
2023-09-09 22:06:10.560,0.5580916,0.88125277,0.38725242,0.15473196,0.3738149,0.13311608,0.20343621,0.43365687,0.55558556,-0.007382995,-0.0912611,0.82967025,0.6041743,0.430378,0.16374688,0.33714598,0.27260056,0.11342242,-0.008927157,0.0039784266,790.14655,803.8461,805.05493,800.6227,884.43225,0.47332763671875,0.1829833984375,0.85205078125,5.689849853515625,-2.31781005859375,-0.299072265625,1.0,1.0,1.0,1.0,1.0,15.0,
2023-09-09 22:06:10.616,0.5580916,0.88346267,0.3964675,0.15473196,0.3738149,0.14212385,0.2341924,0.43365687,0.55558556,0.12085399,-0.020016732,0.82967025,0.6041743,0.43202242,0.20201758,0.33714598,0.27260056,0.1386284,-0.008702127,0.0039784266,777.25275,811.0989,803.44324,801.02563,1380.0366,0.47332763671875,0.1829833984375,0.85205078125,5.689849853515625,-2.31781005859375,-0.299072265625,1.0,1.0,1.0,1.0,1.0,15.0,
2023-09-09 22:06:10.679,0.5580916,0.88346267,0.3964675,0.15473196,0.3738149,0.14212385,0.2341924,0.43365687,0.55558556,0.12085399,-0.020016732,0.82967025,0.6041743,0.43202242,0.20201758,0.33714598,0.27260056,0.1386284,-0.008702127,0.0039784266,758.71796,805.4579,789.34064,772.01465,810.293,0.46209716796875,0.19036865234375,0.85498046875,6.4300537109375,-0.95703125,-0.261688232421875,1.0,1.0,1.0,1.0,1.0,15.0,
2023-09-09 22:06:10.715,0.5580916,0.88346267,0.3964675,0.15473196,0.3738149,0.14212385,0.2341924,0.43365687,0.55558556,0.12085399,-0.020016732,0.82967025,0.6041743,0.43202242,0.20201758,0.33714598,0.27260056,0.1386284,-0.008702127,0.0039784266,764.7619,817.9487,796.1905,800.2198,786.1172,0.45086669921875,0.19207763671875,0.8551025390625,5.959014892578125,-1.256103515625,0.01495361328125,1.0,1.0,1.0,1.0,1.0,15.0,
2023-09-09 22:06:10.723,0.5580916,0.8867938,0.398854,0.15473196,0.3738149,0.13539068,0.26056954,0.43365687,0.55558556,0.2123666,0.011497282,0.82967025,0.6041743,0.43184856,0.24538231,0.33714598,0.27260056,0.18537775,-0.0067423107,0.0039784266,792.5641,815.12823,787.326,774.83514,960.58606,0.45086669921875,0.19207763671875,0.8551025390625,5.959014892578125,-1.256103515625,0.01495361328125,1.0,1.0,1.0,1.0,1.0,15.0,
2023-09-09 22:06:10.733,0.5580916,0.8867938,0.398854,0.15473196,0.3738149,0.13539068,0.26056954,0.43365687,0.55558556,0.2123666,0.011497282,0.82967025,0.6041743,0.43184856,0.24538231,0.33714598,0.27260056,0.18537775,-0.0067423107,0.0039784266,801.4286,818.3516,796.1905,783.69965,782.8938,0.44866943359375,0.19384765625,0.85382080078125,5.600128173828125,-2.773895263671875,-0.0299072265625,1.0,1.0,1.0,1.0,1.0,15.0,
2023-09-09 22:06:10.773,0.5580916,0.8867938,0.398854,0.15473196,0.3738149,0.13539068,0.26056954,0.43365687,0.55558556,0.2123666,0.011497282,0.82967025,0.6041743,0.43184856,0.24538231,0.33714598,0.27260056,0.18537775,-0.0067423107,0.0039784266,784.90845,828.022,807.8755,798.20514,859.45056,0.45867919921875,0.1937255859375,0.85443115234375,4.8748779296875,-2.9608154296875,-0.620574951171875,1.0,1.0,1.0,1.0,1.0,15.0,
2023-09-09 22:06:10.777,0.5580916,0.89161634,0.39887094,0.15473196,0.3738149,0.11277489,0.27564335,0.43365687,0.55558556,0.26571688,0.0145391375,0.82967025,0.6041743,0.42865464,0.2802246,0.33714598,0.27260056,0.23116675,-0.015284476,0.0039784266,765.16486,811.50183,801.8315,790.14655,774.83514,0.45867919921875,0.1937255859375,0.85443115234375,4.8748779296875,-2.9608154296875,-0.620574951171875,1.0,1.0,1.0,1.0,1.0,15.0,
2023-09-09 22:06:10.862,0.5580916,0.89161634,0.39887094,0.15473196,0.3738149,0.11277489,0.27564335,0.43365687,0.55558556,0.26571688,0.0145391375,0.82967025,0.6041743,0.42865464,0.2802246,0.33714598,0.27260056,0.23116675,-0.015284476,0.0039784266,778.46155,818.7546,802.6374,781.28204,820.3663,0.4622802734375,0.1998291015625,0.85345458984375,5.0543212890625,-2.73651123046875,-0.485992431640625,1.0,1.0,1.0,1.0,1.0,15.0,
2023-09-09 22:06:10.903,0.5580916,0.89161634,0.39887094,0.15473196,0.3738149,0.11277489,0.27564335,0.43365687,0.55558556,0.26571688,0.0145391375,0.82967025,0.6041743,0.42865464,0.2802246,0.33714598,0.27260056,0.23116675,-0.015284476,0.0039784266,784.10254,820.3663,801.02563,780.07324,799.41394,0.464599609375,0.19708251953125,0.8551025390625,5.061798095703125,-2.4224853515625,-0.6280517578125,1.0,1.0,1.0,1.0,1.0,15.0,
2023-09-09 22:06:11.323,0.803349,0.91090214,0.50513065,0.15473196,0.6202208,0.05170913,0.2829092,0.43365687,0.5988563,0.26500392,0.023824632,0.82967025,0.8060118,0.36228558,0.35494903,0.33714598,0.1872959,0.2962536,-0.045808285,0.0039784266,794.17584,812.71063,799.81683,791.75824,810.696,0.45892333984375,0.19219970703125,0.8582763671875,4.8748779296875,-1.338348388671875,-0.994415283203125,1.0,1.0,1.0,1.0,1.0,15.0,
2023-09-09 22:06:11.436,0.803349,0.91090214,0.50513065,0.15473196,0.6202208,0.05170913,0.2829092,0.43365687,0.5988563,0.26500392,0.023824632,0.82967025,0.8060118,0.36228558,0.35494903,0.33714598,0.1872959,0.2962536,-0.045808285,0.0039784266,773.6264,808.68134,792.96704,791.75824,821.5751,0.4508056640625,0.19293212890625,0.85784912109375,4.9945068359375,-1.084136962890625,-0.231781005859375,1.0,1.0,1.0,1.0,1.0,15.0,
2023-09-09 22:06:11.447,0.8505861,0.89726156,0.512901,0.15473196,0.6575168,0.023338335,0.2555299,0.43365687,0.620201,0.25865653,0.048550818,0.82967025,0.7954893,0.34043393,0.35877788,0.33714598,0.16184893,0.31137806,-0.044864167,0.0039784266,779.67035,810.293,789.7436,788.5348,867.1062,0.4508056640625,0.19293212890625,0.85784912109375,4.9945068359375,-1.084136962890625,-0.231781005859375,1.0,1.0,1.0,1.0,1.0,15.0,
2023-09-09 22:06:11.452,0.8505861,0.89726156,0.512901,0.15473196,0.6575168,0.023338335,0.2555299,0.43365687,0.620201,0.25865653,0.048550818,0.82967025,0.7954893,0.34043393,0.35877788,0.33714598,0.16184893,0.31137806,-0.044864167,0.0039784266,794.57874,811.50183,794.17584,787.326,737.3626,0.44903564453125,0.1949462890625,0.85809326171875,4.7552490234375,-2.3028564453125,-1.00189208984375,1.0,1.0,1.0,1.0,1.0,15.0,
2023-09-09 22:06:11.493,0.8505861,0.89726156,0.512901,0.15473196,0.6575168,0.023338335,0.2555299,0.43365687,0.620201,0.25865653,0.048550818,0.82967025,0.7954893,0.34043393,0.35877788,0.33714598,0.16184893,0.31137806,-0.044864167,0.0039784266,768.3883,803.0403,792.1612,779.67035,782.8938,0.45257568359375,0.1988525390625,0.85809326171875,4.0673828125,-2.22808837890625,-0.680389404296875,1.0,1.0,1.0,1.0,1.0,15.0,
2023-09-09 22:06:11.527,0.8505861,0.89726156,0.512901,0.15473196,0.6575168,0.023338335,0.2555299,0.43365687,0.620201,0.25865653,0.048550818,0.82967025,0.7954893,0.34043393,0.35877788,0.33714598,0.16184893,0.31137806,-0.044864167,0.0039784266,775.64105,809.4872,807.47253,792.1612,864.68866,0.445556640625,0.19476318359375,0.86029052734375,4.5159912109375,-1.861724853515625,-1.084136962890625,1.0,1.0,1.0,1.0,1.0,15.0,
2023-09-09 22:06:11.528,0.89605016,0.85036176,0.50209635,0.60320294,0.6654287,-0.022358572,0.20572945,0.53993076,0.63039345,0.24888696,0.09573831,0.64909303,0.77491736,0.32222393,0.36187038,0.6406957,0.14219175,0.3285878,-0.03831833,0.041404,767.1795,810.696,796.5934,786.9231,1065.751,0.445556640625,0.19476318359375,0.86029052734375,4.5159912109375,-1.861724853515625,-1.084136962890625,1.0,1.0,1.0,1.0,1.0,15.0,
2023-09-09 22:06:11.563,0.89605016,0.85036176,0.50209635,0.60320294,0.6654287,-0.022358572,0.20572945,0.53993076,0.63039345,0.24888696,0.09573831,0.64909303,0.77491736,0.32222393,0.36187038,0.6406957,0.14219175,0.3285878,-0.03831833,0.041404,769.19415,806.26373,798.20514,789.7436,812.71063,0.44476318359375,0.19207763671875,0.8575439453125,4.732818603515625,-1.92901611328125,-0.91217041015625,1.0,1.0,1.0,1.0,1.0,15.0,
2023-09-09 22:06:11.618,0.9238208,0.7608217,0.4757096,0.59854645,0.65135914,-0.07074245,0.1458907,0.52104616,0.65160793,0.24582699,0.11448275,0.6601067,0.7528714,0.31200364,0.3660556,0.60988927,0.13075535,0.3456817,-0.025518145,0.011688266,782.49084,819.9634,818.3516,796.99634,877.5824,0.44476318359375,0.19207763671875,0.8575439453125,4.732818603515625,-1.92901611328125,-0.91217041015625,1.0,1.0,1.0,1.0,1.0,15.0,
2023-09-09 22:06:11.679,0.9238208,0.7608217,0.4757096,0.59854645,0.65135914,-0.07074245,0.1458907,0.52104616,0.65160793,0.24582699,0.11448275,0.6601067,0.7528714,0.31200364,0.3660556,0.60988927,0.13075535,0.3456817,-0.025518145,0.011688266,786.9231,809.89014,806.26373,794.17584,839.304,0.4483642578125,0.19854736328125,0.85931396484375,4.717864990234375,-2.99072265625,-0.59814453125,1.0,1.0,1.0,1.0,1.0,15.0,
2023-09-09 22:06:11.736,0.9238208,0.7608217,0.4757096,0.59854645,0.65135914,-0.07074245,0.1458907,0.52104616,0.65160793,0.24582699,0.11448275,0.6601067,0.7528714,0.31200364,0.3660556,0.60988927,0.13075535,0.3456817,-0.025518145,0.011688266,780.07324,809.0842,805.05493,807.47253,1064.9451,0.454345703125,0.1910400390625,0.85858154296875,4.85992431640625,-2.579498291015625,-1.03179931640625,1.0,1.0,1.0,1.0,1.0,15.0,
2023-09-09 22:06:11.740,0.92904943,0.6473148,0.44314924,0.58502614,0.6287391,-0.11743626,0.09445335,0.47692558,0.6693389,0.23156203,0.11961335,0.672998,0.73360556,0.31146094,0.37141448,0.58592635,0.12649171,0.36175552,-0.011404977,-0.0052353935,781.685,808.68134,808.2784,799.41394,802.6374,0.454345703125,0.1910400390625,0.85858154296875,4.85992431640625,-2.579498291015625,-1.03179931640625,1.0,1.0,1.0,1.0,1.0,15.0,
2023-09-09 22:06:11.784,0.92904943,0.6473148,0.44314924,0.58502614,0.6287391,-0.11743626,0.09445335,0.47692558,0.6693389,0.23156203,0.11961335,0.672998,0.73360556,0.31146094,0.37141448,0.58592635,0.12649171,0.36175552,-0.011404977,-0.0052353935,768.3883,808.2784,794.57874,782.49084,795.78754,0.44854736328125,0.1951904296875,0.85821533203125,4.673004150390625,-1.83929443359375,-0.85235595703125,1.0,1.0,1.0,1.0,1.0,15.0,
2023-09-09 22:06:11.818,0.92904943,0.6473148,0.44314924,0.58502614,0.6287391,-0.11743626,0.09445335,0.47692558,0.6693389,0.23156203,0.11961335,0.672998,0.73360556,0.31146094,0.37141448,0.58592635,0.12649171,0.36175552,-0.011404977,-0.0052353935,782.8938,815.12823,803.44324,799.011,853.8095,0.43975830078125,0.19329833984375,0.85845947265625,4.329071044921875,-2.4224853515625,-0.785064697265625,1.0,1.0,1.0,1.0,1.0,15.0,
2023-09-09 22:06:11.825,0.91488963,0.55188173,0.41184443,0.55575866,0.6076961,-0.17182697,0.060237005,0.4250838,0.6801523,0.22805987,0.12961158,0.68839794,0.7192299,0.3173976,0.37517425,0.56609344,0.12486477,0.3753918,-0.0023032143,-0.013873837,770.40295,801.02563,801.4286,790.14655,834.4689,0.43975830078125,0.19329833984375,0.85845947265625,4.329071044921875,-2.4224853515625,-0.785064697265625,1.0,1.0,1.0,1.0,1.0,15.0,
2023-09-09 22:06:11.934,0.91488963,0.55188173,0.41184443,0.55575866,0.6076961,-0.17182697,0.060237005,0.4250838,0.6801523,0.22805987,0.12961158,0.68839794,0.7192299,0.3173976,0.37517425,0.56609344,0.12486477,0.3753918,-0.0023032143,-0.013873837,772.4176,818.3516,802.23444,795.78754,894.90845,0.4410400390625,0.192626953125,0.85601806640625,5.0244140625,-2.803802490234375,-0.37384033203125,1.0,1.0,1.0,1.0,1.0,15.0,
2023-09-09 22:06:11.940,0.8919651,0.49559075,0.38665926,0.51874554,0.59128267,-0.24116912,0.02907772,0.37630042,0.6857104,0.22805987,0.1557638,0.7194908,0.7096989,0.3224087,0.37142518,0.5511938,0.122073844,0.3817061,-0.0036493836,-0.019357458,782.49084,813.5165,794.17584,816.337,1210.8059,0.4410400390625,0.192626953125,0.85601806640625,5.0244140625,-2.803802490234375,-0.37384033203125,1.0,1.0,1.0,1.0,1.0,15.0,
2023-09-09 22:06:11.976,0.8919651,0.49559075,0.38665926,0.51874554,0.59128267,-0.24116912,0.02907772,0.37630042,0.6857104,0.22805987,0.1557638,0.7194908,0.7096989,0.3224087,0.37142518,0.5511938,0.122073844,0.3817061,-0.0036493836,-0.019357458,794.57874,823.5897,804.2491,813.1135,874.35895,0.4503173828125,0.19189453125,0.861572265625,4.927215576171875,-4.179534912109375,-0.456085205078125,1.0,1.0,1.0,1.0,1.0,15.0,
2023-09-09 22:06:11.985,0.8919651,0.49559075,0.38665926,0.51874554,0.59128267,-0.24116912,0.02907772,0.37630042,0.6857104,0.22805987,0.1557638,0.7194908,0.7096989,0.3224087,0.37142518,0.5511938,0.122073844,0.3817061,-0.0036493836,-0.019357458,785.7143,807.8755,786.52014,798.20514,844.1392,0.45654296875,0.19140625,0.85833740234375,4.717864990234375,-3.596343994140625,-0.844879150390625,1.0,1.0,1.0,1.0,1.0,15.0,
2023-09-09 22:06:11.993,0.8677231,0.47596464,0.36972535,0.4876839,0.5786706,-0.26309484,-0.019281536,0.33401415,0.6857104,0.22805987,0.19867936,0.76005346,0.70263875,0.31960905,0.35585478,0.5443607,0.11865647,0.3657574,-0.019804131,-0.02500408,785.31134,812.71063,797.3993,797.8022,954.1392,0.45654296875,0.19140625,0.85833740234375,4.717864990234375,-3.596343994140625,-0.844879150390625,1.0,1.0,1.0,1.0,1.0,15.0,
2023-09-09 22:06:12.047,0.8677231,0.47596464,0.36972535,0.4876839,0.5786706,-0.26309484,-0.019281536,0.33401415,0.6857104,0.22805987,0.19867936,0.76005346,0.70263875,0.31960905,0.35585478,0.5443607,0.11865647,0.3657574,-0.019804131,-0.02500408,794.57874,818.3516,801.02563,799.81683,910.2198,0.45318603515625,0.19970703125,0.85430908203125,4.94964599609375,-2.370147705078125,-0.665435791015625,1.0,1.0,1.0,1.0,1.0,15.0,
2023-09-09 22:06:12.103,0.8677231,0.47596464,0.36972535,0.4876839,0.5786706,-0.26309484,-0.019281536,0.33401415,0.6857104,0.22805987,0.19867936,0.76005346,0.70263875,0.31960905,0.35585478,0.5443607,0.11865647,0.3657574,-0.019804131,-0.02500408,778.0586,806.26373,797.8022,792.5641,833.2601,0.451171875,0.1954345703125,0.8551025390625,4.71038818359375,-3.03558349609375,-0.76263427734375,1.0,1.0,1.0,1.0,1.0,15.0,
2023-09-09 22:06:12.146,0.8453456,0.4570524,0.35691997,0.4730888,0.56735146,-0.32265687,-0.09023805,0.29756388,0.6859033,0.22286087,0.23562166,0.7825068,0.69535625,0.30968493,0.33068076,0.54492587,0.117099546,0.33631346,-0.05006472,-0.030540954,787.72894,825.2015,813.91943,801.02563,859.85345,0.451171875,0.1954345703125,0.8551025390625,4.71038818359375,-3.03558349609375,-0.76263427734375,1.0,1.0,1.0,1.0,1.0,15.0,
2023-09-09 22:06:12.182,0.8453456,0.4570524,0.35691997,0.4730888,0.56735146,-0.32265687,-0.09023805,0.29756388,0.6859033,0.22286087,0.23562166,0.7825068,0.69535625,0.30968493,0.33068076,0.54492587,0.117099546,0.33631346,-0.05006472,-0.030540954,792.96704,811.0989,800.2198,805.8608,793.7729,0.45111083984375,0.19482421875,0.8564453125,4.358978271484375,-3.0206298828125,-0.76263427734375,1.0,1.0,1.0,1.0,1.0,15.0,
2023-09-09 22:06:12.226,0.8453456,0.4570524,0.35691997,0.4730888,0.56735146,-0.32265687,-0.09023805,0.29756388,0.6859033,0.22286087,0.23562166,0.7825068,0.69535625,0.30968493,0.33068076,0.54492587,0.117099546,0.33631346,-0.05006472,-0.030540954,786.52014,819.15753,808.2784,802.23444,797.8022,0.451416015625,0.191162109375,0.85394287109375,4.7552490234375,-2.94586181640625,-0.8074951171875,1.0,1.0,1.0,1.0,1.0,15.0,
2023-09-09 22:06:12.229,0.8271884,0.43146655,0.33995888,0.46851996,0.5566625,-0.35736024,-0.16611446,0.26772878,0.6878052,0.1837417,0.23325191,0.7880957,0.6869015,0.29425353,0.30421185,0.5479406,0.11871236,0.28851625,-0.084597744,-0.03393657,770.40295,823.1868,811.0989,805.05493,753.47986,0.451416015625,0.191162109375,0.85394287109375,4.7552490234375,-2.94586181640625,-0.8074951171875,1.0,1.0,1.0,1.0,1.0,15.0,
2023-09-09 22:06:12.271,0.8271884,0.43146655,0.33995888,0.46851996,0.5566625,-0.35736024,-0.16611446,0.26772878,0.6878052,0.1837417,0.23325191,0.7880957,0.6869015,0.29425353,0.30421185,0.5479406,0.11871236,0.28851625,-0.084597744,-0.03393657,777.25275,813.5165,801.02563,800.2198,824.7985,0.45361328125,0.20062255859375,0.8563232421875,4.605712890625,-3.4991455078125,-0.7177734375,1.0,1.0,1.0,1.0,1.0,15.0,
2023-09-09 22:06:12.318,0.8271884,0.43146655,0.33995888,0.46851996,0.5566625,-0.35736024,-0.16611446,0.26772878,0.6878052,0.1837417,0.23325191,0.7880957,0.6869015,0.29425353,0.30421185,0.5479406,0.11871236,0.28851625,-0.084597744,-0.03393657,789.34064,810.293,807.8755,802.6374,985.9707,0.4493408203125,0.1947021484375,0.85736083984375,4.44122314453125,-2.6617431640625,-0.43365478515625,1.0,1.0,1.0,1.0,1.0,15.0,
2023-09-09 22:06:12.321,0.81151724,0.4012499,0.31619132,0.46187535,0.5479057,-0.35733768,-0.2187188,0.24500842,0.6931537,0.11005268,0.21090598,0.797121,0.6788383,0.2773024,0.2852081,0.54808235,0.122345015,0.23600896,-0.108569376,-0.035368275,777.25275,806.6667,805.8608,801.02563,873.1502,0.4493408203125,0.1947021484375,0.85736083984375,4.44122314453125,-2.6617431640625,-0.43365478515625,1.0,1.0,1.0,1.0,1.0,15.0,
2023-09-09 22:06:12.371,0.81151724,0.4012499,0.31619132,0.46187535,0.5479057,-0.35733768,-0.2187188,0.24500842,0.6931537,0.11005268,0.21090598,0.797121,0.6788383,0.2773024,0.2852081,0.54808235,0.122345015,0.23600896,-0.108569376,-0.035368275,784.5055,812.3077,806.26373,798.20514,831.2454,0.455078125,0.19525146484375,0.8587646484375,4.882354736328125,-3.39447021484375,-1.016845703125,1.0,1.0,1.0,1.0,1.0,15.0,
2023-09-09 22:06:12.426,0.7906987,0.38220873,0.28181317,0.44959417,0.54390454,-0.32256645,-0.23552817,0.23037231,0.7021755,-0.031666424,0.19566175,0.8073722,0.67507195,0.26052535,0.27474454,0.54272187,0.1060636,0.19641893,-0.117309384,-0.03644509,775.64105,802.23444,801.8315,808.68134,1195.0916,0.455078125,0.19525146484375,0.8587646484375,4.882354736328125,-3.39447021484375,-1.016845703125,1.0,1.0,1.0,1.0,1.0,15.0,
2023-09-09 22:06:12.471,0.7906987,0.38220873,0.28181317,0.44959417,0.54390454,-0.32256645,-0.23552817,0.23037231,0.7021755,-0.031666424,0.19566175,0.8073722,0.67507195,0.26052535,0.27474454,0.54272187,0.1060636,0.19641893,-0.117309384,-0.03644509,801.4286,813.1135,799.41394,818.7546,903.36993,0.4638671875,0.195556640625,0.8504638671875,4.74029541015625,-3.170166015625,-0.844879150390625,1.0,1.0,1.0,1.0,1.0,15.0,
2023-09-09 22:06:12.528,0.7906987,0.38220873,0.28181317,0.44959417,0.54390454,-0.32256645,-0.23552817,0.23037231,0.7021755,-0.031666424,0.19566175,0.8073722,0.67507195,0.26052535,0.27474454,0.54272187,0.1060636,0.19641893,-0.117309384,-0.03644509,776.4469,801.4286,805.4579,805.4579,756.7033,0.45477294921875,0.19580078125,0.8525390625,4.91973876953125,-2.459869384765625,-0.55328369140625,1.0,1.0,1.0,1.0,1.0,20.0,
2023-09-09 22:06:12.535,0.7758069,0.37646738,0.2316721,0.43142384,0.5641458,-0.2634694,-0.23210825,0.22291376,0.7042561,-0.12367059,0.20043825,0.81217265,0.6702653,0.24496706,0.266881,0.53178823,0.10455942,0.17685881,-0.1221156,-0.038261056,764.35895,808.68134,799.011,793.36993,824.3956,0.45477294921875,0.19580078125,0.8525390625,4.91973876953125,-2.459869384765625,-0.55328369140625,1.0,1.0,1.0,1.0,1.0,20.0,
2023-09-09 22:06:12.567,0.7758069,0.37646738,0.2316721,0.43142384,0.5641458,-0.2634694,-0.23210825,0.22291376,0.7042561,-0.12367059,0.20043825,0.81217265,0.6702653,0.24496706,0.266881,0.53178823,0.10455942,0.17685881,-0.1221156,-0.038261056,772.01465,799.011,799.011,801.4286,754.2857,0.451171875,0.19384765625,0.8585205078125,4.3963623046875,-2.67669677734375,-0.874786376953125,1.0,1.0,1.0,1.0,1.0,20.0,
2023-09-09 22:06:12.614,0.7758069,0.37646738,0.2316721,0.43142384,0.5641458,-0.2634694,-0.23210825,0.22291376,0.7042561,-0.12367059,0.20043825,0.81217265,0.6702653,0.24496706,0.266881,0.53178823,0.10455942,0.17685881,-0.1221156,-0.038261056,796.5934,815.9341,801.4286,802.6374,857.03296,0.4521484375,0.19366455078125,0.85595703125,4.71038818359375,-2.6019287109375,-1.114044189453125,1.0,1.0,1.0,1.0,1.0,20.0,
2023-09-09 22:06:12.626,0.75811344,0.37337288,0.16361782,0.4114156,0.5899543,-0.19880073,-0.22376955,0.21873212,0.7014963,-0.13193883,0.20855072,0.81326574,0.6659932,0.23352271,0.256797,0.5169294,0.117544174,0.16878931,-0.13678886,-0.0403341,764.7619,805.8608,784.90845,789.34064,796.99634,0.4521484375,0.19366455078125,0.85595703125,4.71038818359375,-2.6019287109375,-1.114044189453125,1.0,1.0,1.0,1.0,1.0,20.0,
2023-09-09 22:06:12.706,0.75811344,0.37337288,0.16361782,0.4114156,0.5899543,-0.19880073,-0.22376955,0.21873212,0.7014963,-0.13193883,0.20855072,0.81326574,0.6659932,0.23352271,0.256797,0.5169294,0.117544174,0.16878931,-0.13678886,-0.0403341,780.4762,808.2784,797.3993,783.69965,854.21246,0.4580078125,0.196044921875,0.849853515625,4.4561767578125,-3.3197021484375,-0.695343017578125,1.0,1.0,1.0,1.0,1.0,20.0,
2023-09-09 22:06:12.789,0.75811344,0.37337288,0.16361782,0.4114156,0.5899543,-0.19880073,-0.22376955,0.21873212,0.7014963,-0.13193883,0.20855072,0.81326574,0.6659932,0.23352271,0.256797,0.5169294,0.117544174,0.16878931,-0.13678886,-0.0403341,786.9231,810.696,792.5641,799.011,846.1539,0.4600830078125,0.20098876953125,0.8563232421875,4.9346923828125,-3.372039794921875,-0.530853271484375,1.0,1.0,1.0,1.0,1.0,20.0,
2023-09-09 22:06:12.790,0.7366024,0.3646341,0.09420081,0.3673864,0.60822105,-0.14303294,-0.21509168,0.20538001,0.6966078,-0.13800985,0.24344783,0.78172755,0.6641249,0.23021036,0.24459498,0.48084018,0.13900115,0.16068801,-0.16258341,-0.060504097,778.0586,811.50183,789.7436,795.78754,822.7839,0.4600830078125,0.20098876953125,0.8563232421875,4.9346923828125,-3.372039794921875,-0.530853271484375,1.0,1.0,1.0,1.0,1.0,20.0,
2023-09-09 22:06:12.811,0.7366024,0.3646341,0.09420081,0.3673864,0.60822105,-0.14303294,-0.21509168,0.20538001,0.6966078,-0.13800985,0.24344783,0.78172755,0.6641249,0.23021036,0.24459498,0.48084018,0.13900115,0.16068801,-0.16258341,-0.060504097,774.83514,806.26373,802.6374,801.02563,867.1062,0.45965576171875,0.19482421875,0.8548583984375,4.71038818359375,-3.15521240234375,-0.95703125,1.0,1.0,1.0,1.0,1.0,20.0,
2023-09-09 22:06:12.847,0.7366024,0.3646341,0.09420081,0.3673864,0.60822105,-0.14303294,-0.21509168,0.20538001,0.6966078,-0.13800985,0.24344783,0.78172755,0.6641249,0.23021036,0.24459498,0.48084018,0.13900115,0.16068801,-0.16258341,-0.060504097,760.7326,812.3077,793.36993,796.1905,945.2747,0.46099853515625,0.1990966796875,0.85260009765625,4.583282470703125,-2.549591064453125,-0.635528564453125,1.0,1.0,1.0,1.0,1.0,20.0,
2023-09-09 22:06:12.851,0.70908916,0.3438915,0.032470915,0.32528636,0.6176576,-0.10375128,-0.20629707,0.16993274,0.68055624,-0.124378525,0.26254895,0.7710383,0.66378564,0.23623571,0.23255828,0.44196448,0.16339606,0.14552599,-0.19168118,-0.07261817,771.6117,811.9048,800.6227,805.8608,1146.7399,0.46099853515625,0.1990966796875,0.85260009765625,4.583282470703125,-2.549591064453125,-0.635528564453125,1.0,1.0,1.0,1.0,1.0,20.0,
2023-09-09 22:06:12.895,0.70908916,0.3438915,0.032470915,0.32528636,0.6176576,-0.10375128,-0.20629707,0.16993274,0.68055624,-0.124378525,0.26254895,0.7710383,0.66378564,0.23623571,0.23255828,0.44196448,0.16339606,0.14552599,-0.19168118,-0.07261817,762.74725,796.99634,800.6227,801.4286,735.34796,0.45556640625,0.1943359375,0.85162353515625,4.53094482421875,-2.250518798828125,-0.6878662109375,1.0,1.0,1.0,1.0,1.0,20.0,
2023-09-09 22:06:12.934,0.66841346,0.29743484,-0.022297386,0.27268,0.6245371,-0.08050206,-0.1977681,0.11565357,0.63988274,-0.10788953,0.2500107,0.757389,0.662548,0.24813037,0.22246288,0.4120531,0.18702905,0.12193509,-0.21890417,-0.07195031,776.04395,815.9341,806.26373,802.23444,935.2015,0.45556640625,0.1943359375,0.85162353515625,4.53094482421875,-2.250518798828125,-0.6878662109375,1.0,1.0,1.0,1.0,1.0,20.0,
2023-09-09 22:06:12.975,0.66841346,0.29743484,-0.022297386,0.27268,0.6245371,-0.08050206,-0.1977681,0.11565357,0.63988274,-0.10788953,0.2500107,0.757389,0.662548,0.24813037,0.22246288,0.4120531,0.18702905,0.12193509,-0.21890417,-0.07195031,779.67035,811.50183,796.1905,790.54944,777.25275,0.45513916015625,0.19366455078125,0.85345458984375,4.418792724609375,-2.863616943359375,-0.829925537109375,1.0,1.0,1.0,1.0,1.0,20.0,
2023-09-09 22:06:13.011,0.66841346,0.29743484,-0.022297386,0.27268,0.6245371,-0.08050206,-0.1977681,0.11565357,0.63988274,-0.10788953,0.2500107,0.757389,0.662548,0.24813037,0.22246288,0.4120531,0.18702905,0.12193509,-0.21890417,-0.07195031,774.43225,812.3077,793.7729,803.0403,874.35895,0.45654296875,0.1956787109375,0.85174560546875,4.433746337890625,-2.75146484375,-0.770111083984375,1.0,1.0,1.0,1.0,1.0,20.0,
2023-09-09 22:06:13.015,0.61074317,0.22507666,-0.067803614,0.20862095,0.6341612,-0.0685867,-0.18933377,0.059686486,0.63228244,-0.08605738,0.23636372,0.75563264,0.6591712,0.26007923,0.21280718,0.39691588,0.20649463,0.09190489,-0.24591787,-0.06250562,780.07324,807.47253,803.44324,795.78754,803.0403,0.45654296875,0.1956787109375,0.85174560546875,4.433746337890625,-2.75146484375,-0.770111083984375,1.0,1.0,1.0,1.0,1.0,20.0,
2023-09-09 22:06:13.106,0.61074317,0.22507666,-0.067803614,0.20862095,0.6341612,-0.0685867,-0.18933377,0.059686486,0.63228244,-0.08605738,0.23636372,0.75563264,0.6591712,0.26007923,0.21280718,0.39691588,0.20649463,0.09190489,-0.24591787,-0.06250562,782.8938,818.7546,801.4286,795.38464,872.3443,0.45819091796875,0.19720458984375,0.85479736328125,4.7552490234375,-2.743988037109375,-0.73272705078125,1.0,1.0,1.0,1.0,1.0,20.0,
2023-09-09 22:06:13.140,0.61074317,0.22507666,-0.067803614,0.20862095,0.6341612,-0.0685867,-0.18933377,0.059686486,0.63228244,-0.08605738,0.23636372,0.75563264,0.6591712,0.26007923,0.21280718,0.39691588,0.20649463,0.09190489,-0.24591787,-0.06250562,776.04395,815.12823,798.60803,801.02563,846.55676,0.45758056640625,0.19903564453125,0.8543701171875,4.314117431640625,-2.9608154296875,-0.829925537109375,1.0,1.0,1.0,1.0,1.0,20.0,
2023-09-09 22:06:13.145,0.5427849,0.14546533,-0.091756925,0.13803397,0.64405507,-0.06271252,-0.18272334,0.022496173,0.63129777,-0.038592134,0.23564994,0.75563264,0.6564891,0.270399,0.20063902,0.39464664,0.21824805,0.05923928,-0.2735551,-0.050804127,784.10254,827.619,803.0403,809.0842,791.75824,0.45758056640625,0.19903564453125,0.8543701171875,4.314117431640625,-2.9608154296875,-0.829925537109375,1.0,1.0,1.0,1.0,1.0,20.0,
2023-09-09 22:06:13.239,0.5427849,0.14546533,-0.091756925,0.13803397,0.64405507,-0.06271252,-0.18272334,0.022496173,0.63129777,-0.038592134,0.23564994,0.75563264,0.6564891,0.270399,0.20063902,0.39464664,0.21824805,0.05923928,-0.2735551,-0.050804127,797.3993,821.1722,815.12823,818.7546,971.06226,0.4610595703125,0.2000732421875,0.849365234375,4.987030029296875,-3.446807861328125,-0.904693603515625,1.0,1.0,1.0,1.0,1.0,20.0,
2023-09-09 22:06:13.245,0.4814124,0.07735688,-0.102790825,0.06758641,0.6490578,-0.05765919,-0.18004623,0.009629679,0.62644506,-0.012397598,0.25581652,0.75563264,0.6603551,0.28134236,0.18615009,0.40088356,0.22087191,0.027399044,-0.2946633,-0.03942937,796.5934,814.7253,797.8022,798.20514,891.685,0.4610595703125,0.2000732421875,0.849365234375,4.987030029296875,-3.446807861328125,-0.904693603515625,1.0,1.0,1.0,1.0,1.0,20.0,
2023-09-09 22:06:13.279,0.4814124,0.07735688,-0.102790825,0.06758641,0.6490578,-0.05765919,-0.18004623,0.009629679,0.62644506,-0.012397598,0.25581652,0.75563264,0.6603551,0.28134236,0.18615009,0.40088356,0.22087191,0.027399044,-0.2946633,-0.03942937,792.5641,818.3516,799.41394,799.81683,760.7326,0.4630126953125,0.1971435546875,0.853271484375,4.8150634765625,-2.0635986328125,-0.58319091796875,1.0,1.0,1.0,1.0,1.0,20.0,
2023-09-09 22:06:13.323,0.4814124,0.07735688,-0.102790825,0.06758641,0.6490578,-0.05765919,-0.18004623,0.009629679,0.62644506,-0.012397598,0.25581652,0.75563264,0.6603551,0.28134236,0.18615009,0.40088356,0.22087191,0.027399044,-0.2946633,-0.03942937,779.2674,813.5165,794.17584,804.65204,735.34796,0.4561767578125,0.19775390625,0.85467529296875,4.523468017578125,-2.2430419921875,-0.725250244140625,1.0,1.0,1.0,1.0,1.0,20.0,
2023-09-09 22:06:13.375,0.4814124,0.07735688,-0.102790825,0.06758641,0.6490578,-0.05765919,-0.18004623,0.009629679,0.62644506,-0.012397598,0.25581652,0.75563264,0.6603551,0.28134236,0.18615009,0.40088356,0.22087191,0.027399044,-0.2946633,-0.03942937,771.6117,807.0696,797.8022,802.6374,757.1062,0.4544677734375,0.19561767578125,0.855224609375,4.62066650390625,-2.310333251953125,-0.7476806640625,1.0,1.0,1.0,1.0,1.0,20.0,
2023-09-09 22:06:13.376,0.44727358,0.0340881,-0.10093817,0.018226331,0.64763427,-0.048421916,-0.18174826,0.012711387,0.6506127,-0.012397598,0.25796402,0.75220764,0.6721145,0.29376528,0.17294112,0.41058236,0.21600983,-0.00048819443,-0.29991153,-0.028826868,776.04395,803.8461,801.02563,806.6667,878.3883,0.4544677734375,0.19561767578125,0.855224609375,4.62066650390625,-2.310333251953125,-0.7476806640625,1.0,1.0,1.0,1.0,1.0,20.0,
2023-09-09 22:06:13.433,0.44727358,0.0340881,-0.10093817,0.018226331,0.64763427,-0.048421916,-0.18174826,0.012711387,0.6506127,-0.012397598,0.25796402,0.75220764,0.6721145,0.29376528,0.17294112,0.41058236,0.21600983,-0.00048819443,-0.29991153,-0.028826868,772.4176,808.68134,794.9817,800.6227,942.4542,0.456787109375,0.197998046875,0.8525390625,4.68048095703125,-3.51409912109375,-0.43365478515625,1.0,1.0,1.0,1.0,1.0,20.0,
2023-09-09 22:06:13.468,0.43527982,0.005589708,-0.10181622,-0.0094339745,0.64169204,-0.035533875,-0.1821024,0.023460167,0.68215865,-0.012397598,0.25796402,0.7202367,0.68665457,0.30674377,0.1639775,0.41919532,0.20673388,-0.020876119,-0.28896463,-0.01986084,784.5055,814.3223,797.3993,795.78754,818.7546,0.456787109375,0.197998046875,0.8525390625,4.68048095703125,-3.51409912109375,-0.43365478515625,1.0,1.0,1.0,1.0,1.0,20.0,
2023-09-09 22:06:13.478,0.43527982,0.005589708,-0.10181622,-0.0094339745,0.64169204,-0.035533875,-0.1821024,0.023460167,0.68215865,-0.012397598,0.25796402,0.7202367,0.68665457,0.30674377,0.1639775,0.41919532,0.20673388,-0.020876119,-0.28896463,-0.01986084,765.16486,813.1135,807.47253,795.38464,830.84247,0.46343994140625,0.19873046875,0.853271484375,4.508514404296875,-3.289794921875,-0.19439697265625,1.0,1.0,1.0,1.0,1.0,20.0,
2023-09-09 22:06:13.529,0.43527982,0.005589708,-0.10181622,-0.0094339745,0.64169204,-0.035533875,-0.1821024,0.023460167,0.68215865,-0.012397598,0.25796402,0.7202367,0.68665457,0.30674377,0.1639775,0.41919532,0.20673388,-0.020876119,-0.28896463,-0.01986084,776.04395,811.0989,801.8315,800.6227,844.94507,0.47125244140625,0.2021484375,0.8533935546875,4.269256591796875,-2.64678955078125,-0.777587890625,1.0,1.0,1.0,1.0,1.0,20.0,
2023-09-09 22:06:13.534,0.43116304,-0.016841076,-0.10687883,-0.038618162,0.6336773,-0.02308143,-0.17368048,0.035862997,0.701086,-0.013150357,0.25796402,0.6549953,0.69699967,0.31937537,0.15752877,0.42389953,0.19602434,-0.0324199,-0.26765817,-0.014515728,771.2088,806.26373,797.3993,801.8315,813.91943,0.47125244140625,0.2021484375,0.8533935546875,4.269256591796875,-2.64678955078125,-0.777587890625,1.0,1.0,1.0,1.0,1.0,20.0,
2023-09-09 22:06:13.623,0.43116304,-0.016841076,-0.10687883,-0.038618162,0.6336773,-0.02308143,-0.17368048,0.035862997,0.701086,-0.013150357,0.25796402,0.6549953,0.69699967,0.31937537,0.15752877,0.42389953,0.19602434,-0.0324199,-0.26765817,-0.014515728,775.64105,806.26373,795.38464,804.2491,929.15753,0.46551513671875,0.2027587890625,0.85345458984375,4.388885498046875,-1.36077880859375,-0.201873779296875,1.0,1.0,1.0,1.0,1.0,20.0,
2023-09-09 22:06:13.666,0.43116304,-0.016841076,-0.10687883,-0.038618162,0.6336773,-0.02308143,-0.17368048,0.035862997,0.701086,-0.013150357,0.25796402,0.6549953,0.69699967,0.31937537,0.15752877,0.42389953,0.19602434,-0.0324199,-0.26765817,-0.014515728,782.8938,806.6667,793.7729,797.3993,877.1795,0.4554443359375,0.1966552734375,0.85009765625,3.7982177734375,-1.68975830078125,-0.70281982421875,1.0,1.0,1.0,1.0,1.0,20.0,
2023-09-09 22:06:13.673,0.42428288,-0.036526125,-0.10789705,-0.099925324,0.62593377,-0.013194622,-0.15555994,0.045498848,0.70416415,-0.013150357,0.25796402,0.5806796,0.70065844,0.33165085,0.14879946,0.42549917,0.18918951,-0.038672615,-0.23975688,-0.0130948145,776.8498,810.696,799.81683,801.8315,1065.348,0.4554443359375,0.1966552734375,0.85009765625,3.7982177734375,-1.68975830078125,-0.70281982421875,1.0,1.0,1.0,1.0,1.0,20.0,
2023-09-09 22:06:13.723,0.42428288,-0.036526125,-0.10789705,-0.099925324,0.62593377,-0.013194622,-0.15555994,0.045498848,0.70416415,-0.013150357,0.25796402,0.5806796,0.70065844,0.33165085,0.14879946,0.42549917,0.18918951,-0.038672615,-0.23975688,-0.0130948145,771.2088,808.2784,811.0989,799.81683,781.28204,0.45257568359375,0.19970703125,0.85467529296875,4.299163818359375,-1.861724853515625,-0.91217041015625,1.0,1.0,1.0,1.0,1.0,20.0,
2023-09-09 22:06:13.729,0.40996048,-0.05389675,-0.09433054,-0.1998436,0.6188938,-0.004994521,-0.13218117,0.04782599,0.70416415,-0.020654913,0.25259256,0.5151847,0.7006936,0.34325367,0.13495098,0.4276996,0.1902564,-0.044958595,-0.20685034,-0.013117236,777.6557,804.65204,792.5641,784.90845,1005.31134,0.45257568359375,0.19970703125,0.85467529296875,4.299163818359375,-1.861724853515625,-0.91217041015625,1.0,1.0,1.0,1.0,1.0,20.0,
2023-09-09 22:06:13.755,0.40996048,-0.05389675,-0.09433054,-0.1998436,0.6188938,-0.004994521,-0.13218117,0.04782599,0.70416415,-0.020654913,0.25259256,0.5151847,0.7006936,0.34325367,0.13495098,0.4276996,0.1902564,-0.044958595,-0.20685034,-0.013117236,790.9524,819.15753,801.02563,789.34064,896.9231,0.4521484375,0.191650390625,0.85272216796875,3.940277099609375,-2.669219970703125,-1.024322509765625,1.0,1.0,1.0,1.0,1.0,20.0,
2023-09-09 22:06:13.821,0.40996048,-0.05389675,-0.09433054,-0.1998436,0.6188938,-0.004994521,-0.13218117,0.04782599,0.70416415,-0.020654913,0.25259256,0.5151847,0.7006936,0.34325367,0.13495098,0.4276996,0.1902564,-0.044958595,-0.20685034,-0.013117236,760.7326,817.9487,802.6374,796.99634,895.7143,0.4591064453125,0.19305419921875,0.8511962890625,4.35150146484375,-2.13836669921875,-0.6280517578125,1.0,1.0,1.0,1.0,1.0,20.0,
2023-09-09 22:06:13.828,0.3892451,-0.07190894,-0.072690524,-0.30432877,0.6120844,0.002173846,-0.10658644,0.041497234,0.70416415,-0.010878629,0.2433944,0.4514544,0.6996453,0.3529482,0.115939654,0.43395257,0.1986397,-0.052202046,-0.17296362,-0.008290168,782.0879,817.1429,805.4579,790.54944,873.95605,0.4591064453125,0.19305419921875,0.8511962890625,4.35150146484375,-2.13836669921875,-0.6280517578125,1.0,1.0,1.0,1.0,1.0,20.0,
2023-09-09 22:06:13.857,0.3892451,-0.07190894,-0.072690524,-0.30432877,0.6120844,0.002173846,-0.10658644,0.041497234,0.70416415,-0.010878629,0.2433944,0.4514544,0.6996453,0.3529482,0.115939654,0.43395257,0.1986397,-0.052202046,-0.17296362,-0.008290168,784.90845,818.7546,800.2198,790.9524,957.76556,0.461181640625,0.1943359375,0.85595703125,4.3963623046875,-2.429962158203125,-1.2261962890625,1.0,1.0,1.0,1.0,1.0,20.0,
2023-09-09 22:06:13.921,0.3892451,-0.07190894,-0.072690524,-0.30432877,0.6120844,0.002173846,-0.10658644,0.041497234,0.70416415,-0.010878629,0.2433944,0.4514544,0.6996453,0.3529482,0.115939654,0.43395257,0.1986397,-0.052202046,-0.17296362,-0.008290168,772.4176,814.7253,797.8022,788.5348,846.55676,0.458251953125,0.19622802734375,0.85565185546875,4.673004150390625,-2.130889892578125,-0.52337646484375,1.0,1.0,1.0,1.0,1.0,20.0,
2023-09-09 22:06:13.959,0.36681452,-0.097978,-0.05755541,-0.343152,0.60072774,0.0052437535,-0.07696147,0.0254952,0.7163346,0.0098964935,0.21632552,0.38264942,0.6969504,0.35977384,0.094040275,0.4449277,0.20904969,-0.05693408,-0.14428876,0.002962326,760.7326,812.3077,805.8608,793.7729,863.0769,0.458251953125,0.19622802734375,0.85565185546875,4.673004150390625,-2.130889892578125,-0.52337646484375,1.0,1.0,1.0,1.0,1.0,20.0,
2023-09-09 22:06:14.051,0.36681452,-0.097978,-0.05755541,-0.343152,0.60072774,0.0052437535,-0.07696147,0.0254952,0.7163346,0.0098964935,0.21632552,0.38264942,0.6969504,0.35977384,0.094040275,0.4449277,0.20904969,-0.05693408,-0.14428876,0.002962326,773.22345,812.3077,799.81683,786.1172,991.2088,0.46124267578125,0.196044921875,0.8525390625,4.71038818359375,-2.76641845703125,-0.657958984375,1.0,1.0,1.0,1.0,1.0,20.0,
2023-09-09 22:06:14.085,0.36681452,-0.097978,-0.05755541,-0.343152,0.60072774,0.0052437535,-0.07696147,0.0254952,0.7163346,0.0098964935,0.21632552,0.38264942,0.6969504,0.35977384,0.094040275,0.4449277,0.20904969,-0.05693408,-0.14428876,0.002962326,754.2857,810.293,804.65204,789.34064,713.9927,0.45745849609375,0.200927734375,0.856201171875,4.448699951171875,-1.80938720703125,-0.94207763671875,1.0,1.0,1.0,1.0,1.0,20.0,
2023-09-09 22:06:14.088,0.35257763,-0.13817981,-0.05286593,-0.2688675,0.58032817,-0.0036343622,-0.044494238,-0.0015161798,0.73549306,0.024207205,0.16897985,0.34216833,0.68975586,0.36393377,0.07308948,0.45932382,0.21514226,-0.057258774,-0.12485584,0.016024495,766.3736,813.1135,798.20514,794.17584,806.6667,0.45745849609375,0.200927734375,0.856201171875,4.448699951171875,-1.80938720703125,-0.94207763671875,1.0,1.0,1.0,1.0,1.0,20.0,
2023-09-09 22:06:14.103,0.35257763,-0.13817981,-0.05286593,-0.2688675,0.58032817,-0.0036343622,-0.044494238,-0.0015161798,0.73549306,0.024207205,0.16897985,0.34216833,0.68975586,0.36393377,0.07308948,0.45932382,0.21514226,-0.057258774,-0.12485584,0.016024495,777.25275,813.5165,803.0403,810.696,825.6044,0.4564208984375,0.19293212890625,0.85675048828125,4.38140869140625,-1.614990234375,-0.785064697265625,1.0,1.0,1.0,1.0,1.0,20.0,
2023-09-09 22:06:14.149,0.35257763,-0.13817981,-0.05286593,-0.2688675,0.58032817,-0.0036343622,-0.044494238,-0.0015161798,0.73549306,0.024207205,0.16897985,0.34216833,0.68975586,0.36393377,0.07308948,0.45932382,0.21514226,-0.057258774,-0.12485584,0.016024495,777.6557,803.44324,802.6374,803.8461,888.46155,0.44873046875,0.1944580078125,0.8555908203125,5.0244140625,-2.400054931640625,-0.545806884765625,1.0,1.0,1.0,1.0,1.0,20.0,
2023-09-09 22:06:14.152,0.35222673,-0.19600642,-0.055322114,-0.15249889,0.5530422,-0.029835893,-0.019782346,-0.035187613,0.75030845,0.019447835,0.14821398,0.36587057,0.67779815,0.36556417,0.057257548,0.47483164,0.21427645,-0.05697339,-0.11376623,0.024077538,774.0293,806.6667,796.1905,803.0403,1197.9121,0.44873046875,0.1944580078125,0.8555908203125,5.0244140625,-2.400054931640625,-0.545806884765625,1.0,1.0,1.0,1.0,1.0,20.0,
2023-09-09 22:06:14.207,0.35222673,-0.19600642,-0.055322114,-0.15249889,0.5530422,-0.029835893,-0.019782346,-0.035187613,0.75030845,0.019447835,0.14821398,0.36587057,0.67779815,0.36556417,0.057257548,0.47483164,0.21427645,-0.05697339,-0.11376623,0.024077538,780.07324,803.0403,799.41394,806.26373,797.3993,0.45196533203125,0.2008056640625,0.8521728515625,4.74029541015625,-2.983245849609375,-0.291595458984375,1.0,1.0,1.0,1.0,1.0,20.0,
2023-09-09 22:06:14.241,0.35221395,-0.26426813,-0.061514247,-0.041637875,0.5201881,-0.073377766,-0.013409907,-0.070363596,0.7973472,0.0044974564,0.15419598,0.41951174,0.66527706,0.36408642,0.049083523,0.49061194,0.20603256,-0.06214542,-0.10706959,0.024209475,780.4762,796.5934,786.1172,796.1905,891.28204,0.45196533203125,0.2008056640625,0.8521728515625,4.74029541015625,-2.983245849609375,-0.291595458984375,1.0,1.0,1.0,1.0,1.0,20.0,
2023-09-09 22:06:14.274,0.35221395,-0.26426813,-0.061514247,-0.041637875,0.5201881,-0.073377766,-0.013409907,-0.070363596,0.7973472,0.0044974564,0.15419598,0.41951174,0.66527706,0.36408642,0.049083523,0.49061194,0.20603256,-0.06214542,-0.10706959,0.024209475,764.7619,803.8461,788.5348,790.14655,809.4872,0.4586181640625,0.198974609375,0.856201171875,4.366455078125,-3.06549072265625,-0.620574951171875,1.0,1.0,1.0,1.0,1.0,20.0,
2023-09-09 22:06:14.373,0.35221395,-0.26426813,-0.061514247,-0.041637875,0.5201881,-0.073377766,-0.013409907,-0.070363596,0.7973472,0.0044974564,0.15419598,0.41951174,0.66527706,0.36408642,0.049083523,0.49061194,0.20603256,-0.06214542,-0.10706959,0.024209475,783.2967,817.1429,803.8461,799.41394,796.99634,0.460205078125,0.19744873046875,0.8536376953125,4.42626953125,-2.056121826171875,-0.964508056640625,1.0,1.0,1.0,1.0,1.0,20.0,
2023-09-09 22:06:14.379,0.33903533,-0.3123938,-0.069157965,0.035892066,0.47841984,-0.1270758,-0.024025328,-0.10524758,0.82663864,-0.009321401,0.1378595,0.43112203,0.65843433,0.3587415,0.048723828,0.5071914,0.19045676,-0.07576617,-0.10231175,0.01776599,767.5824,798.20514,792.1612,779.2674,813.91943,0.460205078125,0.19744873046875,0.8536376953125,4.42626953125,-2.056121826171875,-0.964508056640625,1.0,1.0,1.0,1.0,1.0,20.0,
2023-09-09 22:06:14.415,0.33903533,-0.3123938,-0.069157965,0.035892066,0.47841984,-0.1270758,-0.024025328,-0.10524758,0.82663864,-0.009321401,0.1378595,0.43112203,0.65843433,0.3587415,0.048723828,0.5071914,0.19045676,-0.07576617,-0.10231175,0.01776599,779.67035,809.89014,768.7912,789.7436,839.707,0.45733642578125,0.1954345703125,0.8529052734375,4.26177978515625,-1.831817626953125,-0.859832763671875,1.0,1.0,1.0,1.0,1.0,20.0,
2023-09-09 22:06:14.424,0.33903533,-0.3123938,-0.069157965,0.035892066,0.47841984,-0.1270758,-0.024025328,-0.10524758,0.82663864,-0.009321401,0.1378595,0.43112203,0.65843433,0.3587415,0.048723828,0.5071914,0.19045676,-0.07576617,-0.10231175,0.01776599,775.2381,805.4579,788.93774,784.90845,772.8205,0.4466552734375,0.1990966796875,0.85418701171875,4.50103759765625,-1.8243408203125,-0.82244873046875,1.0,1.0,1.0,1.0,1.0,20.0,
2023-09-09 22:06:14.432,0.312149,-0.30228788,-0.06156664,0.098147556,0.424397,-0.17796102,-0.037922572,-0.14027081,0.83465207,0.016460065,0.1378595,0.43112203,0.65977365,0.3497457,0.055919357,0.5232665,0.16921021,-0.09545529,-0.09793534,0.008099498,766.3736,807.8755,792.5641,790.9524,824.3956,0.4466552734375,0.1990966796875,0.85418701171875,4.50103759765625,-1.8243408203125,-0.82244873046875,1.0,1.0,1.0,1.0,1.0,20.0,
2023-09-09 22:06:14.552,0.312149,-0.30228788,-0.06156664,0.098147556,0.424397,-0.17796102,-0.037922572,-0.14027081,0.83465207,0.016460065,0.1378595,0.43112203,0.65977365,0.3497457,0.055919357,0.5232665,0.16921021,-0.09545529,-0.09793534,0.008099498,787.326,813.1135,787.326,794.9817,817.9487,0.45025634765625,0.19610595703125,0.85589599609375,4.56085205078125,-2.25799560546875,-1.09161376953125,1.0,1.0,1.0,1.0,1.0,20.0,
2023-09-09 22:06:14.608,0.312149,-0.30228788,-0.06156664,0.098147556,0.424397,-0.17796102,-0.037922572,-0.14027081,0.83465207,0.016460065,0.1378595,0.43112203,0.65977365,0.3497457,0.055919357,0.5232665,0.16921021,-0.09545529,-0.09793534,0.008099498,792.5641,815.9341,794.17584,784.5055,815.12823,0.452880859375,0.195068359375,0.85760498046875,4.658050537109375,-2.534637451171875,-0.919647216796875,1.0,1.0,1.0,1.0,1.0,20.0,
2023-09-09 22:06:14.609,0.28705922,-0.25788125,-0.023368265,0.1590506,0.36179247,-0.21402839,-0.038275935,-0.16511407,0.82872313,0.07725974,0.13624153,0.4301636,0.66655093,0.33861217,0.071878634,0.5366241,0.14756925,-0.11613928,-0.09158339,-0.0008740945,799.011,813.5165,795.78754,788.1319,810.293,0.452880859375,0.195068359375,0.85760498046875,4.658050537109375,-2.534637451171875,-0.919647216796875,1.0,1.0,1.0,1.0,1.0,20.0,
2023-09-09 22:06:14.622,0.28705922,-0.25788125,-0.023368265,0.1590506,0.36179247,-0.21402839,-0.038275935,-0.16511407,0.82872313,0.07725974,0.13624153,0.4301636,0.66655093,0.33861217,0.071878634,0.5366241,0.14756925,-0.11613928,-0.09158339,-0.0008740945,776.8498,805.05493,801.4286,791.3553,990.80585,0.44964599609375,0.1942138671875,0.8603515625,4.329071044921875,-2.8411865234375,-0.8074951171875,1.0,1.0,1.0,1.0,1.0,20.0,
2023-09-09 22:06:14.676,0.28705922,-0.25788125,-0.023368265,0.1590506,0.36179247,-0.21402839,-0.038275935,-0.16511407,0.82872313,0.07725974,0.13624153,0.4301636,0.66655093,0.33861217,0.071878634,0.5366241,0.14756925,-0.11613928,-0.09158339,-0.0008740945,778.46155,799.81683,789.34064,786.52014,907.3993,0.45135498046875,0.1973876953125,0.85595703125,4.5458984375,-2.145843505859375,-0.6878662109375,1.0,1.0,1.0,1.0,1.0,20.0,
2023-09-09 22:06:14.679,0.2678543,-0.2042838,0.036263987,0.21899891,0.30607283,-0.23107572,-0.014261422,-0.16113369,0.8112526,0.106775515,0.13722332,0.39769077,0.673476,0.32575503,0.09642963,0.5472534,0.13246243,-0.13299939,-0.080246985,-0.0070055206,772.8205,802.6374,796.99634,782.8938,922.71063,0.45135498046875,0.1973876953125,0.85595703125,4.5458984375,-2.145843505859375,-0.6878662109375,1.0,1.0,1.0,1.0,1.0,20.0,
2023-09-09 22:06:14.710,0.2678543,-0.2042838,0.036263987,0.21899891,0.30607283,-0.23107572,-0.014261422,-0.16113369,0.8112526,0.106775515,0.13722332,0.39769077,0.673476,0.32575503,0.09642963,0.5472534,0.13246243,-0.13299939,-0.080246985,-0.0070055206,775.64105,809.0842,795.78754,795.78754,804.2491,0.452880859375,0.20062255859375,0.855712890625,4.583282470703125,-2.684173583984375,-0.897216796875,1.0,1.0,1.0,1.0,1.0,20.0,
2023-09-09 22:06:14.752,0.26278555,-0.1605784,0.10891791,0.26541343,0.27540657,-0.23128405,0.026208498,-0.12837274,0.789454,0.112265036,0.22866338,0.37507242,0.676747,0.30978093,0.12339474,0.558171,0.12815472,-0.14327289,-0.064278096,-0.012022065,771.6117,788.93774,786.9231,781.685,837.28937,0.452880859375,0.20062255859375,0.855712890625,4.583282470703125,-2.684173583984375,-0.897216796875,1.0,1.0,1.0,1.0,1.0,20.0,
2023-09-09 22:06:14.848,0.26278555,-0.1605784,0.10891791,0.26541343,0.27540657,-0.23128405,0.026208498,-0.12837274,0.789454,0.112265036,0.22866338,0.37507242,0.676747,0.30978093,0.12339474,0.558171,0.12815472,-0.14327289,-0.064278096,-0.012022065,770.80585,782.0879,788.93774,779.2674,826.4103,0.4534912109375,0.19793701171875,0.85552978515625,4.299163818359375,-3.177642822265625,-0.680389404296875,1.0,1.0,1.0,1.0,1.0,20.0,
2023-09-09 22:06:14.897,0.26278555,-0.1605784,0.10891791,0.26541343,0.27540657,-0.23128405,0.026208498,-0.12837274,0.789454,0.112265036,0.22866338,0.37507242,0.676747,0.30978093,0.12339474,0.558171,0.12815472,-0.14327289,-0.064278096,-0.012022065,766.3736,799.011,797.3993,792.5641,720.84247,0.449951171875,0.1962890625,0.85955810546875,4.68048095703125,-2.818756103515625,-0.680389404296875,1.0,1.0,1.0,1.0,1.0,20.0,
2023-09-09 22:06:14.903,0.26418316,-0.117172465,0.17844483,0.2948695,0.27875248,-0.21607493,0.06535752,-0.08982943,0.789454,0.11394107,0.2903834,0.35731408,0.6762369,0.29166728,0.1427656,0.57293546,0.1332996,-0.14698121,-0.047507215,-0.019022582,782.49084,811.50183,808.2784,810.293,814.3223,0.449951171875,0.1962890625,0.85955810546875,4.68048095703125,-2.818756103515625,-0.680389404296875,1.0,1.0,1.0,1.0,1.0,20.0,
2023-09-09 22:06:14.912,0.26418316,-0.117172465,0.17844483,0.2948695,0.27875248,-0.21607493,0.06535752,-0.08982943,0.789454,0.11394107,0.2903834,0.35731408,0.6762369,0.29166728,0.1427656,0.57293546,0.1332996,-0.14698121,-0.047507215,-0.019022582,784.90845,807.0696,794.57874,809.89014,870.7326,0.4461669921875,0.19659423828125,0.859375,4.523468017578125,-3.12530517578125,-0.471038818359375,1.0,1.0,1.0,1.0,1.0,20.0,
2023-09-09 22:06:14.953,0.26418316,-0.117172465,0.17844483,0.2948695,0.27875248,-0.21607493,0.06535752,-0.08982943,0.789454,0.11394107,0.2903834,0.35731408,0.6762369,0.29166728,0.1427656,0.57293546,0.1332996,-0.14698121,-0.047507215,-0.019022582,778.86444,799.81683,796.1905,797.8022,954.94507,0.45184326171875,0.199462890625,0.85504150390625,4.762725830078125,-3.506622314453125,-0.6280517578125,1.0,1.0,1.0,1.0,1.0,20.0,
2023-09-09 22:06:14.960,0.26554742,-0.018258419,0.23556648,0.31287718,0.30915123,-0.17064683,0.090504386,-0.056084868,0.78642106,0.1545478,0.29471236,0.34909043,0.67444175,0.27854073,0.14793573,0.5905965,0.14263763,-0.1474055,-0.032810688,-0.027960623,779.67035,809.4872,801.8315,807.8755,1037.5458,0.45184326171875,0.199462890625,0.85504150390625,4.762725830078125,-3.506622314453125,-0.6280517578125,1.0,1.0,1.0,1.0,1.0,20.0,
2023-09-09 22:06:15.032,0.26554742,-0.018258419,0.23556648,0.31287718,0.30915123,-0.17064683,0.090504386,-0.056084868,0.78642106,0.1545478,0.29471236,0.34909043,0.67444175,0.27854073,0.14793573,0.5905965,0.14263763,-0.1474055,-0.032810688,-0.027960623,780.4762,797.3993,802.6374,797.3993,888.0586,0.45965576171875,0.202392578125,0.85260009765625,4.8150634765625,-3.7982177734375,-0.560760498046875,1.0,1.0,1.0,1.0,1.0,20.0,
2023-09-09 22:06:15.041,0.2615495,0.14180604,0.27337426,0.32974952,0.3480508,-0.08610794,0.10265209,-0.010397819,0.7843311,0.26200196,0.29471236,0.36053604,0.67336094,0.2780302,0.13987403,0.60600793,0.1495756,-0.14698645,-0.02033376,-0.03409554,775.64105,808.2784,796.5934,800.2198,793.7729,0.45965576171875,0.202392578125,0.85260009765625,4.8150634765625,-3.7982177734375,-0.560760498046875,1.0,1.0,1.0,1.0,1.0,20.0,
2023-09-09 22:06:15.094,0.2615495,0.14180604,0.27337426,0.32974952,0.3480508,-0.08610794,0.10265209,-0.010397819,0.7843311,0.26200196,0.29471236,0.36053604,0.67336094,0.2780302,0.13987403,0.60600793,0.1495756,-0.14698645,-0.02033376,-0.03409554,782.0879,809.4872,795.38464,796.1905,801.02563,0.46051025390625,0.19793701171875,0.8531494140625,4.762725830078125,-3.21502685546875,-0.605621337890625,1.0,1.0,1.0,1.0,1.0,20.0,
2023-09-09 22:06:15.134,0.2615495,0.14180604,0.27337426,0.32974952,0.3480508,-0.08610794,0.10265209,-0.010397819,0.7843311,0.26200196,0.29471236,0.36053604,0.67336094,0.2780302,0.13987403,0.60600793,0.1495756,-0.14698645,-0.02033376,-0.03409554,774.0293,800.2198,797.8022,786.1172,759.5238,0.4591064453125,0.196044921875,0.8553466796875,4.8150634765625,-2.056121826171875,-1.07666015625,1.0,1.0,1.0,1.0,1.0,20.0,
2023-09-09 22:06:15.187,0.2615495,0.14180604,0.27337426,0.32974952,0.3480508,-0.08610794,0.10265209,-0.010397819,0.7843311,0.26200196,0.29471236,0.36053604,0.67336094,0.2780302,0.13987403,0.60600793,0.1495756,-0.14698645,-0.02033376,-0.03409554,772.8205,799.41394,792.1612,800.2198,818.7546,0.4566650390625,0.196533203125,0.85357666015625,4.598236083984375,-2.16827392578125,-0.61309814453125,1.0,1.0,1.0,1.0,1.0,20.0,
2023-09-09 22:06:15.188,0.25199604,0.3044763,0.29466566,0.35795328,0.3791189,0.014197242,0.11018923,0.062395543,0.7819959,0.35765347,0.29471236,0.3937677,0.67216873,0.28765976,0.12638548,0.61395454,0.14675735,-0.1461532,-0.009895009,-0.03459573,779.67035,811.50183,797.3993,802.6374,977.1062,0.4566650390625,0.196533203125,0.85357666015625,4.598236083984375,-2.16827392578125,-0.61309814453125,1.0,1.0,1.0,1.0,1.0,20.0,
2023-09-09 22:06:15.227,0.25199604,0.3044763,0.29466566,0.35795328,0.3791189,0.014197242,0.11018923,0.062395543,0.7819959,0.35765347,0.29471236,0.3937677,0.67216873,0.28765976,0.12638548,0.61395454,0.14675735,-0.1461532,-0.009895009,-0.03459573,774.83514,816.337,798.60803,794.57874,840.5128,0.45098876953125,0.1942138671875,0.85333251953125,4.493560791015625,-2.1234130859375,-0.441131591796875,1.0,1.0,1.0,1.0,1.0,20.0,
2023-09-09 22:06:15.280,0.23753011,0.43306714,0.30767092,0.4012732,0.3978166,0.09658769,0.11930811,0.14474003,0.77583337,0.3839773,0.29471236,0.40977967,0.6676352,0.29769954,0.11561435,0.61204445,0.13064101,-0.14759739,-0.0040056105,-0.032616,782.0879,817.5458,798.20514,800.2198,765.9707,0.45098876953125,0.1942138671875,0.85333251953125,4.493560791015625,-2.1234130859375,-0.441131591796875,1.0,1.0,1.0,1.0,1.0,20.0,
2023-09-09 22:06:15.324,0.23753011,0.43306714,0.30767092,0.4012732,0.3978166,0.09658769,0.11930811,0.14474003,0.77583337,0.3839773,0.29471236,0.40977967,0.6676352,0.29769954,0.11561435,0.61204445,0.13064101,-0.14759739,-0.0040056105,-0.032616,786.52014,811.50183,799.41394,805.8608,830.0366,0.453125,0.1966552734375,0.8541259765625,4.38140869140625,-3.252410888671875,-0.620574951171875,1.0,1.0,1.0,1.0,1.0,20.0,
2023-09-09 22:06:15.378,0.23753011,0.43306714,0.30767092,0.4012732,0.3978166,0.09658769,0.11930811,0.14474003,0.77583337,0.3839773,0.29471236,0.40977967,0.6676352,0.29769954,0.11561435,0.61204445,0.13064101,-0.14759739,-0.0040056105,-0.032616,773.6264,805.4579,791.3553,805.8608,828.022,0.4576416015625,0.1962890625,0.8519287109375,4.777679443359375,-3.222503662109375,-0.665435791015625,1.0,1.0,1.0,1.0,1.0,20.0,
2023-09-09 22:06:15.382,0.22463146,0.5154325,0.31743187,0.44161293,0.40571538,0.14577325,0.12843184,0.20805892,0.7661669,0.38936862,0.29471236,0.40977967,0.6594684,0.30022487,0.11139149,0.6016258,0.10403314,-0.15737359,-0.004226292,-0.03588926,770.0,807.0696,797.8022,801.8315,902.96704,0.4576416015625,0.1962890625,0.8519287109375,4.777679443359375,-3.222503662109375,-0.665435791015625,1.0,1.0,1.0,1.0,1.0,20.0,
2023-09-09 22:06:15.423,0.22463146,0.5154325,0.31743187,0.44161293,0.40571538,0.14577325,0.12843184,0.20805892,0.7661669,0.38936862,0.29471236,0.40977967,0.6594684,0.30022487,0.11139149,0.6016258,0.10403314,-0.15737359,-0.004226292,-0.03588926,766.77655,810.696,790.54944,790.9524,821.978,0.4608154296875,0.1982421875,0.8526611328125,4.732818603515625,-2.803802490234375,-0.7476806640625,1.0,1.0,1.0,1.0,1.0,20.0,
2023-09-09 22:06:15.453,0.22463146,0.5154325,0.31743187,0.44161293,0.40571538,0.14577325,0.12843184,0.20805892,0.7661669,0.38936862,0.29471236,0.40977967,0.6594684,0.30022487,0.11139149,0.6016258,0.10403314,-0.15737359,-0.004226292,-0.03588926,788.93774,818.7546,805.4579,812.3077,857.03296,0.45361328125,0.19970703125,0.85302734375,4.77020263671875,-2.10845947265625,-0.538330078125,1.0,1.0,1.0,1.0,1.0,20.0,
2023-09-09 22:06:15.457,0.21500531,0.55771893,0.32274833,0.45894212,0.40478304,0.16636808,0.13254613,0.24123992,0.7559741,0.40227154,0.29471236,0.40977967,0.6502185,0.29418674,0.113465644,0.5861875,0.07431197,-0.17711271,-0.007176745,-0.046145223,789.7436,819.9634,798.60803,817.5458,1170.9158,0.45361328125,0.19970703125,0.85302734375,4.77020263671875,-2.10845947265625,-0.538330078125,1.0,1.0,1.0,1.0,1.0,20.0,
2023-09-09 22:06:15.519,0.21500531,0.55771893,0.32274833,0.45894212,0.40478304,0.16636808,0.13254613,0.24123992,0.7559741,0.40227154,0.29471236,0.40977967,0.6502185,0.29418674,0.113465644,0.5861875,0.07431197,-0.17711271,-0.007176745,-0.046145223,793.36993,814.3223,799.81683,805.05493,842.52747,0.45623779296875,0.19873046875,0.857177734375,4.598236083984375,-3.013153076171875,-0.800018310546875,1.0,1.0,1.0,1.0,1.0,20.0,
2023-09-09 22:06:15.556,0.2051379,0.57263494,0.3240435,0.4482195,0.39525437,0.17342176,0.12736748,0.25208515,0.75456285,0.42217523,0.29471236,0.40977967,0.6421811,0.28183022,0.119363874,0.5692531,0.049723882,-0.19889167,-0.006015195,-0.056604672,779.2674,808.2784,807.8755,803.8461,925.9341,0.45623779296875,0.19873046875,0.857177734375,4.598236083984375,-3.013153076171875,-0.800018310546875,1.0,1.0,1.0,1.0,1.0,20.0,
2023-09-09 22:06:15.609,0.2051379,0.57263494,0.3240435,0.4482195,0.39525437,0.17342176,0.12736748,0.25208515,0.75456285,0.42217523,0.29471236,0.40977967,0.6421811,0.28183022,0.119363874,0.5692531,0.049723882,-0.19889167,-0.006015195,-0.056604672,786.52014,807.47253,802.23444,806.26373,818.3516,0.46075439453125,0.20123291015625,0.8529052734375,4.6356201171875,-2.923431396484375,-0.829925537109375,1.0,1.0,1.0,1.0,1.0,20.0,
2023-09-09 22:06:15.640,0.2051379,0.57263494,0.3240435,0.4482195,0.39525437,0.17342176,0.12736748,0.25208515,0.75456285,0.42217523,0.29471236,0.40977967,0.6421811,0.28183022,0.119363874,0.5692531,0.049723882,-0.19889167,-0.006015195,-0.056604672,761.9414,815.12823,805.8608,805.05493,761.13556,0.4541015625,0.19573974609375,0.85308837890625,4.42626953125,-2.31781005859375,-0.829925537109375,1.0,1.0,1.0,1.0,1.0,20.0,
2023-09-09 22:06:15.646,0.19411238,0.5794769,0.32433447,0.41912353,0.38090733,0.18008211,0.11479395,0.2554276,0.7671279,0.4272074,0.29326698,0.4650632,0.63408893,0.26526138,0.12575765,0.55370396,0.03552983,-0.20942205,0.0006646978,-0.05875508,759.92676,799.011,801.02563,796.99634,805.4579,0.4541015625,0.19573974609375,0.85308837890625,4.42626953125,-2.31781005859375,-0.829925537109375,1.0,1.0,1.0,1.0,1.0,20.0,
2023-09-09 22:06:15.739,0.19411238,0.5794769,0.32433447,0.41912353,0.38090733,0.18008211,0.11479395,0.2554276,0.7671279,0.4272074,0.29326698,0.4650632,0.63408893,0.26526138,0.12575765,0.55370396,0.03552983,-0.20942205,0.0006646978,-0.05875508,763.1502,802.23444,798.20514,793.36993,908.20514,0.45458984375,0.19873046875,0.850341796875,4.6356201171875,-2.250518798828125,-0.5084228515625,1.0,1.0,1.0,1.0,1.0,20.0,
2023-09-09 22:06:15.749,0.19411238,0.5794769,0.32433447,0.41912353,0.38090733,0.18008211,0.11479395,0.2554276,0.7671279,0.4272074,0.29326698,0.4650632,0.63408893,0.26526138,0.12575765,0.55370396,0.03552983,-0.20942205,0.0006646978,-0.05875508,758.71796,792.5641,801.02563,792.5641,851.79486,0.4527587890625,0.19781494140625,0.8515625,5.106658935546875,-3.0804443359375,-0.396270751953125,1.0,1.0,1.0,1.0,1.0,20.0,
2023-09-09 22:06:15.788,0.2108794,0.59046274,0.32855344,0.38155478,0.3670348,0.18811834,0.102292284,0.25950527,0.78553754,0.43205282,0.2777842,0.57645965,0.62382317,0.24711913,0.12904926,0.54066646,0.033900496,-0.20095688,0.008273045,-0.05208813,761.9414,796.99634,794.9817,797.3993,823.1868,0.4527587890625,0.19781494140625,0.8515625,5.106658935546875,-3.0804443359375,-0.396270751953125,1.0,1.0,1.0,1.0,1.0,20.0,
2023-09-09 22:06:15.828,0.2108794,0.59046274,0.32855344,0.38155478,0.3670348,0.18811834,0.102292284,0.25950527,0.78553754,0.43205282,0.2777842,0.57645965,0.62382317,0.24711913,0.12904926,0.54066646,0.033900496,-0.20095688,0.008273045,-0.05208813,771.6117,805.4579,793.36993,788.1319,790.14655,0.4609375,0.20208740234375,0.851318359375,4.777679443359375,-3.72344970703125,-0.396270751953125,1.0,1.0,1.0,1.0,1.0,20.0,
2023-09-09 22:06:15.914,0.2108794,0.59046274,0.32855344,0.38155478,0.3670348,0.18811834,0.102292284,0.25950527,0.78553754,0.43205282,0.2777842,0.57645965,0.62382317,0.24711913,0.12904926,0.54066646,0.033900496,-0.20095688,0.008273045,-0.05208813,762.74725,802.6374,794.9817,791.75824,756.30035,0.46221923828125,0.20184326171875,0.850830078125,4.71038818359375,-3.1402587890625,-0.79254150390625,1.0,1.0,1.0,1.0,1.0,20.0,
2023-09-09 22:06:15.917,0.29058912,0.60845864,0.33603442,0.3516295,0.36043337,0.19767727,0.09799072,0.26347613,0.7984694,0.43205282,0.25445345,0.6868813,0.61271405,0.2318237,0.12670653,0.52940214,0.044872947,-0.17724554,0.012238368,-0.044667058,779.2674,814.7253,806.6667,795.38464,845.34796,0.46221923828125,0.20184326171875,0.850830078125,4.71038818359375,-3.1402587890625,-0.79254150390625,1.0,1.0,1.0,1.0,1.0,20.0,
2023-09-09 22:06:15.955,0.29058912,0.60845864,0.33603442,0.3516295,0.36043337,0.19767727,0.09799072,0.26347613,0.7984694,0.43205282,0.25445345,0.6868813,0.61271405,0.2318237,0.12670653,0.52940214,0.044872947,-0.17724554,0.012238368,-0.044667058,775.64105,805.4579,788.5348,794.9817,824.3956,0.4632568359375,0.20404052734375,0.8544921875,4.538421630859375,-2.46734619140625,-0.52337646484375,1.0,1.0,1.0,1.0,1.0,20.0,
2023-09-09 22:06:16.011,0.29058912,0.60845864,0.33603442,0.3516295,0.36043337,0.19767727,0.09799072,0.26347613,0.7984694,0.43205282,0.25445345,0.6868813,0.61271405,0.2318237,0.12670653,0.52940214,0.044872947,-0.17724554,0.012238368,-0.044667058,778.46155,817.1429,792.96704,808.2784,774.0293,0.45172119140625,0.1993408203125,0.8472900390625,4.0972900390625,-1.854248046875,-0.216827392578125,1.0,1.0,1.0,1.0,1.0,20.0,
2023-09-09 22:06:16.015,0.4236879,0.63247794,0.34317455,0.3295745,0.36423612,0.21230595,0.10380784,0.2635396,0.8123285,0.43205282,0.25231308,0.72764254,0.60545385,0.22378767,0.11764715,0.5195463,0.066384256,-0.14795,0.012780269,-0.04193822,774.43225,809.0842,792.5641,803.44324,913.8461,0.45172119140625,0.1993408203125,0.8472900390625,4.0972900390625,-1.854248046875,-0.216827392578125,1.0,1.0,1.0,1.0,1.0,20.0,
2023-09-09 22:06:16.077,0.4236879,0.63247794,0.34317455,0.3295745,0.36423612,0.21230595,0.10380784,0.2635396,0.8123285,0.43205282,0.25231308,0.72764254,0.60545385,0.22378767,0.11764715,0.5195463,0.066384256,-0.14795,0.012780269,-0.04193822,784.10254,807.0696,792.1612,791.75824,866.30035,0.45257568359375,0.199951171875,0.855712890625,4.59075927734375,-2.452392578125,-1.054229736328125,1.0,1.0,1.0,1.0,1.0,20.0,
2023-09-09 22:06:16.100,0.55796367,0.66509163,0.3455116,0.30861428,0.37832838,0.23631802,0.11274858,0.2560044,0.79883826,0.43205282,0.25502437,0.7314924,0.60364085,0.22394352,0.10256666,0.51141673,0.09267738,-0.121855155,0.01147859,-0.041618478,770.40295,812.71063,798.20514,800.2198,824.7985,0.45257568359375,0.199951171875,0.855712890625,4.59075927734375,-2.452392578125,-1.054229736328125,1.0,1.0,1.0,1.0,1.0,20.0,
2023-09-09 22:06:16.153,0.55796367,0.66509163,0.3455116,0.30861428,0.37832838,0.23631802,0.11274858,0.2560044,0.79883826,0.43205282,0.25502437,0.7314924,0.60364085,0.22394352,0.10256666,0.51141673,0.09267738,-0.121855155,0.01147859,-0.041618478,782.49084,810.293,792.1612,792.1612,880.40295,0.45758056640625,0.19659423828125,0.85125732421875,4.56085205078125,-3.043060302734375,-0.530853271484375,1.0,1.0,1.0,1.0,1.0,20.0,
2023-09-09 22:06:16.236,0.55796367,0.66509163,0.3455116,0.30861428,0.37832838,0.23631802,0.11274858,0.2560044,0.79883826,0.43205282,0.25502437,0.7314924,0.60364085,0.22394352,0.10256666,0.51141673,0.09267738,-0.121855155,0.01147859,-0.041618478,770.80585,823.9927,794.57874,816.337,820.7692,0.460693359375,0.19879150390625,0.85296630859375,4.6954345703125,-2.7215576171875,-0.740203857421875,1.0,1.0,1.0,1.0,1.0,20.0,
2023-09-09 22:06:16.244,0.6623502,0.7029666,0.34012067,0.2817332,0.39994237,0.26632652,0.11677383,0.23939654,0.78635806,0.42902815,0.28655347,0.7314924,0.60224545,0.2292807,0.08566297,0.5035356,0.11568312,-0.10546285,0.0076493733,-0.037782922,765.9707,812.3077,796.1905,788.5348,809.89014,0.460693359375,0.19879150390625,0.85296630859375,4.6954345703125,-2.7215576171875,-0.740203857421875,1.0,1.0,1.0,1.0,1.0,20.0,
2023-09-09 22:06:16.252,0.6623502,0.7029666,0.34012067,0.2817332,0.39994237,0.26632652,0.11677383,0.23939654,0.78635806,0.42902815,0.28655347,0.7314924,0.60224545,0.2292807,0.08566297,0.5035356,0.11568312,-0.10546285,0.0076493733,-0.037782922,773.22345,818.3516,801.4286,794.57874,862.27106,0.4581298828125,0.19580078125,0.85443115234375,4.478607177734375,-2.893524169921875,-1.009368896484375,1.0,1.0,1.0,1.0,1.0,20.0,
2023-09-09 22:06:16.294,0.6623502,0.7029666,0.34012067,0.2817332,0.39994237,0.26632652,0.11677383,0.23939654,0.78635806,0.42902815,0.28655347,0.7314924,0.60224545,0.2292807,0.08566297,0.5035356,0.11568312,-0.10546285,0.0076493733,-0.037782922,775.64105,824.3956,797.3993,793.36993,865.09155,0.4566650390625,0.20001220703125,0.85406494140625,4.71038818359375,-2.27294921875,-0.85235595703125,1.0,1.0,1.0,1.0,1.0,20.0,
2023-09-09 22:06:16.308,0.7224181,0.73992753,0.33028105,0.25473404,0.42150405,0.29287955,0.11527438,0.21721904,0.78010035,0.42618787,0.31044242,0.7314924,0.5933991,0.23608284,0.07594407,0.49256885,0.12884323,-0.09991393,-0.00044324243,-0.0288807,774.0293,807.8755,797.8022,801.02563,1031.9048,0.4566650390625,0.20001220703125,0.85406494140625,4.71038818359375,-2.27294921875,-0.85235595703125,1.0,1.0,1.0,1.0,1.0,20.0,
2023-09-09 22:06:16.363,0.7224181,0.73992753,0.33028105,0.25473404,0.42150405,0.29287955,0.11527438,0.21721904,0.78010035,0.42618787,0.31044242,0.7314924,0.5933991,0.23608284,0.07594407,0.49256885,0.12884323,-0.09991393,-0.00044324243,-0.0288807,791.3553,821.5751,809.89014,803.44324,740.989,0.45831298828125,0.19842529296875,0.8494873046875,4.65057373046875,-3.222503662109375,-0.418701171875,1.0,1.0,1.0,1.0,1.0,20.0,
2023-09-09 22:06:16.394,0.7224181,0.73992753,0.33028105,0.25473404,0.42150405,0.29287955,0.11527438,0.21721904,0.78010035,0.42618787,0.31044242,0.7314924,0.5933991,0.23608284,0.07594407,0.49256885,0.12884323,-0.09991393,-0.00044324243,-0.0288807,786.9231,819.5604,800.2198,807.47253,861.4652,0.45965576171875,0.20098876953125,0.85260009765625,4.762725830078125,-2.624359130859375,-0.418701171875,1.0,1.0,1.0,1.0,1.0,20.0,
2023-09-09 22:06:16.395,0.7482445,0.76602626,0.3248882,0.23377472,0.43424073,0.30759022,0.11347481,0.19794649,0.7764585,0.42618787,0.28479806,0.7314924,0.575437,0.24147385,0.08194387,0.47620213,0.130822,-0.10040239,-0.013397685,-0.016941426,792.5641,811.9048,797.8022,811.50183,932.381,0.45965576171875,0.20098876953125,0.85260009765625,4.762725830078125,-2.624359130859375,-0.418701171875,1.0,1.0,1.0,1.0,1.0,20.0,
2023-09-09 22:06:16.434,0.7482445,0.76602626,0.3248882,0.23377472,0.43424073,0.30759022,0.11347481,0.19794649,0.7764585,0.42618787,0.28479806,0.7314924,0.575437,0.24147385,0.08194387,0.47620213,0.130822,-0.10040239,-0.013397685,-0.016941426,781.685,821.1722,801.02563,808.2784,915.8608,0.458984375,0.20098876953125,0.85369873046875,4.613189697265625,-2.13836669921875,-0.7476806640625,1.0,1.0,1.0,1.0,1.0,20.0,
2023-09-09 22:06:16.524,0.7482445,0.76602626,0.3248882,0.23377472,0.43424073,0.30759022,0.11347481,0.19794649,0.7764585,0.42618787,0.28479806,0.7314924,0.575437,0.24147385,0.08194387,0.47620213,0.130822,-0.10040239,-0.013397685,-0.016941426,785.7143,800.6227,792.96704,799.011,845.34796,0.45263671875,0.19879150390625,0.8515625,4.284210205078125,-2.115936279296875,-0.70281982421875,1.0,1.0,1.0,1.0,1.0,20.0,
2023-09-09 22:06:16.526,0.7525894,0.76959026,0.3226014,0.22012469,0.43587923,0.30236393,0.114668906,0.18632226,0.7764404,0.42618787,0.2720954,0.7314924,0.5558232,0.24069868,0.10165516,0.45630974,0.12752865,-0.09921692,-0.031558152,-0.0024668064,772.01465,807.47253,787.72894,799.41394,859.0476,0.45263671875,0.19879150390625,0.8515625,4.284210205078125,-2.115936279296875,-0.70281982421875,1.0,1.0,1.0,1.0,1.0,20.0,
2023-09-09 22:06:16.561,0.7525894,0.76959026,0.3226014,0.22012469,0.43587923,0.30236393,0.114668906,0.18632226,0.7764404,0.42618787,0.2720954,0.7314924,0.5558232,0.24069868,0.10165516,0.45630974,0.12752865,-0.09921692,-0.031558152,-0.0024668064,789.34064,806.26373,794.57874,805.8608,859.85345,0.4581298828125,0.1995849609375,0.85089111328125,4.56085205078125,-2.79632568359375,-0.740203857421875,1.0,1.0,1.0,1.0,1.0,20.0,
2023-09-09 22:06:16.595,0.7508414,0.74860543,0.32189193,0.21278541,0.43488657,0.2730159,0.117152944,0.17182596,0.7723812,0.42618787,0.28240952,0.7314924,0.54743874,0.23030277,0.12448874,0.43723506,0.12762836,-0.09290842,-0.055934623,0.014444726,774.0293,819.5604,811.9048,809.0842,936.8132,0.4581298828125,0.1995849609375,0.85089111328125,4.56085205078125,-2.79632568359375,-0.740203857421875,1.0,1.0,1.0,1.0,1.0,20.0,
2023-09-09 22:06:16.646,0.7508414,0.74860543,0.32189193,0.21278541,0.43488657,0.2730159,0.117152944,0.17182596,0.7723812,0.42618787,0.28240952,0.7314924,0.54743874,0.23030277,0.12448874,0.43723506,0.12762836,-0.09290842,-0.055934623,0.014444726,766.77655,796.99634,795.38464,782.0879,787.72894,0.4649658203125,0.2001953125,0.853515625,4.3963623046875,-2.97576904296875,-0.43365478515625,1.0,1.0,1.0,1.0,1.0,20.0,
2023-09-09 22:06:16.712,0.7508414,0.74860543,0.32189193,0.21278541,0.43488657,0.2730159,0.117152944,0.17182596,0.7723812,0.42618787,0.28240952,0.7314924,0.54743874,0.23030277,0.12448874,0.43723506,0.12762836,-0.09290842,-0.055934623,0.014444726,784.10254,817.9487,799.41394,803.8461,743.8095,0.46173095703125,0.19683837890625,0.85174560546875,4.3963623046875,-2.43743896484375,-0.785064697265625,1.0,1.0,1.0,1.0,1.0,20.0,
2023-09-09 22:06:16.718,0.749141,0.70714635,0.31757325,0.20627148,0.44713408,0.22188872,0.119056165,0.13591988,0.7745409,0.42446375,0.2896839,0.7314924,0.55835825,0.21456207,0.14111495,0.4227915,0.13429835,-0.08268608,-0.08659349,0.030775039,773.22345,809.4872,797.3993,806.26373,893.2967,0.46173095703125,0.19683837890625,0.85174560546875,4.3963623046875,-2.43743896484375,-0.785064697265625,1.0,1.0,1.0,1.0,1.0,20.0,
2023-09-09 22:06:16.763,0.749141,0.70714635,0.31757325,0.20627148,0.44713408,0.22188872,0.119056165,0.13591988,0.7745409,0.42446375,0.2896839,0.7314924,0.55835825,0.21456207,0.14111495,0.4227915,0.13429835,-0.08268608,-0.08659349,0.030775039,784.10254,821.1722,808.68134,810.293,813.91943,0.45806884765625,0.20208740234375,0.85455322265625,4.38140869140625,-1.98883056640625,-1.024322509765625,1.0,1.0,1.0,1.0,1.0,20.0,
2023-09-09 22:06:16.813,0.749141,0.70714635,0.31757325,0.20627148,0.44713408,0.22188872,0.119056165,0.13591988,0.7745409,0.42446375,0.2896839,0.7314924,0.55835825,0.21456207,0.14111495,0.4227915,0.13429835,-0.08268608,-0.08659349,0.030775039,780.4762,813.1135,806.26373,788.93774,963.4066,0.45184326171875,0.198974609375,0.85211181640625,4.11224365234375,-2.370147705078125,-0.9271240234375,1.0,1.0,1.0,1.0,1.0,20.0,
2023-09-09 22:06:16.819,0.7496403,0.6505969,0.30822775,0.1934769,0.4758944,0.16249868,0.12517098,0.07548905,0.7745409,0.37557575,0.29431918,0.7233386,0.5849524,0.2050502,0.15060581,0.41509622,0.14435384,-0.06888405,-0.11907373,0.04215223,774.0293,801.8315,796.5934,798.60803,862.674,0.45184326171875,0.198974609375,0.85211181640625,4.11224365234375,-2.370147705078125,-0.9271240234375,1.0,1.0,1.0,1.0,1.0,20.0,
2023-09-09 22:06:16.875,0.7496403,0.6505969,0.30822775,0.1934769,0.4758944,0.16249868,0.12517098,0.07548905,0.7745409,0.37557575,0.29431918,0.7233386,0.5849524,0.2050502,0.15060581,0.41509622,0.14435384,-0.06888405,-0.11907373,0.04215223,775.2381,801.8315,802.6374,809.0842,1040.7693,0.4534912109375,0.1968994140625,0.85430908203125,4.1571044921875,-2.459869384765625,-1.03179931640625,1.0,1.0,1.0,1.0,1.0,20.0,
2023-09-09 22:06:16.882,0.75112206,0.59805703,0.30040717,0.19175881,0.50878817,0.114543654,0.14270668,0.014945279,0.7745409,0.29020765,0.30016494,0.7142738,0.6149417,0.21069212,0.1566058,0.41512793,0.15509307,-0.051750325,-0.14758672,0.0487432,793.36993,798.20514,790.9524,779.67035,877.98535,0.4534912109375,0.1968994140625,0.85430908203125,4.1571044921875,-2.459869384765625,-1.03179931640625,1.0,1.0,1.0,1.0,1.0,20.0,
2023-09-09 22:06:16.915,0.75112206,0.59805703,0.30040717,0.19175881,0.50878817,0.114543654,0.14270668,0.014945279,0.7745409,0.29020765,0.30016494,0.7142738,0.6149417,0.21069212,0.1566058,0.41512793,0.15509307,-0.051750325,-0.14758672,0.0487432,787.72894,801.4286,795.78754,783.69965,811.0989,0.45745849609375,0.19647216796875,0.8499755859375,4.306640625,-2.699127197265625,-0.59814453125,1.0,1.0,1.0,1.0,1.0,20.0,
2023-09-09 22:06:16.969,0.75112206,0.59805703,0.30040717,0.19175881,0.50878817,0.114543654,0.14270668,0.014945279,0.7745409,0.29020765,0.30016494,0.7142738,0.6149417,0.21069212,0.1566058,0.41512793,0.15509307,-0.051750325,-0.14758672,0.0487432,777.25275,807.8755,791.75824,787.326,865.89746,0.45880126953125,0.19659423828125,0.857421875,4.7552490234375,-2.452392578125,-0.82244873046875,1.0,1.0,1.0,1.0,1.0,20.0,
2023-09-09 22:06:17.047,0.75112206,0.59805703,0.30040717,0.19175881,0.50878817,0.114543654,0.14270668,0.014945279,0.7745409,0.29020765,0.30016494,0.7142738,0.6149417,0.21069212,0.1566058,0.41512793,0.15509307,-0.051750325,-0.14758672,0.0487432,772.4176,813.91943,793.7729,805.4579,901.75824,0.4564208984375,0.2001953125,0.8525390625,4.77020263671875,-1.68975830078125,-0.7476806640625,1.0,1.0,1.0,1.0,1.0,20.0,
2023-09-09 22:06:17.048,0.75351125,0.5644497,0.3022922,0.22818163,0.53268695,0.08778955,0.17146397,-0.00548614,0.7745409,0.2843153,0.30113417,0.7142738,0.6374834,0.22760029,0.16196574,0.42216608,0.16716954,-0.036745097,-0.17005976,0.054533012,773.6264,807.0696,789.34064,793.36993,743.8095,0.4564208984375,0.2001953125,0.8525390625,4.77020263671875,-1.68975830078125,-0.7476806640625,1.0,1.0,1.0,1.0,1.0,20.0,
2023-09-09 22:06:17.081,0.75351125,0.5644497,0.3022922,0.22818163,0.53268695,0.08778955,0.17146397,-0.00548614,0.7745409,0.2843153,0.30113417,0.7142738,0.6374834,0.22760029,0.16196574,0.42216608,0.16716954,-0.036745097,-0.17005976,0.054533012,780.07324,803.0403,800.2198,793.36993,734.94507,0.45849609375,0.20123291015625,0.857177734375,4.643096923828125,-2.519683837890625,-0.67291259765625,1.0,1.0,1.0,1.0,1.0,20.0,
2023-09-09 22:06:17.099,0.7581898,0.5531916,0.31440523,0.287475,0.5448269,0.07483606,0.20227571,0.02532303,0.7745409,0.2843153,0.30287352,0.7199176,0.64842665,0.24489902,0.1685019,0.43321064,0.18105562,-0.032710895,-0.19005068,0.060682766,800.2198,815.5311,814.3223,824.3956,869.12085,0.45849609375,0.20123291015625,0.857177734375,4.643096923828125,-2.519683837890625,-0.67291259765625,1.0,1.0,1.0,1.0,1.0,20.0,
2023-09-09 22:06:17.159,0.7581898,0.5531916,0.31440523,0.287475,0.5448269,0.07483606,0.20227571,0.02532303,0.7745409,0.2843153,0.30287352,0.7199176,0.64842665,0.24489902,0.1685019,0.43321064,0.18105562,-0.032710895,-0.19005068,0.060682766,798.60803,822.7839,792.96704,800.2198,875.16486,0.4586181640625,0.20086669921875,0.8497314453125,4.388885498046875,-2.4224853515625,-0.85235595703125,1.0,1.0,1.0,1.0,1.0,20.0,
2023-09-09 22:06:17.199,0.7581898,0.5531916,0.31440523,0.287475,0.5448269,0.07483606,0.20227571,0.02532303,0.7745409,0.2843153,0.30287352,0.7199176,0.64842665,0.24489902,0.1685019,0.43321064,0.18105562,-0.032710895,-0.19005068,0.060682766,779.2674,807.47253,789.34064,803.8461,825.2015,0.45465087890625,0.19696044921875,0.853271484375,4.2169189453125,-2.452392578125,-0.83740234375,1.0,1.0,1.0,1.0,1.0,20.0,
2023-09-09 22:06:17.202,0.76443756,0.5540786,0.33443308,0.34499526,0.5481728,0.064906396,0.22492221,0.07591985,0.7800891,0.28431275,0.3026336,0.744968,0.6521025,0.25762877,0.17928371,0.44593504,0.19372857,-0.04412557,-0.20847982,0.06437706,777.25275,811.9048,797.8022,797.8022,899.7436,0.45465087890625,0.19696044921875,0.853271484375,4.2169189453125,-2.452392578125,-0.83740234375,1.0,1.0,1.0,1.0,1.0,20.0,
2023-09-09 22:06:17.250,0.76443756,0.5540786,0.33443308,0.34499526,0.5481728,0.064906396,0.22492221,0.07591985,0.7800891,0.28431275,0.3026336,0.744968,0.6521025,0.25762877,0.17928371,0.44593504,0.19372857,-0.04412557,-0.20847982,0.06437706,786.52014,817.5458,798.20514,807.0696,894.5055,0.448974609375,0.19732666015625,0.855712890625,4.605712890625,-2.265472412109375,-0.67291259765625,1.0,1.0,1.0,1.0,1.0,20.0,
2023-09-09 22:06:17.333,0.76443756,0.5540786,0.33443308,0.34499526,0.5481728,0.064906396,0.22492221,0.07591985,0.7800891,0.28431275,0.3026336,0.744968,0.6521025,0.25762877,0.17928371,0.44593504,0.19372857,-0.04412557,-0.20847982,0.06437706,772.4176,813.91943,797.3993,795.38464,881.2088,0.45245361328125,0.19671630859375,0.8533935546875,4.29168701171875,-2.355194091796875,-0.777587890625,1.0,1.0,1.0,1.0,1.0,20.0,
2023-09-09 22:06:17.338,0.76638514,0.55758053,0.3534536,0.39259568,0.5489111,0.061879218,0.23520972,0.11771685,0.80157685,0.3001751,0.30006906,0.7705292,0.6552031,0.26844797,0.19757664,0.46355605,0.20482855,-0.066924736,-0.22050613,0.06644491,772.01465,812.71063,796.1905,788.1319,1022.23444,0.45245361328125,0.19671630859375,0.8533935546875,4.29168701171875,-2.355194091796875,-0.777587890625,1.0,1.0,1.0,1.0,1.0,20.0,
2023-09-09 22:06:17.375,0.76638514,0.55758053,0.3534536,0.39259568,0.5489111,0.061879218,0.23520972,0.11771685,0.80157685,0.3001751,0.30006906,0.7705292,0.6552031,0.26844797,0.19757664,0.46355605,0.20482855,-0.066924736,-0.22050613,0.06644491,765.56775,806.6667,790.9524,786.9231,819.5604,0.45660400390625,0.1981201171875,0.849853515625,4.486083984375,-3.237457275390625,-0.770111083984375,1.0,1.0,1.0,1.0,1.0,20.0,
2023-09-09 22:06:17.393,0.75271446,0.5578369,0.36700812,0.42232653,0.55320764,0.072358415,0.23669106,0.14509779,0.82879454,0.35668048,0.2991533,0.77996504,0.6587699,0.28154922,0.22172049,0.4909584,0.21840122,-0.09289955,-0.22050275,0.074314654,765.16486,811.9048,800.2198,786.1172,757.1062,0.45660400390625,0.1981201171875,0.849853515625,4.486083984375,-3.237457275390625,-0.770111083984375,1.0,1.0,1.0,1.0,1.0,20.0,
2023-09-09 22:06:17.442,0.75271446,0.5578369,0.36700812,0.42232653,0.55320764,0.072358415,0.23669106,0.14509779,0.82879454,0.35668048,0.2991533,0.77996504,0.6587699,0.28154922,0.22172049,0.4909584,0.21840122,-0.09289955,-0.22050275,0.074314654,781.28204,799.41394,799.011,789.34064,792.96704,0.45892333984375,0.20001220703125,0.85247802734375,4.41131591796875,-2.818756103515625,-0.994415283203125,1.0,1.0,1.0,1.0,1.0,20.0,
2023-09-09 22:06:17.482,0.75271446,0.5578369,0.36700812,0.42232653,0.55320764,0.072358415,0.23669106,0.14509779,0.82879454,0.35668048,0.2991533,0.77996504,0.6587699,0.28154922,0.22172049,0.4909584,0.21840122,-0.09289955,-0.22050275,0.074314654,780.87915,811.9048,806.26373,795.78754,771.2088,0.457275390625,0.19940185546875,0.8533935546875,4.41131591796875,-2.0635986328125,-0.964508056640625,1.0,1.0,1.0,1.0,1.0,20.0,
2023-09-09 22:06:17.491,0.71627325,0.5540852,0.36882275,0.4375648,0.5639029,0.08957719,0.23421045,0.16814865,0.80856436,0.39643106,0.30459735,0.71809345,0.6581951,0.2956027,0.24530694,0.52442914,0.23543695,-0.11625456,-0.21250074,0.09298675,767.5824,807.0696,805.8608,796.99634,759.12085,0.457275390625,0.19940185546875,0.8533935546875,4.41131591796875,-2.0635986328125,-0.964508056640625,1.0,1.0,1.0,1.0,1.0,20.0,
2023-09-09 22:06:17.532,0.71627325,0.5540852,0.36882275,0.4375648,0.5639029,0.08957719,0.23421045,0.16814865,0.80856436,0.39643106,0.30459735,0.71809345,0.6581951,0.2956027,0.24530694,0.52442914,0.23543695,-0.11625456,-0.21250074,0.09298675,770.0,800.6227,798.60803,793.36993,841.7216,0.4510498046875,0.2001953125,0.8526611328125,4.38140869140625,-1.8841552734375,-0.777587890625,1.0,1.0,1.0,1.0,1.0,20.0,
2023-09-09 22:06:17.586,0.71627325,0.5540852,0.36882275,0.4375648,0.5639029,0.08957719,0.23421045,0.16814865,0.80856436,0.39643106,0.30459735,0.71809345,0.6581951,0.2956027,0.24530694,0.52442914,0.23543695,-0.11625456,-0.21250074,0.09298675,777.25275,812.71063,797.8022,794.17584,899.7436,0.445556640625,0.19732666015625,0.85223388671875,4.5159912109375,-2.88604736328125,-0.471038818359375,1.0,1.0,1.0,1.0,1.0,20.0,
2023-09-09 22:06:17.622,0.65561545,0.53775036,0.34955695,0.4500839,0.5766035,0.0967163,0.2286152,0.19749841,0.7594488,0.40539676,0.30871308,0.6008758,0.65085834,0.30546132,0.26258954,0.5518554,0.25092873,-0.13398351,-0.20707938,0.1161361,773.6264,814.7253,796.1905,787.72894,921.50183,0.445556640625,0.19732666015625,0.85223388671875,4.5159912109375,-2.88604736328125,-0.471038818359375,1.0,1.0,1.0,1.0,1.0,20.0,
2023-09-09 22:06:17.682,0.65561545,0.53775036,0.34955695,0.4500839,0.5766035,0.0967163,0.2286152,0.19749841,0.7594488,0.40539676,0.30871308,0.6008758,0.65085834,0.30546132,0.26258954,0.5518554,0.25092873,-0.13398351,-0.20707938,0.1161361,767.98535,803.44324,795.78754,796.5934,862.27106,0.45281982421875,0.20086669921875,0.85546875,4.732818603515625,-3.671112060546875,-0.46356201171875,1.0,1.0,1.0,1.0,1.0,20.0,
2023-09-09 22:06:17.724,0.65561545,0.53775036,0.34955695,0.4500839,0.5766035,0.0967163,0.2286152,0.19749841,0.7594488,0.40539676,0.30871308,0.6008758,0.65085834,0.30546132,0.26258954,0.5518554,0.25092873,-0.13398351,-0.20707938,0.1161361,781.28204,807.8755,805.8608,811.0989,791.75824,0.45709228515625,0.19775390625,0.85089111328125,4.702911376953125,-3.69354248046875,-0.426177978515625,1.0,1.0,1.0,1.0,1.0,20.0,
2023-09-09 22:06:17.726,0.58065104,0.50205666,0.31550983,0.46297705,0.58323395,0.085052654,0.21505912,0.23304862,0.75655425,0.39311355,0.3116215,0.5546123,0.640723,0.308696,0.27160776,0.56383026,0.26269585,-0.14420037,-0.21237618,0.13220811,772.8205,817.1429,804.65204,817.9487,955.34796,0.45709228515625,0.19775390625,0.85089111328125,4.702911376953125,-3.69354248046875,-0.426177978515625,1.0,1.0,1.0,1.0,1.0,20.0,
2023-09-09 22:06:17.765,0.58065104,0.50205666,0.31550983,0.46297705,0.58323395,0.085052654,0.21505912,0.23304862,0.75655425,0.39311355,0.3116215,0.5546123,0.640723,0.308696,0.27160776,0.56383026,0.26269585,-0.14420037,-0.21237618,0.13220811,787.72894,826.4103,807.0696,794.9817,755.09155,0.46441650390625,0.199951171875,0.85003662109375,4.957122802734375,-3.69354248046875,-0.179443359375,1.0,1.0,1.0,1.0,1.0,20.0,
2023-09-09 22:06:17.812,0.58065104,0.50205666,0.31550983,0.46297705,0.58323395,0.085052654,0.21505912,0.23304862,0.75655425,0.39311355,0.3116215,0.5546123,0.640723,0.308696,0.27160776,0.56383026,0.26269585,-0.14420037,-0.21237618,0.13220811,779.2674,805.05493,797.3993,810.696,828.8278,0.45611572265625,0.19866943359375,0.8507080078125,5.03936767578125,-2.2430419921875,-0.5682373046875,1.0,1.0,1.0,1.0,1.0,20.0,
2023-09-09 22:06:17.815,0.5114777,0.44717824,0.26823324,0.47312617,0.58270276,0.06304854,0.19015446,0.26603526,0.75655425,0.34947607,0.3019461,0.5501589,0.6344005,0.3078131,0.27327,0.56016386,0.2760718,-0.14714047,-0.2278606,0.13580534,784.5055,817.1429,805.05493,811.0989,912.6374,0.45611572265625,0.19866943359375,0.8507080078125,5.03936767578125,-2.2430419921875,-0.5682373046875,1.0,1.0,1.0,1.0,1.0,20.0,
2023-09-09 22:06:17.872,0.5114777,0.44717824,0.26823324,0.47312617,0.58270276,0.06304854,0.19015446,0.26603526,0.75655425,0.34947607,0.3019461,0.5501589,0.6344005,0.3078131,0.27327,0.56016386,0.2760718,-0.14714047,-0.2278606,0.13580534,780.87915,810.696,816.337,805.8608,783.2967,0.4630126953125,0.20367431640625,0.85650634765625,4.5159912109375,-3.63372802734375,-0.8074951171875,1.0,1.0,1.0,1.0,1.0,20.0,
2023-09-09 22:06:17.915,0.4641427,0.3890323,0.20898367,0.4846715,0.5805125,0.048415586,0.15813848,0.28996357,0.75655425,0.30377463,0.25762698,0.54936904,0.63313913,0.3062542,0.26985145,0.5475003,0.29636177,-0.14917845,-0.24208307,0.13045222,763.5531,796.1905,798.60803,795.38464,822.381,0.4630126953125,0.20367431640625,0.85650634765625,4.5159912109375,-3.63372802734375,-0.8074951171875,1.0,1.0,1.0,1.0,1.0,20.0,
2023-09-09 22:06:17.954,0.4641427,0.3890323,0.20898367,0.4846715,0.5805125,0.048415586,0.15813848,0.28996357,0.75655425,0.30377463,0.25762698,0.54936904,0.63313913,0.3062542,0.26985145,0.5475003,0.29636177,-0.14917845,-0.24208307,0.13045222,753.0769,779.2674,778.86444,784.90845,860.2564,0.461669921875,0.20538330078125,0.85113525390625,4.598236083984375,-3.0804443359375,-0.478515625,1.0,1.0,1.0,1.0,1.0,20.0,
2023-09-09 22:06:18.008,0.4641427,0.3890323,0.20898367,0.4846715,0.5805125,0.048415586,0.15813848,0.28996357,0.75655425,0.30377463,0.25762698,0.54936904,0.63313913,0.3062542,0.26985145,0.5475003,0.29636177,-0.14917845,-0.24208307,0.13045222,756.30035,796.1905,796.1905,807.0696,800.2198,0.45574951171875,0.2041015625,0.85223388671875,4.66552734375,-2.444915771484375,-0.829925537109375,1.0,1.0,1.0,1.0,1.0,20.0,
2023-09-09 22:06:18.013,0.44682312,0.35198924,0.15319546,0.49991608,0.5794323,0.052674256,0.13098362,0.3042748,0.75655425,0.28960678,0.22373626,0.5513528,0.63445365,0.30568546,0.2645266,0.5331464,0.31913334,-0.15738738,-0.24090768,0.121423975,763.95605,807.47253,799.41394,800.6227,990.0,0.45574951171875,0.2041015625,0.85223388671875,4.66552734375,-2.444915771484375,-0.829925537109375,1.0,1.0,1.0,1.0,1.0,20.0,
2023-09-09 22:06:18.055,0.44682312,0.35198924,0.15319546,0.49991608,0.5794323,0.052674256,0.13098362,0.3042748,0.75655425,0.28960678,0.22373626,0.5513528,0.63445365,0.30568546,0.2645266,0.5331464,0.31913334,-0.15738738,-0.24090768,0.121423975,773.6264,810.696,791.75824,803.44324,931.5751,0.4547119140625,0.20196533203125,0.847900390625,4.358978271484375,-3.043060302734375,-0.179443359375,1.0,1.0,1.0,1.0,1.0,20.0,
2023-09-09 22:06:18.087,0.44682312,0.35198924,0.15319546,0.49991608,0.5794323,0.052674256,0.13098362,0.3042748,0.75655425,0.28960678,0.22373626,0.5513528,0.63445365,0.30568546,0.2645266,0.5331464,0.31913334,-0.15738738,-0.24090768,0.121423975,778.86444,809.4872,797.3993,803.0403,835.6777,0.45635986328125,0.19757080078125,0.8505859375,4.486083984375,-3.566436767578125,-0.381317138671875,1.0,1.0,1.0,1.0,1.0,20.0,
2023-09-09 22:06:18.094,0.455924,0.3451048,0.12068416,0.51444453,0.5748534,0.07419175,0.116298944,0.31161913,0.75655425,0.28960678,0.22225268,0.5522575,0.6365324,0.30772194,0.26134306,0.5218403,0.33609846,-0.17230418,-0.22080864,0.109933294,775.64105,811.9048,802.6374,801.02563,826.0073,0.45635986328125,0.19757080078125,0.8505859375,4.486083984375,-3.566436767578125,-0.381317138671875,1.0,1.0,1.0,1.0,1.0,20.0,
2023-09-09 22:06:18.200,0.455924,0.3451048,0.12068416,0.51444453,0.5748534,0.07419175,0.116298944,0.31161913,0.75655425,0.28960678,0.22225268,0.5522575,0.6365324,0.30772194,0.26134306,0.5218403,0.33609846,-0.17230418,-0.22080864,0.109933294,778.0586,803.8461,799.81683,805.8608,763.95605,0.4671630859375,0.203125,0.8499755859375,4.658050537109375,-3.84307861328125,-0.441131591796875,1.0,1.0,1.0,1.0,1.0,20.0,
2023-09-09 22:06:18.252,0.455924,0.3451048,0.12068416,0.51444453,0.5748534,0.07419175,0.116298944,0.31161913,0.75655425,0.28960678,0.22225268,0.5522575,0.6365324,0.30772194,0.26134306,0.5218403,0.33609846,-0.17230418,-0.22080864,0.109933294,777.6557,807.0696,793.36993,795.78754,786.52014,0.46856689453125,0.2001953125,0.849853515625,5.323486328125,-2.94586181640625,-0.64300537109375,1.0,1.0,1.0,1.0,1.0,20.0,
2023-09-09 22:06:18.253,0.49320605,0.37703794,0.12065062,0.52118444,0.5591415,0.11169241,0.11221406,0.3185646,0.73708004,0.29136676,0.25005057,0.5524967,0.63939005,0.31743568,0.26445386,0.5164441,0.345465,-0.18642166,-0.19188711,0.0970222,780.07324,807.47253,796.99634,798.20514,877.5824,0.46856689453125,0.2001953125,0.849853515625,5.323486328125,-2.94586181640625,-0.64300537109375,1.0,1.0,1.0,1.0,1.0,20.0,
2023-09-09 22:06:18.310,0.49320605,0.37703794,0.12065062,0.52118444,0.5591415,0.11169241,0.11221406,0.3185646,0.73708004,0.29136676,0.25005057,0.5524967,0.63939005,0.31743568,0.26445386,0.5164441,0.345465,-0.18642166,-0.19188711,0.0970222,776.4469,803.44324,803.44324,801.02563,844.1392,0.46990966796875,0.20330810546875,0.85235595703125,5.420684814453125,-2.19818115234375,-0.5682373046875,1.0,1.0,1.0,1.0,1.0,20.0,
2023-09-09 22:06:18.354,0.49320605,0.37703794,0.12065062,0.52118444,0.5591415,0.11169241,0.11221406,0.3185646,0.73708004,0.29136676,0.25005057,0.5524967,0.63939005,0.31743568,0.26445386,0.5164441,0.345465,-0.18642166,-0.19188711,0.0970222,784.5055,809.89014,801.02563,791.3553,914.2491,0.4581298828125,0.2003173828125,0.84967041015625,4.6356201171875,-2.34771728515625,-0.396270751953125,1.0,1.0,1.0,1.0,1.0,20.0,
2023-09-09 22:06:18.358,0.54650396,0.44205022,0.13633458,0.5164991,0.5321556,0.16304311,0.108397886,0.329,0.68595237,0.31445846,0.29066437,0.58315545,0.643276,0.3364862,0.2742534,0.5162092,0.3510819,-0.1944688,-0.16775204,0.08581089,771.6117,821.978,802.23444,798.20514,855.42126,0.4581298828125,0.2003173828125,0.84967041015625,4.6356201171875,-2.34771728515625,-0.396270751953125,1.0,1.0,1.0,1.0,1.0,20.0,
2023-09-09 22:06:18.370,0.54650396,0.44205022,0.13633458,0.5164991,0.5321556,0.16304311,0.108397886,0.329,0.68595237,0.31445846,0.29066437,0.58315545,0.643276,0.3364862,0.2742534,0.5162092,0.3510819,-0.1944688,-0.16775204,0.08581089,754.68866,802.6374,791.3553,796.1905,863.8828,0.4569091796875,0.20654296875,0.84808349609375,4.59075927734375,-1.951446533203125,-0.52337646484375,1.0,1.0,1.0,1.0,1.0,20.0,
2023-09-09 22:06:18.435,0.6015091,0.5074324,0.14352733,0.498325,0.5022536,0.21814148,0.09380384,0.3409087,0.68595237,0.33401704,0.29613376,0.60313267,0.6474014,0.3589313,0.28684336,0.51694065,0.3557194,-0.19437894,-0.15457502,0.07692773,775.64105,803.0403,790.54944,789.7436,873.95605,0.4569091796875,0.20654296875,0.84808349609375,4.59075927734375,-1.951446533203125,-0.52337646484375,1.0,1.0,1.0,1.0,1.0,20.0,
2023-09-09 22:06:18.495,0.6015091,0.5074324,0.14352733,0.498325,0.5022536,0.21814148,0.09380384,0.3409087,0.68595237,0.33401704,0.29613376,0.60313267,0.6474014,0.3589313,0.28684336,0.51694065,0.3557194,-0.19437894,-0.15457502,0.07692773,782.49084,803.0403,799.81683,799.81683,812.71063,0.46173095703125,0.205322265625,0.84613037109375,4.32159423828125,-2.833709716796875,-0.91217041015625,1.0,1.0,1.0,1.0,1.0,20.0,
2023-09-09 22:06:18.531,0.6015091,0.5074324,0.14352733,0.498325,0.5022536,0.21814148,0.09380384,0.3409087,0.68595237,0.33401704,0.29613376,0.60313267,0.6474014,0.3589313,0.28684336,0.51694065,0.3557194,-0.19437894,-0.15457502,0.07692773,770.0,807.8755,799.81683,800.6227,788.93774,0.4617919921875,0.20269775390625,0.84881591796875,4.673004150390625,-2.87109375,-0.83740234375,1.0,1.0,1.0,1.0,1.0,20.0,
2023-09-09 22:06:18.537,0.6459913,0.55341876,0.13298586,0.46441495,0.47910607,0.26348367,0.06065237,0.3458915,0.68595237,0.3500276,0.29314983,0.6037218,0.6513732,0.37574443,0.29635093,0.51528615,0.3596239,-0.18430102,-0.15099214,0.06576577,767.1795,816.7399,793.7729,798.60803,1050.4396,0.4617919921875,0.20269775390625,0.84881591796875,4.673004150390625,-2.87109375,-0.83740234375,1.0,1.0,1.0,1.0,1.0,20.0,
2023-09-09 22:06:18.587,0.6459913,0.55341876,0.13298586,0.46441495,0.47910607,0.26348367,0.06065237,0.3458915,0.68595237,0.3500276,0.29314983,0.6037218,0.6513732,0.37574443,0.29635093,0.51528615,0.3596239,-0.18430102,-0.15099214,0.06576577,772.4176,809.4872,802.23444,798.20514,722.0513,0.4617919921875,0.20465087890625,0.851318359375,4.5758056640625,-2.564544677734375,-0.485992431640625,1.0,1.0,1.0,1.0,1.0,20.0,
2023-09-09 22:06:18.653,0.6459913,0.55341876,0.13298586,0.46441495,0.47910607,0.26348367,0.06065237,0.3458915,0.68595237,0.3500276,0.29314983,0.6037218,0.6513732,0.37574443,0.29635093,0.51528615,0.3596239,-0.18430102,-0.15099214,0.06576577,782.0879,807.8755,796.99634,787.326,872.3443,0.45465087890625,0.1990966796875,0.8450927734375,4.478607177734375,-2.332763671875,-1.069183349609375,1.0,1.0,1.0,1.0,1.0,20.0,
2023-09-09 22:06:18.659,0.6718075,0.5767159,0.10847644,0.4241196,0.46749318,0.29214543,0.012624921,0.33861583,0.68595237,0.37361825,0.2746533,0.6037218,0.65510154,0.38289368,0.29856905,0.51276606,0.36372828,-0.1630274,-0.15375476,0.049106944,776.04395,812.3077,806.6667,801.02563,1051.6483,0.45465087890625,0.1990966796875,0.8450927734375,4.478607177734375,-2.332763671875,-1.069183349609375,1.0,1.0,1.0,1.0,1.0,20.0,
2023-09-09 22:06:18.713,0.6718075,0.5767159,0.10847644,0.4241196,0.46749318,0.29214543,0.012624921,0.33861583,0.68595237,0.37361825,0.2746533,0.6037218,0.65510154,0.38289368,0.29856905,0.51276606,0.36372828,-0.1630274,-0.15375476,0.049106944,784.5055,813.1135,799.011,801.02563,788.93774,0.46783447265625,0.2015380859375,0.8472900390625,4.822540283203125,-2.99072265625,-0.7476806640625,1.0,1.0,1.0,1.0,1.0,20.0,
2023-09-09 22:06:18.720,0.68126523,0.58085275,0.072355635,0.38200158,0.47076365,0.3084035,-0.035678912,0.32237646,0.68595237,0.37757042,0.26413658,0.6037218,0.65876687,0.38270992,0.29200792,0.5113836,0.36791858,-0.13468087,-0.16142593,0.031390723,767.98535,811.50183,799.011,807.0696,741.79486,0.46783447265625,0.2015380859375,0.8472900390625,4.822540283203125,-2.99072265625,-0.7476806640625,1.0,1.0,1.0,1.0,1.0,20.0,
2023-09-09 22:06:18.767,0.68126523,0.58085275,0.072355635,0.38200158,0.47076365,0.3084035,-0.035678912,0.32237646,0.68595237,0.37757042,0.26413658,0.6037218,0.65876687,0.38270992,0.29200792,0.5113836,0.36791858,-0.13468087,-0.16142593,0.031390723,772.4176,809.4872,803.0403,804.65204,839.707,0.46258544921875,0.20184326171875,0.85003662109375,4.897308349609375,-2.52716064453125,-0.4486083984375,1.0,1.0,1.0,1.0,1.0,20.0,
2023-09-09 22:06:18.819,0.68126523,0.58085275,0.072355635,0.38200158,0.47076365,0.3084035,-0.035678912,0.32237646,0.68595237,0.37757042,0.26413658,0.6037218,0.65876687,0.38270992,0.29200792,0.5113836,0.36791858,-0.13468087,-0.16142593,0.031390723,763.95605,815.12823,788.93774,801.8315,1119.3407,0.46209716796875,0.2008056640625,0.84783935546875,4.9945068359375,-2.160797119140625,-0.76263427734375,1.0,1.0,1.0,1.0,1.0,20.0,
2023-09-09 22:06:18.868,0.68126523,0.58085275,0.072355635,0.38200158,0.47076365,0.3084035,-0.035678912,0.32237646,0.68595237,0.37757042,0.26413658,0.6037218,0.65876687,0.38270992,0.29200792,0.5113836,0.36791858,-0.13468087,-0.16142593,0.031390723,770.0,807.8755,797.8022,801.02563,832.8571,0.45721435546875,0.2020263671875,0.8492431640625,4.74029541015625,-2.85614013671875,-0.58319091796875,1.0,1.0,1.0,1.0,1.0,20.0,
2023-09-09 22:06:18.869,0.6787223,0.5719859,0.02992003,0.3438583,0.48989934,0.3188604,-0.06691277,0.30921087,0.6916868,0.37757042,0.26413658,0.6037218,0.6628546,0.37898055,0.27659404,0.5061496,0.36783078,-0.10560571,-0.17463672,0.018258318,768.7912,808.2784,794.17584,801.8315,774.43225,0.45721435546875,0.2020263671875,0.8492431640625,4.74029541015625,-2.85614013671875,-0.58319091796875,1.0,1.0,1.0,1.0,1.0,20.0,
2023-09-09 22:06:18.886,0.6787223,0.5719859,0.02992003,0.3438583,0.48989934,0.3188604,-0.06691277,0.30921087,0.6916868,0.37757042,0.26413658,0.6037218,0.6628546,0.37898055,0.27659404,0.5061496,0.36783078,-0.10560571,-0.17463672,0.018258318,763.1502,809.4872,796.1905,801.02563,787.72894,0.4605712890625,0.20013427734375,0.84759521484375,4.71038818359375,-3.596343994140625,-0.411224365234375,1.0,1.0,1.0,1.0,1.0,20.0,
2023-09-09 22:06:18.933,0.66615,0.55532795,-0.005629161,0.33301044,0.5145873,0.32494226,-0.08144183,0.3073458,0.6974417,0.37757042,0.26413658,0.5979993,0.66807365,0.3723888,0.25384238,0.48770773,0.35691452,-0.078113295,-0.19239661,0.008749677,776.8498,805.4579,808.2784,803.0403,915.05493,0.4605712890625,0.20013427734375,0.84759521484375,4.71038818359375,-3.596343994140625,-0.411224365234375,1.0,1.0,1.0,1.0,1.0,20.0,
2023-09-09 22:06:18.978,0.66615,0.55532795,-0.005629161,0.33301044,0.5145873,0.32494226,-0.08144183,0.3073458,0.6974417,0.37757042,0.26413658,0.5979993,0.66807365,0.3723888,0.25384238,0.48770773,0.35691452,-0.078113295,-0.19239661,0.008749677,788.5348,817.9487,808.68134,794.57874,765.56775,0.47314453125,0.2056884765625,0.84423828125,5.084228515625,-3.46923828125,-0.336456298828125,1.0,1.0,1.0,1.0,1.0,20.0,
2023-09-09 22:06:19.012,0.66615,0.55532795,-0.005629161,0.33301044,0.5145873,0.32494226,-0.08144183,0.3073458,0.6974417,0.37757042,0.26413658,0.5979993,0.66807365,0.3723888,0.25384238,0.48770773,0.35691452,-0.078113295,-0.19239661,0.008749677,772.01465,828.4249,815.12823,816.337,844.1392,0.47100830078125,0.20458984375,0.8492431640625,4.747772216796875,-1.921539306640625,-0.657958984375,1.0,1.0,1.0,1.0,1.0,20.0,
2023-09-09 22:06:19.015,0.6422167,0.5302258,-0.018035678,0.35765094,0.5330935,0.32461292,-0.09085324,0.31219897,0.6623248,0.3653566,0.26248607,0.5755907,0.67366815,0.36300647,0.22757733,0.4540853,0.33352882,-0.052405916,-0.20937084,-0.0032270376,778.86444,815.9341,803.8461,807.0696,1014.9817,0.47100830078125,0.20458984375,0.8492431640625,4.747772216796875,-1.921539306640625,-0.657958984375,1.0,1.0,1.0,1.0,1.0,20.0,
2023-09-09 22:06:19.088,0.6422167,0.5302258,-0.018035678,0.35765094,0.5330935,0.32461292,-0.09085324,0.31219897,0.6623248,0.3653566,0.26248607,0.5755907,0.67366815,0.36300647,0.22757733,0.4540853,0.33352882,-0.052405916,-0.20937084,-0.0032270376,780.87915,822.7839,809.89014,813.91943,849.3773,0.46246337890625,0.206787109375,0.846435546875,4.403839111328125,-1.472930908203125,-0.478515625,1.0,1.0,1.0,1.0,1.0,20.0,
2023-09-09 22:06:19.118,0.6422167,0.5302258,-0.018035678,0.35765094,0.5330935,0.32461292,-0.09085324,0.31219897,0.6623248,0.3653566,0.26248607,0.5755907,0.67366815,0.36300647,0.22757733,0.4540853,0.33352882,-0.052405916,-0.20937084,-0.0032270376,790.9524,824.3956,801.4286,798.60803,897.72894,0.4569091796875,0.210205078125,0.849609375,4.000091552734375,-1.846771240234375,-1.016845703125,1.0,1.0,1.0,1.0,1.0,20.0,
2023-09-09 22:06:19.123,0.61578065,0.49937207,-0.002933748,0.40084323,0.5399188,0.3178969,-0.09996692,0.31240824,0.61046284,0.33578062,0.26191947,0.5558463,0.6774864,0.3525045,0.2021016,0.41669247,0.30350798,-0.030409915,-0.21844465,-0.019220924,781.28204,809.0842,798.60803,806.6667,876.3736,0.4569091796875,0.210205078125,0.849609375,4.000091552734375,-1.846771240234375,-1.016845703125,1.0,1.0,1.0,1.0,1.0,20.0,
2023-09-09 22:06:19.201,0.61578065,0.49937207,-0.002933748,0.40084323,0.5399188,0.3178969,-0.09996692,0.31240824,0.61046284,0.33578062,0.26191947,0.5558463,0.6774864,0.3525045,0.2021016,0.41669247,0.30350798,-0.030409915,-0.21844465,-0.019220924,776.4469,817.5458,799.81683,804.65204,962.1978,0.4603271484375,0.20635986328125,0.84979248046875,3.9178466796875,-2.25799560546875,-0.994415283203125,1.0,1.0,1.0,1.0,1.0,20.0,
2023-09-09 22:06:19.224,0.59664613,0.47370714,0.023839023,0.43948397,0.5373782,0.307941,-0.10820375,0.30479023,0.59691477,0.30800992,0.26191947,0.5369124,0.67784655,0.3424921,0.17914395,0.39149106,0.27362067,-0.013191135,-0.21789275,-0.03399094,788.1319,809.0842,796.1905,792.5641,754.68866,0.4603271484375,0.20635986328125,0.84979248046875,3.9178466796875,-2.25799560546875,-0.994415283203125,1.0,1.0,1.0,1.0,1.0,20.0,
2023-09-09 22:06:19.259,0.59664613,0.47370714,0.023839023,0.43948397,0.5373782,0.307941,-0.10820375,0.30479023,0.59691477,0.30800992,0.26191947,0.5369124,0.67784655,0.3424921,0.17914395,0.39149106,0.27362067,-0.013191135,-0.21789275,-0.03399094,793.36993,817.5458,794.17584,796.99634,890.07324,0.46038818359375,0.2000732421875,0.8470458984375,4.02252197265625,-2.908477783203125,-0.800018310546875,1.0,1.0,1.0,1.0,1.0,20.0,
2023-09-09 22:06:19.354,0.59664613,0.47370714,0.023839023,0.43948397,0.5373782,0.307941,-0.10820375,0.30479023,0.59691477,0.30800992,0.26191947,0.5369124,0.67784655,0.3424921,0.17914395,0.39149106,0.27362067,-0.013191135,-0.21789275,-0.03399094,761.9414,808.2784,790.14655,799.81683,747.03296,0.46478271484375,0.2030029296875,0.84490966796875,4.194488525390625,-2.624359130859375,-0.7476806640625,1.0,1.0,1.0,1.0,1.0,20.0,
2023-09-09 22:06:19.363,0.5930823,0.46788165,0.056560874,0.47034505,0.5282582,0.2978228,-0.11202754,0.29713494,0.59691477,0.29213345,0.25789765,0.5129233,0.6745158,0.33171833,0.15829107,0.3832693,0.24533163,0.0027622057,-0.21269187,-0.041790746,783.2967,819.5604,799.41394,790.54944,884.0293,0.46478271484375,0.2030029296875,0.84490966796875,4.194488525390625,-2.624359130859375,-0.7476806640625,1.0,1.0,1.0,1.0,1.0,20.0,
2023-09-09 22:06:19.407,0.5930823,0.46788165,0.056560874,0.47034505,0.5282582,0.2978228,-0.11202754,0.29713494,0.59691477,0.29213345,0.25789765,0.5129233,0.6745158,0.33171833,0.15829107,0.3832693,0.24533163,0.0027622057,-0.21269187,-0.041790746,786.1172,821.1722,800.2198,793.36993,862.674,0.46124267578125,0.204345703125,0.84637451171875,4.50103759765625,-1.981353759765625,-0.8074951171875,1.0,1.0,1.0,1.0,1.0,20.0,
2023-09-09 22:06:19.419,0.5930823,0.46788165,0.056560874,0.47034505,0.5282582,0.2978228,-0.11202754,0.29713494,0.59691477,0.29213345,0.25789765,0.5129233,0.6745158,0.33171833,0.15829107,0.3832693,0.24533163,0.0027622057,-0.21269187,-0.041790746,792.5641,806.6667,796.99634,795.38464,783.69965,0.46453857421875,0.205078125,0.8477783203125,3.96270751953125,-2.22808837890625,-1.71966552734375,1.0,1.0,1.0,1.0,1.0,20.0,
2023-09-09 22:06:19.459,0.6011451,0.48117504,0.09147468,0.49322376,0.5109844,0.28653976,-0.10792453,0.29519606,0.59691477,0.28944254,0.26741013,0.50987303,0.6693856,0.3183753,0.13929634,0.3825105,0.21636428,0.022450818,-0.21166082,-0.043162484,779.67035,809.0842,786.1172,788.93774,873.5531,0.46453857421875,0.205078125,0.8477783203125,3.96270751953125,-2.22808837890625,-1.71966552734375,1.0,1.0,1.0,1.0,1.0,20.0,
2023-09-09 22:06:19.493,0.6011451,0.48117504,0.09147468,0.49322376,0.5109844,0.28653976,-0.10792453,0.29519606,0.59691477,0.28944254,0.26741013,0.50987303,0.6693856,0.3183753,0.13929634,0.3825105,0.21636428,0.022450818,-0.21166082,-0.043162484,779.67035,813.5165,801.8315,807.0696,820.7692,0.4644775390625,0.20111083984375,0.845458984375,4.074859619140625,-2.893524169921875,-0.8673095703125,1.0,1.0,1.0,1.0,1.0,20.0,
2023-09-09 22:06:19.550,0.6011451,0.48117504,0.09147468,0.49322376,0.5109844,0.28653976,-0.10792453,0.29519606,0.59691477,0.28944254,0.26741013,0.50987303,0.6693856,0.3183753,0.13929634,0.3825105,0.21636428,0.022450818,-0.21166082,-0.043162484,765.9707,804.2491,793.7729,798.20514,796.99634,0.45574951171875,0.2030029296875,0.849609375,4.0673828125,-1.39068603515625,-1.054229736328125,1.0,1.0,1.0,1.0,1.0,20.0,
2023-09-09 22:06:19.553,0.6088608,0.5039181,0.12408675,0.5143949,0.48909247,0.2730874,-0.09428566,0.29371795,0.6011862,0.28944254,0.3082917,0.5140697,0.6651084,0.3034852,0.123897746,0.3806172,0.18834232,0.045881975,-0.21952617,-0.04294667,761.53845,803.44324,796.99634,802.6374,855.42126,0.45574951171875,0.2030029296875,0.849609375,4.0673828125,-1.39068603515625,-1.054229736328125,1.0,1.0,1.0,1.0,1.0,20.0,
2023-09-09 22:06:19.622,0.6088608,0.5039181,0.12408675,0.5143949,0.48909247,0.2730874,-0.09428566,0.29371795,0.6011862,0.28944254,0.3082917,0.5140697,0.6651084,0.3034852,0.123897746,0.3806172,0.18834232,0.045881975,-0.21952617,-0.04294667,763.5531,803.8461,798.60803,798.20514,907.8022,0.45782470703125,0.20001220703125,0.8531494140625,4.329071044921875,-1.9140625,-0.8673095703125,1.0,1.0,1.0,1.0,1.0,20.0,
2023-09-09 22:06:19.672,0.6088608,0.5039181,0.12408675,0.5143949,0.48909247,0.2730874,-0.09428566,0.29371795,0.6011862,0.28944254,0.3082917,0.5140697,0.6651084,0.3034852,0.123897746,0.3806172,0.18834232,0.045881975,-0.21952617,-0.04294667,755.09155,812.71063,796.1905,793.36993,811.0989,0.453125,0.1993408203125,0.85113525390625,4.3365478515625,-2.28790283203125,-0.770111083984375,1.0,1.0,1.0,1.0,1.0,20.0,
2023-09-09 22:06:19.676,0.6128229,0.5186622,0.1460826,0.53118026,0.47548905,0.2575466,-0.07766292,0.2851138,0.6490086,0.28046927,0.32341358,0.5293117,0.6624195,0.28869885,0.11371394,0.37788665,0.16645098,0.06705026,-0.233199,-0.043373927,765.56775,806.6667,801.02563,792.5641,803.44324,0.453125,0.1993408203125,0.85113525390625,4.3365478515625,-2.28790283203125,-0.770111083984375,1.0,1.0,1.0,1.0,1.0,20.0,
2023-09-09 22:06:19.687,0.6128229,0.5186622,0.1460826,0.53118026,0.47548905,0.2575466,-0.07766292,0.2851138,0.6490086,0.28046927,0.32341358,0.5293117,0.6624195,0.28869885,0.11371394,0.37788665,0.16645098,0.06705026,-0.233199,-0.043373927,781.685,806.6667,806.26373,792.96704,787.326,0.4532470703125,0.2001953125,0.84722900390625,4.47113037109375,-3.00567626953125,-0.665435791015625,1.0,1.0,1.0,1.0,1.0,20.0,
2023-09-09 22:06:19.731,0.6143467,0.5070294,0.1535251,0.540507,0.47884297,0.23743029,-0.07314332,0.26627886,0.6839724,0.28655452,0.3241657,0.5520616,0.6571369,0.2695704,0.10715105,0.37624565,0.15242165,0.07892091,-0.24398182,-0.045300473,783.2967,815.5311,816.337,807.0696,892.0879,0.4532470703125,0.2001953125,0.84722900390625,4.47113037109375,-3.00567626953125,-0.665435791015625,1.0,1.0,1.0,1.0,1.0,20.0,
2023-09-09 22:06:19.805,0.6143467,0.5070294,0.1535251,0.540507,0.47884297,0.23743029,-0.07314332,0.26627886,0.6839724,0.28655452,0.3241657,0.5520616,0.6571369,0.2695704,0.10715105,0.37624565,0.15242165,0.07892091,-0.24398182,-0.045300473,774.83514,812.3077,808.2784,810.293,809.0842,0.4613037109375,0.20208740234375,0.85162353515625,4.299163818359375,-2.572021484375,-0.740203857421875,1.0,1.0,1.0,1.0,1.0,20.0,
2023-09-09 22:06:19.847,0.6143467,0.5070294,0.1535251,0.540507,0.47884297,0.23743029,-0.07314332,0.26627886,0.6839724,0.28655452,0.3241657,0.5520616,0.6571369,0.2695704,0.10715105,0.37624565,0.15242165,0.07892091,-0.24398182,-0.045300473,770.40295,810.696,800.2198,794.17584,809.89014,0.46002197265625,0.20166015625,0.8519287109375,4.2767333984375,-2.011260986328125,-1.00189208984375,1.0,1.0,1.0,1.0,1.0,20.0,
