TimeStamp,Delta_TP9,Delta_AF7,Delta_AF8,Delta_TP10,Theta_TP9,Theta_AF7,Theta_AF8,Theta_TP10,Alpha_TP9,Alpha_AF7,Alpha_AF8,Alpha_TP10,Beta_TP9,Beta_AF7,Beta_AF8,Beta_TP10,Gamma_TP9,Gamma_AF7,Gamma_AF8,Gamma_TP10,RAW_TP9,RAW_AF7,RAW_AF8,RAW_TP10,AUX_RIGHT,Accelerometer_X,Accelerometer_Y,Accelerometer_Z,Gyro_X,Gyro_Y,Gyro_Z,HeadBandOn,HSI_TP9,HSI_AF7,HSI_AF8,HSI_TP10,Battery,Elements
2023-09-09 23:02:28.410,0.92915034,0.4381835,1.2027756,1.1214055,0.709546,0.41616312,0.14490469,0.7657522,0.9203823,-0.040973827,0.14284657,0.7655221,0.49262008,-0.33081034,-0.1561691,0.82269204,0.2179274,-0.24431293,-0.45984405,0.3604943,772.01465,785.31134,763.1502,759.5238,818.7546,0.68450927734375,-0.16754150390625,0.69512939453125,3.701019287109375,-7.663726806640625,-2.16827392578125,1.0,1.0,1.0,1.0,1.0,45.0,
2023-09-09 23:02:28.415,0.9226694,0.4381835,1.2027756,1.1214055,0.699488,0.41616312,0.14490469,0.7657522,0.92310154,-0.040973827,0.14284657,0.7655221,0.5376978,-0.33081034,-0.1561691,0.82269204,0.23784256,-0.24431293,-0.45984405,0.3604943,768.7912,788.1319,769.19415,757.1062,1140.2931,0.68450927734375,-0.16754150390625,0.69512939453125,3.701019287109375,-7.663726806640625,-2.16827392578125,1.0,1.0,1.0,1.0,1.0,45.0,
2023-09-09 23:02:28.450,0.9226694,0.4381835,1.2027756,1.1214055,0.699488,0.41616312,0.14490469,0.7657522,0.92310154,-0.040973827,0.14284657,0.7655221,0.5376978,-0.33081034,-0.1561691,0.82269204,0.23784256,-0.24431293,-0.45984405,0.3604943,765.16486,784.90845,766.3736,743.8095,756.30035,0.71063232421875,-0.1611328125,0.701904296875,5.0244140625,-6.542205810546875,-0.88226318359375,1.0,1.0,1.0,1.0,1.0,45.0,
2023-09-09 23:02:28.461,0.9226694,0.4381835,1.2027756,1.1214055,0.699488,0.41616312,0.14490469,0.7657522,0.92310154,-0.040973827,0.14284657,0.7655221,0.5376978,-0.33081034,-0.1561691,0.82269204,0.23784256,-0.24431293,-0.45984405,0.3604943,765.56775,788.5348,769.59705,663.22345,783.69965,0.7198486328125,-0.1546630859375,0.69927978515625,3.12530517578125,-5.1141357421875,1.128997802734375,1.0,1.0,1.0,1.0,1.0,45.0,
2023-09-09 23:02:28.466,0.9311449,0.4381835,1.2027756,1.1214055,0.6990499,0.41616312,0.14490469,0.7657522,0.92310154,-0.040973827,0.14284657,0.7655221,0.5652801,-0.33081034,-0.1561691,0.82269204,0.23777807,-0.24431293,-0.45984405,0.3604943,783.69965,784.5055,767.1795,672.49084,987.98535,0.7198486328125,-0.1546630859375,0.69927978515625,3.12530517578125,-5.1141357421875,1.128997802734375,1.0,1.0,1.0,1.0,1.0,45.0,
2023-09-09 23:02:28.527,0.9311449,0.4381835,1.2027756,1.1214055,0.6990499,0.41616312,0.14490469,0.7657522,0.92310154,-0.040973827,0.14284657,0.7655221,0.5652801,-0.33081034,-0.1561691,0.82269204,0.23777807,-0.24431293,-0.45984405,0.3604943,769.19415,795.38464,772.01465,682.5641,821.1722,0.71380615234375,-0.15655517578125,0.69305419921875,2.444915771484375,-3.7384033203125,1.772003173828125,1.0,1.0,1.0,1.0,1.0,45.0,
2023-09-09 23:02:28.531,0.9164029,0.4381835,1.2027756,1.1214055,0.653629,0.41616312,0.14490469,0.7657522,0.8716747,-0.040973827,0.14284657,0.7655221,0.5715668,-0.33081034,-0.1561691,0.82269204,0.2210273,-0.24431293,-0.45984405,0.3604943,751.4652,770.80585,767.5824,698.2784,800.2198,0.71380615234375,-0.15655517578125,0.69305419921875,2.444915771484375,-3.7384033203125,1.772003173828125,1.0,1.0,1.0,1.0,1.0,45.0,
2023-09-09 23:02:28.595,0.9164029,0.4381835,1.2027756,1.1214055,0.653629,0.41616312,0.14490469,0.7657522,0.8716747,-0.040973827,0.14284657,0.7655221,0.5715668,-0.33081034,-0.1561691,0.82269204,0.2210273,-0.24431293,-0.45984405,0.3604943,753.47986,772.8205,765.56775,691.4286,800.6227,0.68756103515625,-0.1629638671875,0.6827392578125,1.98883056640625,-1.57012939453125,-0.755157470703125,1.0,1.0,1.0,1.0,1.0,45.0,
2023-09-09 23:02:28.628,0.9164029,0.4381835,1.2027756,1.1214055,0.653629,0.41616312,0.14490469,0.7657522,0.8716747,-0.040973827,0.14284657,0.7655221,0.5715668,-0.33081034,-0.1561691,0.82269204,0.2210273,-0.24431293,-0.45984405,0.3604943,774.0293,768.7912,771.2088,746.63007,855.42126,0.6768798828125,-0.16845703125,0.68096923828125,2.863616943359375,-1.9140625,-3.22998046875,1.0,1.0,1.0,1.0,1.0,45.0,
2023-09-09 23:02:28.697,0.9164029,0.4381835,1.2027756,1.1214055,0.653629,0.41616312,0.14490469,0.7657522,0.8716747,-0.040973827,0.14284657,0.7655221,0.5715668,-0.33081034,-0.1561691,0.82269204,0.2210273,-0.24431293,-0.45984405,0.3604943,761.9414,778.86444,773.22345,717.2161,809.4872,0.68255615234375,-0.16595458984375,0.6778564453125,3.87298583984375,-4.373931884765625,-5.330963134765625,1.0,1.0,1.0,1.0,1.0,45.0,
2023-09-09 23:02:28.697,0.8192193,0.4381835,1.2027756,1.1214055,0.5813426,0.41616312,0.14490469,0.7657522,0.8218319,-0.040973827,0.14284657,0.7655221,0.5723743,-0.33081034,-0.1561691,0.82269204,0.20725419,-0.24431293,-0.45984405,0.3604943,766.77655,780.4762,776.4469,728.49817,821.978,0.68255615234375,-0.16595458984375,0.6778564453125,3.87298583984375,-4.373931884765625,-5.330963134765625,1.0,1.0,1.0,1.0,1.0,45.0,
2023-09-09 23:02:28.779,0.8192193,0.4381835,1.2027756,1.1214055,0.5813426,0.41616312,0.14490469,0.7657522,0.8218319,-0.040973827,0.14284657,0.7655221,0.5723743,-0.33081034,-0.1561691,0.82269204,0.20725419,-0.24431293,-0.45984405,0.3604943,763.5531,782.49084,781.28204,732.1245,780.87915,0.70526123046875,-0.15521240234375,0.68878173828125,5.689849853515625,-5.046844482421875,-3.028106689453125,1.0,1.0,1.0,1.0,1.0,45.0,
2023-09-09 23:02:28.781,0.807626,0.4381835,1.2027756,1.1214055,0.5803993,0.41616312,0.14490469,0.7657522,0.85092807,-0.040973827,0.14284657,0.7655221,0.5685067,-0.33081034,-0.1561691,0.82269204,0.19593741,-0.24431293,-0.45984405,0.3604943,779.2674,778.0586,773.22345,713.9927,857.8388,0.70526123046875,-0.15521240234375,0.68878173828125,5.689849853515625,-5.046844482421875,-3.028106689453125,1.0,1.0,1.0,1.0,1.0,45.0,
2023-09-09 23:02:28.831,0.807626,0.4381835,1.2027756,1.1214055,0.5803993,0.41616312,0.14490469,0.7657522,0.85092807,-0.040973827,0.14284657,0.7655221,0.5685067,-0.33081034,-0.1561691,0.82269204,0.19593741,-0.24431293,-0.45984405,0.3604943,780.4762,779.67035,778.86444,765.16486,705.5311,0.70294189453125,-0.15533447265625,0.678955078125,5.2337646484375,-3.887939453125,-0.560760498046875,1.0,1.0,1.0,1.0,1.0,45.0,
2023-09-09 23:02:28.895,0.807626,0.4381835,1.2027756,1.1214055,0.5803993,0.41616312,0.14490469,0.7657522,0.85092807,-0.040973827,0.14284657,0.7655221,0.5685067,-0.33081034,-0.1561691,0.82269204,0.19593741,-0.24431293,-0.45984405,0.3604943,724.0659,770.0,774.83514,718.4249,738.5714,0.69903564453125,-0.1385498046875,0.6854248046875,6.198272705078125,-3.22998046875,2.25799560546875,1.0,1.0,1.0,1.0,1.0,45.0,
2023-09-09 23:02:28.897,0.77576613,0.4381835,1.2027756,1.1214055,0.58063763,0.41616312,0.14490469,0.7657522,0.8744728,-0.040973827,0.14284657,0.7655221,0.5786398,-0.33081034,-0.1561691,0.82269204,0.1961964,-0.24431293,-0.45984405,0.3604943,708.3516,765.9707,759.92676,711.5751,915.8608,0.69903564453125,-0.1385498046875,0.6854248046875,6.198272705078125,-3.22998046875,2.25799560546875,1.0,1.0,1.0,1.0,1.0,45.0,
2023-09-09 23:02:28.929,0.77576613,0.4381835,1.2027756,1.1214055,0.58063763,0.41616312,0.14490469,0.7657522,0.8744728,-0.040973827,0.14284657,0.7655221,0.5786398,-0.33081034,-0.1561691,0.82269204,0.1961964,-0.24431293,-0.45984405,0.3604943,738.5714,799.41394,778.0586,720.4396,848.97437,0.68963623046875,-0.13677978515625,0.6881103515625,4.68048095703125,-3.416900634765625,1.487884521484375,1.0,1.0,1.0,1.0,1.0,45.0,
2023-09-09 23:02:28.998,0.77576613,0.4381835,1.2027756,1.1214055,0.58063763,0.41616312,0.14490469,0.7657522,0.8744728,-0.040973827,0.14284657,0.7655221,0.5786398,-0.33081034,-0.1561691,0.82269204,0.1961964,-0.24431293,-0.45984405,0.3604943,775.2381,827.2161,808.2784,775.64105,779.2674,0.68487548828125,-0.14129638671875,0.6895751953125,3.730926513671875,-2.87109375,-1.188812255859375,1.0,1.0,1.0,1.0,1.0,45.0,
2023-09-09 23:02:29.002,0.7505638,0.4381835,1.2027756,1.1214055,0.6040548,0.41616312,0.14490469,0.7657522,0.92379946,-0.040973827,0.14284657,0.7655221,0.6028426,-0.33081034,-0.1561691,0.82269204,0.20139055,-0.24431293,-0.45984405,0.3604943,790.14655,819.9634,812.71063,776.4469,795.38464,0.68487548828125,-0.14129638671875,0.6895751953125,3.730926513671875,-2.87109375,-1.188812255859375,1.0,1.0,1.0,1.0,1.0,45.0,
2023-09-09 23:02:29.102,0.7505638,0.4381835,1.2027756,1.1214055,0.6040548,0.41616312,0.14490469,0.7657522,0.92379946,-0.040973827,0.14284657,0.7655221,0.6028426,-0.33081034,-0.1561691,0.82269204,0.20139055,-0.24431293,-0.45984405,0.3604943,789.34064,794.57874,840.9158,805.05493,1258.3517,0.69561767578125,-0.14178466796875,0.680908203125,2.46734619140625,-2.58697509765625,-5.4730224609375,1.0,1.0,1.0,1.0,1.0,45.0,
2023-09-09 23:02:29.108,0.75645417,0.4381835,1.2027756,1.1214055,0.6905834,0.41616312,0.14490469,0.7657522,1.031086,-0.040973827,0.14284657,0.7655221,0.63237256,-0.33081034,-0.1561691,0.82269204,0.20854625,-0.24431293,-0.45984405,0.3604943,773.22345,807.8755,843.3333,749.45056,752.674,0.69561767578125,-0.14178466796875,0.680908203125,2.46734619140625,-2.58697509765625,-5.4730224609375,1.0,1.0,1.0,1.0,1.0,45.0,
2023-09-09 23:02:29.139,0.75645417,0.4381835,1.2027756,1.1214055,0.6905834,0.41616312,0.14490469,0.7657522,1.031086,-0.040973827,0.14284657,0.7655221,0.63237256,-0.33081034,-0.1561691,0.82269204,0.20854625,-0.24431293,-0.45984405,0.3604943,751.06226,798.20514,840.10986,735.34796,750.65936,0.7017822265625,-0.14093017578125,0.68701171875,3.880462646484375,0.216827392578125,-7.289886474609375,1.0,1.0,1.0,1.0,1.0,45.0,
2023-09-09 23:02:29.174,0.75645417,0.4381835,1.2027756,1.1214055,0.6905834,0.41616312,0.14490469,0.7657522,1.031086,-0.040973827,0.14284657,0.7655221,0.63237256,-0.33081034,-0.1561691,0.82269204,0.20854625,-0.24431293,-0.45984405,0.3604943,790.9524,811.9048,869.92676,790.9524,813.91943,0.697265625,-0.13665771484375,0.69195556640625,4.508514404296875,-1.09161376953125,-6.990814208984375,1.0,1.0,1.0,1.0,1.0,45.0,
2023-09-09 23:02:29.180,0.8260766,0.4381835,1.2027756,1.1214055,0.8506416,0.41616312,0.14490469,0.7657522,1.1235926,-0.040973827,0.14284657,0.7655221,0.656545,-0.33081034,-0.1561691,0.82269204,0.21687672,-0.24431293,-0.45984405,0.3604943,803.8461,815.12823,880.40295,771.2088,796.99634,0.697265625,-0.13665771484375,0.69195556640625,4.508514404296875,-1.09161376953125,-6.990814208984375,1.0,1.0,1.0,1.0,1.0,45.0,
2023-09-09 23:02:29.248,0.8260766,0.4381835,1.2027756,1.1214055,0.8506416,0.41616312,0.14490469,0.7657522,1.1235926,-0.040973827,0.14284657,0.7655221,0.656545,-0.33081034,-0.1561691,0.82269204,0.21687672,-0.24431293,-0.45984405,0.3604943,807.47253,817.9487,880.80585,765.16486,814.3223,0.7081298828125,-0.1322021484375,0.68707275390625,2.983245849609375,-2.893524169921875,-4.687957763671875,1.0,1.0,1.0,1.0,1.0,45.0,
2023-09-09 23:02:29.360,0.8260766,0.4381835,1.2027756,1.1214055,0.8506416,0.41616312,0.14490469,0.7657522,1.1235926,-0.040973827,0.14284657,0.7655221,0.656545,-0.33081034,-0.1561691,0.82269204,0.21687672,-0.24431293,-0.45984405,0.3604943,770.40295,789.34064,849.7802,781.685,764.7619,0.71453857421875,-0.1319580078125,0.68505859375,2.691650390625,-3.72344970703125,-3.177642822265625,1.0,1.0,1.0,1.0,1.0,45.0,
2023-09-09 23:02:29.361,0.95375973,0.4381835,1.2027756,1.1214055,1.0228708,0.41616312,0.14490469,0.7657522,1.1730003,-0.040973827,0.14284657,0.7655221,0.67073804,-0.33081034,-0.1561691,0.82269204,0.22448893,-0.24431293,-0.45984405,0.3604943,768.7912,796.5934,845.7509,769.19415,810.293,0.71453857421875,-0.1319580078125,0.68505859375,2.691650390625,-3.72344970703125,-3.177642822265625,1.0,1.0,1.0,1.0,1.0,45.0,
2023-09-09 23:02:29.373,0.95375973,0.4381835,1.2027756,1.1214055,1.0228708,0.41616312,0.14490469,0.7657522,1.1730003,-0.040973827,0.14284657,0.7655221,0.67073804,-0.33081034,-0.1561691,0.82269204,0.22448893,-0.24431293,-0.45984405,0.3604943,742.1978,789.34064,816.7399,753.8828,795.78754,0.70379638671875,-0.12652587890625,0.6881103515625,3.715972900390625,-1.57012939453125,-1.712188720703125,1.0,1.0,1.0,1.0,1.0,45.0,
2023-09-09 23:02:29.412,0.95375973,0.4381835,1.2027756,1.1214055,1.0228708,0.41616312,0.14490469,0.7657522,1.1730003,-0.040973827,0.14284657,0.7655221,0.67073804,-0.33081034,-0.1561691,0.82269204,0.22448893,-0.24431293,-0.45984405,0.3604943,749.85345,784.5055,792.5641,749.45056,1085.8975,0.6644287109375,-0.11395263671875,0.684326171875,4.05242919921875,0.25421142578125,-3.521575927734375,1.0,1.0,1.0,1.0,1.0,45.0,
2023-09-09 23:02:29.465,0.95375973,0.4381835,1.2027756,1.1214055,1.0228708,0.41616312,0.14490469,0.7657522,1.1730003,-0.040973827,0.14284657,0.7655221,0.67073804,-0.33081034,-0.1561691,0.82269204,0.22448893,-0.24431293,-0.45984405,0.3604943,751.4652,774.0293,781.685,767.1795,929.5604,0.6571044921875,-0.1202392578125,0.68634033203125,4.089813232421875,-2.1533203125,-4.725341796875,1.0,1.0,1.0,1.0,1.0,45.0,
2023-09-09 23:02:29.506,0.95375973,0.4381835,1.2027756,1.1214055,1.0228708,0.41616312,0.14490469,0.7657522,1.1730003,-0.040973827,0.14284657,0.7655221,0.67073804,-0.33081034,-0.1561691,0.82269204,0.22448893,-0.24431293,-0.45984405,0.3604943,755.4945,778.86444,781.28204,764.7619,807.8755,0.68536376953125,-0.10980224609375,0.6910400390625,4.119720458984375,-6.639404296875,-5.33843994140625,1.0,1.0,1.0,1.0,1.0,45.0,
2023-09-09 23:02:29.509,0.96854085,0.4381835,1.2027756,1.1214055,1.0420765,0.41616312,0.14490469,0.7657522,1.1730003,-0.040973827,0.14284657,0.7655221,0.6920108,-0.33081034,-0.1561691,0.82269204,0.23204896,-0.24431293,-0.45984405,0.3604943,761.53845,784.90845,781.28204,753.0769,751.8681,0.68536376953125,-0.10980224609375,0.6910400390625,4.119720458984375,-6.639404296875,-5.33843994140625,1.0,1.0,1.0,1.0,1.0,45.0,
2023-09-09 23:02:29.571,0.96854085,0.4381835,1.2027756,1.1214055,1.0420765,0.41616312,0.14490469,0.7657522,1.1730003,-0.040973827,0.14284657,0.7655221,0.6920108,-0.33081034,-0.1561691,0.82269204,0.23204896,-0.24431293,-0.45984405,0.3604943,784.90845,787.326,784.90845,732.1245,766.3736,0.6805419921875,-0.10968017578125,0.707763671875,4.179534912109375,-7.8656005859375,-3.57391357421875,1.0,1.0,1.0,1.0,1.0,45.0,
2023-09-09 23:02:29.576,0.9940191,0.4381835,1.2027756,1.1214055,1.0685991,0.41616312,0.14490469,0.7657522,1.1728288,-0.040973827,0.14284657,0.7655221,0.7129418,-0.33081034,-0.1561691,0.82269204,0.23808606,-0.24431293,-0.45984405,0.3604943,779.2674,784.5055,786.9231,745.0183,827.619,0.6805419921875,-0.10968017578125,0.707763671875,4.179534912109375,-7.8656005859375,-3.57391357421875,1.0,1.0,1.0,1.0,1.0,45.0,
2023-09-09 23:02:29.647,0.9940191,0.4381835,1.2027756,1.1214055,1.0685991,0.41616312,0.14490469,0.7657522,1.1728288,-0.040973827,0.14284657,0.7655221,0.7129418,-0.33081034,-0.1561691,0.82269204,0.23808606,-0.24431293,-0.45984405,0.3604943,784.10254,780.4762,787.72894,752.27106,800.2198,0.7069091796875,-0.1048583984375,0.6854248046875,1.936492919921875,-7.2076416015625,-3.94775390625,1.0,1.0,1.0,1.0,1.0,45.0,
2023-09-09 23:02:29.705,0.9940191,0.4381835,1.2027756,1.1214055,1.0685991,0.41616312,0.14490469,0.7657522,1.1728288,-0.040973827,0.14284657,0.7655221,0.7129418,-0.33081034,-0.1561691,0.82269204,0.23808606,-0.24431293,-0.45984405,0.3604943,769.59705,762.3443,779.67035,734.5421,785.31134,0.7022705078125,-0.11273193359375,0.67822265625,0.157012939453125,-7.274932861328125,-4.972076416015625,1.0,1.0,1.0,1.0,1.0,45.0,
2023-09-09 23:02:29.711,1.0206795,0.4381835,1.2027756,1.1214055,1.099289,0.41616312,0.14490469,0.7657522,1.1726017,-0.040973827,0.14284657,0.7655221,0.72820616,-0.33081034,-0.1561691,0.82269204,0.23575419,-0.24431293,-0.45984405,0.3604943,745.0183,771.6117,782.0879,746.63007,1211.2087,0.7022705078125,-0.11273193359375,0.67822265625,0.157012939453125,-7.274932861328125,-4.972076416015625,1.0,1.0,1.0,1.0,1.0,45.0,
2023-09-09 23:02:29.739,1.0206795,0.4381835,1.2027756,1.1214055,1.099289,0.41616312,0.14490469,0.7657522,1.1726017,-0.040973827,0.14284657,0.7655221,0.72820616,-0.33081034,-0.1561691,0.82269204,0.23575419,-0.24431293,-0.45984405,0.3604943,778.0586,766.3736,774.83514,701.50183,1001.28204,0.72454833984375,-0.1138916015625,0.6767578125,-0.396270751953125,-9.323577880859377,-5.78704833984375,1.0,1.0,1.0,1.0,1.0,45.0,
2023-09-09 23:02:29.773,1.0206795,0.4381835,1.2027756,1.1214055,1.099289,0.41616312,0.14490469,0.7657522,1.1726017,-0.040973827,0.14284657,0.7655221,0.72820616,-0.33081034,-0.1561691,0.82269204,0.23575419,-0.24431293,-0.45984405,0.3604943,768.7912,769.19415,781.685,711.1722,794.9817,0.742919921875,-0.1260986328125,0.65960693359375,-1.472930908203125,-7.58148193359375,-5.794525146484375,1.0,1.0,1.0,1.0,1.0,45.0,
2023-09-09 23:02:29.779,1.0432087,0.4381835,1.2027756,1.1214055,1.1308727,0.41616312,0.14490469,0.7657522,1.1689254,-0.040973827,0.14284657,0.7655221,0.7342223,-0.33081034,-0.1561691,0.82269204,0.22307436,-0.24431293,-0.45984405,0.3604943,758.315,776.8498,784.90845,733.73627,867.50916,0.742919921875,-0.1260986328125,0.65960693359375,-1.472930908203125,-7.58148193359375,-5.794525146484375,1.0,1.0,1.0,1.0,1.0,45.0,
2023-09-09 23:02:29.865,1.0432087,0.4381835,1.2027756,1.1214055,1.1308727,0.41616312,0.14490469,0.7657522,1.1689254,-0.040973827,0.14284657,0.7655221,0.7342223,-0.33081034,-0.1561691,0.82269204,0.22307436,-0.24431293,-0.45984405,0.3604943,748.24176,774.0293,776.8498,705.5311,777.25275,0.7618408203125,-0.11956787109375,0.65045166015625,-2.34771728515625,-7.67120361328125,-4.50103759765625,1.0,1.0,1.0,1.0,1.0,45.0,
2023-09-09 23:02:29.931,1.0432087,0.4381835,1.2027756,1.1214055,1.1308727,0.41616312,0.14490469,0.7657522,1.1689254,-0.040973827,0.14284657,0.7655221,0.7342223,-0.33081034,-0.1561691,0.82269204,0.22307436,-0.24431293,-0.45984405,0.3604943,760.32965,766.3736,780.4762,725.2747,757.1062,0.759765625,-0.12213134765625,0.6513671875,-3.147735595703125,-5.921630859375,-3.835601806640625,1.0,1.0,1.0,1.0,1.0,45.0,
2023-09-09 23:02:29.932,1.057949,0.4381835,1.2027756,1.1214055,1.1625824,0.41616312,0.14490469,0.7657522,1.1689254,-0.040973827,0.14284657,0.7655221,0.7336301,-0.33081034,-0.1561691,0.82269204,0.20771083,-0.24431293,-0.45984405,0.3604943,760.7326,767.1795,777.6557,729.304,778.86444,0.759765625,-0.12213134765625,0.6513671875,-3.147735595703125,-5.921630859375,-3.835601806640625,1.0,1.0,1.0,1.0,1.0,45.0,
2023-09-09 23:02:29.978,1.057949,0.4381835,1.2027756,1.1214055,1.1625824,0.41616312,0.14490469,0.7657522,1.1689254,-0.040973827,0.14284657,0.7655221,0.7336301,-0.33081034,-0.1561691,0.82269204,0.20771083,-0.24431293,-0.45984405,0.3604943,760.32965,767.5824,767.5824,738.1685,737.76556,0.7373046875,-0.15234375,0.62701416015625,-3.45428466796875,-1.92901611328125,-6.347808837890625,1.0,1.0,1.0,1.0,1.0,45.0,
2023-09-09 23:02:30.010,1.057949,0.4381835,1.2027756,1.1214055,1.1625824,0.41616312,0.14490469,0.7657522,1.1689254,-0.040973827,0.14284657,0.7655221,0.7336301,-0.33081034,-0.1561691,0.82269204,0.20771083,-0.24431293,-0.45984405,0.3604943,780.87915,778.0586,789.34064,731.7216,801.8315,0.74932861328125,-0.14813232421875,0.625732421875,-0.022430419921875,-4.32159423828125,-5.30853271484375,1.0,1.0,1.0,1.0,1.0,45.0,
2023-09-09 23:02:30.012,1.066133,0.4381835,1.2027756,1.1214055,1.1969352,0.41616312,0.14490469,0.7657522,1.1689254,-0.040973827,0.14284657,0.7655221,0.73520225,-0.33081034,-0.1561691,0.82269204,0.20386276,-0.24431293,-0.45984405,0.3604943,774.43225,780.07324,791.75824,737.76556,755.4945,0.74932861328125,-0.14813232421875,0.625732421875,-0.022430419921875,-4.32159423828125,-5.30853271484375,1.0,1.0,1.0,1.0,1.0,45.0,
2023-09-09 23:02:30.083,1.066133,0.4381835,1.2027756,1.1214055,1.1969352,0.41616312,0.14490469,0.7657522,1.1689254,-0.040973827,0.14284657,0.7655221,0.73520225,-0.33081034,-0.1561691,0.82269204,0.20386276,-0.24431293,-0.45984405,0.3604943,746.63007,773.6264,793.36993,739.7802,853.8095,0.76361083984375,-0.13031005859375,0.64703369140625,3.117828369140625,-5.60760498046875,-2.37762451171875,1.0,1.0,1.0,1.0,1.0,45.0,
2023-09-09 23:02:30.087,1.0709326,0.4381835,1.2027756,1.1214055,1.238364,0.41616312,0.14490469,0.7657522,1.1689254,-0.040973827,0.14284657,0.7655221,0.7480012,-0.33081034,-0.1561691,0.82269204,0.21931873,-0.24431293,-0.45984405,0.3604943,755.89746,778.46155,795.38464,712.381,883.22345,0.76361083984375,-0.13031005859375,0.64703369140625,3.117828369140625,-5.60760498046875,-2.37762451171875,1.0,1.0,1.0,1.0,1.0,45.0,
2023-09-09 23:02:30.163,1.0709326,0.4381835,1.2027756,1.1214055,1.238364,0.41616312,0.14490469,0.7657522,1.1689254,-0.040973827,0.14284657,0.7655221,0.7480012,-0.33081034,-0.1561691,0.82269204,0.21931873,-0.24431293,-0.45984405,0.3604943,740.18317,742.6007,766.77655,725.6777,830.84247,0.7408447265625,-0.12969970703125,0.6451416015625,2.811279296875,-4.089813232421875,-1.398162841796875,1.0,1.0,1.0,1.0,1.0,45.0,
2023-09-09 23:02:30.203,1.0709326,0.4381835,1.2027756,1.1214055,1.238364,0.41616312,0.14490469,0.7657522,1.1689254,-0.040973827,0.14284657,0.7655221,0.7480012,-0.33081034,-0.1561691,0.82269204,0.21931873,-0.24431293,-0.45984405,0.3604943,743.00366,723.663,738.5714,708.7546,864.2857,0.73651123046875,-0.11785888671875,0.635986328125,3.15521240234375,-3.90289306640625,-3.48419189453125,1.0,1.0,1.0,1.0,1.0,45.0,
2023-09-09 23:02:30.211,1.0843378,0.4381835,1.2027756,1.1214055,1.2442615,0.41616312,0.14490469,0.7657522,1.1689254,-0.040973827,0.14284657,0.7655221,0.7261536,-0.33081034,-0.1561691,0.82269204,0.25922728,-0.24431293,-0.45984405,0.3604943,756.30035,730.9158,743.8095,718.8278,963.8095,0.73651123046875,-0.11785888671875,0.635986328125,3.15521240234375,-3.90289306640625,-3.48419189453125,1.0,1.0,1.0,1.0,1.0,45.0,
2023-09-09 23:02:30.247,1.0843378,0.4381835,1.2027756,1.1214055,1.2442615,0.41616312,0.14490469,0.7657522,1.1689254,-0.040973827,0.14284657,0.7655221,0.7261536,-0.33081034,-0.1561691,0.82269204,0.25922728,-0.24431293,-0.45984405,0.3604943,746.2271,721.6484,736.1539,741.39197,923.5165,0.69757080078125,-0.12261962890625,0.63726806640625,0.276641845703125,-1.5850830078125,-8.9422607421875,1.0,1.0,1.0,1.0,1.0,45.0,
2023-09-09 23:02:30.281,1.0843378,0.4381835,1.2027756,1.1214055,1.2442615,0.41616312,0.14490469,0.7657522,1.1689254,-0.040973827,0.14284657,0.7655221,0.7261536,-0.33081034,-0.1561691,0.82269204,0.25922728,-0.24431293,-0.45984405,0.3604943,753.0769,737.76556,729.304,711.978,743.8095,0.72381591796875,-0.12384033203125,0.65283203125,0.530853271484375,-6.273040771484375,-11.3348388671875,1.0,1.0,1.0,1.0,1.0,45.0,
2023-09-09 23:02:30.287,1.1111033,0.85357684,1.2027756,1.1214055,1.2478989,0.49683303,0.14490469,0.7657522,1.1689254,0.38005355,0.14284657,0.7655221,0.7067537,-0.049704287,-0.1561691,0.82269204,0.2862862,-0.2939649,-0.45984405,0.3604943,749.0476,752.27106,754.68866,695.05493,749.85345,0.72381591796875,-0.12384033203125,0.65283203125,0.530853271484375,-6.273040771484375,-11.3348388671875,1.0,1.0,1.0,1.0,1.0,45.0,
2023-09-09 23:02:30.397,1.1111033,0.85357684,1.2027756,1.1214055,1.2478989,0.49683303,0.14490469,0.7657522,1.1689254,0.38005355,0.14284657,0.7655221,0.7067537,-0.049704287,-0.1561691,0.82269204,0.2862862,-0.2939649,-0.45984405,0.3604943,753.8828,751.06226,787.326,727.6923,767.98535,0.76922607421875,-0.11920166015625,0.65283203125,5.27862548828125,-10.160980224609377,-5.30853271484375,1.0,1.0,1.0,1.0,1.0,45.0,
2023-09-09 23:02:30.407,1.1689273,0.85357684,1.2027756,1.1214055,1.30122,0.49683303,0.14490469,0.7657522,1.1689254,0.38005355,0.14284657,0.7655221,0.7139983,-0.049704287,-0.1561691,0.82269204,0.2993326,-0.2939649,-0.45984405,0.3604943,745.82416,732.52747,760.7326,707.1429,770.0,0.76922607421875,-0.11920166015625,0.65283203125,5.27862548828125,-10.160980224609377,-5.30853271484375,1.0,1.0,1.0,1.0,1.0,45.0,
2023-09-09 23:02:30.448,1.1689273,0.85357684,1.2027756,1.1214055,1.30122,0.49683303,0.14490469,0.7657522,1.1689254,0.38005355,0.14284657,0.7655221,0.7139983,-0.049704287,-0.1561691,0.82269204,0.2993326,-0.2939649,-0.45984405,0.3604943,748.6447,730.5128,751.4652,701.0989,776.04395,0.76806640625,-0.084716796875,0.65716552734375,6.9683837890625,-7.200164794921875,-2.213134765625,1.0,1.0,1.0,1.0,1.0,45.0,
2023-09-09 23:02:30.479,1.1689273,0.85357684,1.2027756,1.1214055,1.30122,0.49683303,0.14490469,0.7657522,1.1689254,0.38005355,0.14284657,0.7655221,0.7139983,-0.049704287,-0.1561691,0.82269204,0.2993326,-0.2939649,-0.45984405,0.3604943,745.42126,725.6777,661.2088,684.17584,998.86444,0.755126953125,-0.07525634765625,0.62982177734375,4.44122314453125,-3.63372802734375,-5.60760498046875,1.0,1.0,1.0,1.0,1.0,45.0,
2023-09-09 23:02:30.540,1.1689273,0.85357684,1.2027756,1.1214055,1.30122,0.49683303,0.14490469,0.7657522,1.1689254,0.38005355,0.14284657,0.7655221,0.7139983,-0.049704287,-0.1561691,0.82269204,0.2993326,-0.2939649,-0.45984405,0.3604943,689.81683,680.9524,529.45056,645.4945,799.011,0.73626708984375,-0.06927490234375,0.6253662109375,3.820648193359375,-1.607513427734375,-6.14593505859375,1.0,1.0,1.0,1.0,1.0,45.0,
2023-09-09 23:02:30.541,1.2368448,0.85357684,1.2027756,1.1214055,1.357648,0.49683303,0.14490469,0.7657522,1.1689254,0.38005355,0.14284657,0.7655221,0.69682765,-0.049704287,-0.1561691,0.82269204,0.3085297,-0.2939649,-0.45984405,0.3604943,685.38464,684.57874,515.34796,654.35895,810.696,0.73626708984375,-0.06927490234375,0.6253662109375,3.820648193359375,-1.607513427734375,-6.14593505859375,1.0,1.0,1.0,1.0,1.0,45.0,
2023-09-09 23:02:30.613,1.2368448,0.85357684,1.2027756,1.1214055,1.357648,0.49683303,0.14490469,0.7657522,1.1689254,0.38005355,0.14284657,0.7655221,0.69682765,-0.049704287,-0.1561691,0.82269204,0.3085297,-0.2939649,-0.45984405,0.3604943,784.5055,763.95605,719.6337,714.7985,809.89014,0.7452392578125,-0.07977294921875,0.63641357421875,-1.457977294921875,-5.1141357421875,-6.29547119140625,1.0,1.0,1.0,1.0,1.0,45.0,
2023-09-09 23:02:30.615,1.29944,0.85357684,1.2027756,1.1214055,1.3947792,0.49683303,0.14490469,0.7657522,1.1567801,0.38005355,0.14284657,0.7655221,0.64064,-0.049704287,-0.1561691,0.82269204,0.31530043,-0.2939649,-0.45984405,0.3604943,784.10254,767.1795,742.6007,709.5604,891.28204,0.7452392578125,-0.07977294921875,0.63641357421875,-1.457977294921875,-5.1141357421875,-6.29547119140625,1.0,1.0,1.0,1.0,1.0,45.0,
2023-09-09 23:02:30.667,1.29944,0.85357684,1.2027756,1.1214055,1.3947792,0.49683303,0.14490469,0.7657522,1.1567801,0.38005355,0.14284657,0.7655221,0.64064,-0.049704287,-0.1561691,0.82269204,0.31530043,-0.2939649,-0.45984405,0.3604943,781.685,769.59705,788.93774,716.4103,755.89746,0.7900390625,-0.14813232421875,0.61749267578125,-6.063690185546875,-6.4599609375,-7.46185302734375,1.0,1.0,1.0,1.0,1.0,45.0,
2023-09-09 23:02:30.735,1.29944,0.85357684,1.2027756,1.1214055,1.3947792,0.49683303,0.14490469,0.7657522,1.1567801,0.38005355,0.14284657,0.7655221,0.64064,-0.049704287,-0.1561691,0.82269204,0.31530043,-0.2939649,-0.45984405,0.3604943,770.40295,745.42126,784.10254,737.76556,808.68134,0.82476806640625,-0.16021728515625,0.56005859375,0.64300537109375,-1.973876953125,0.351409912109375,1.0,1.0,1.0,1.0,1.0,45.0,
2023-09-09 23:02:30.774,1.29944,0.85357684,1.2027756,1.1214055,1.3947792,0.49683303,0.14490469,0.7657522,1.1567801,0.38005355,0.14284657,0.7655221,0.64064,-0.049704287,-0.1561691,0.82269204,0.31530043,-0.2939649,-0.45984405,0.3604943,764.7619,729.707,794.57874,755.4945,749.45056,0.71807861328125,-0.13409423828125,0.59503173828125,7.125396728515625,-2.3626708984375,6.20574951171875,1.0,1.0,1.0,1.0,1.0,45.0,
2023-09-09 23:02:30.816,1.29944,0.85357684,1.2027756,1.1214055,1.3947792,0.49683303,0.14490469,0.7657522,1.1567801,0.38005355,0.14284657,0.7655221,0.64064,-0.049704287,-0.1561691,0.82269204,0.31530043,-0.2939649,-0.45984405,0.3604943,765.9707,791.3553,810.696,763.5531,767.5824,0.74603271484375,-0.1124267578125,0.6043701171875,8.366546630859375,-6.02630615234375,0.261688232421875,1.0,1.0,1.0,1.0,1.0,45.0,
2023-09-09 23:02:30.942,1.29944,0.85357684,1.2027756,1.1214055,1.3947792,0.49683303,0.14490469,0.7657522,1.1567801,0.38005355,0.14284657,0.7655221,0.64064,-0.049704287,-0.1561691,0.82269204,0.31530043,-0.2939649,-0.45984405,0.3604943,772.4176,795.38464,834.87177,732.1245,785.31134,0.77142333984375,-0.12841796875,0.635986328125,8.98712158203125,-5.24871826171875,-1.158905029296875,1.0,1.0,1.0,1.0,1.0,45.0,
2023-09-09 23:02:30.954,1.29944,0.85357684,1.2027756,1.1214055,1.3947792,0.49683303,0.14490469,0.7657522,1.1567801,0.38005355,0.14284657,0.7655221,0.64064,-0.049704287,-0.1561691,0.82269204,0.31530043,-0.2939649,-0.45984405,0.3604943,751.06226,772.01465,769.19415,734.1392,790.14655,0.801025390625,-0.13165283203125,0.61883544921875,10.146026611328123,-4.658050537109375,-0.059814453125,1.0,1.0,1.0,1.0,1.0,45.0,
2023-09-09 23:02:31.005,1.29944,0.85357684,1.2027756,1.1214055,1.3947792,0.49683303,0.14490469,0.7657522,1.1567801,0.38005355,0.14284657,0.7655221,0.64064,-0.049704287,-0.1561691,0.82269204,0.31530043,-0.2939649,-0.45984405,0.3604943,771.2088,739.3773,757.1062,730.5128,780.07324,0.78192138671875,-0.0970458984375,0.6103515625,12.5311279296875,-2.79632568359375,1.7645263671875,1.0,1.0,1.0,1.0,1.0,45.0,
2023-09-09 23:02:31.062,1.29944,0.85357684,1.2027756,1.1214055,1.3947792,0.49683303,0.14490469,0.7657522,1.1567801,0.38005355,0.14284657,0.7655221,0.64064,-0.049704287,-0.1561691,0.82269204,0.31530043,-0.2939649,-0.45984405,0.3604943,748.24176,708.3516,793.7729,743.00366,780.87915,0.71868896484375,-0.06951904296875,0.6190185546875,14.452667236328123,1.27105712890625,-1.218719482421875,1.0,1.0,1.0,1.0,1.0,45.0,
2023-09-09 23:02:31.139,1.29944,0.85357684,1.2027756,1.1214055,1.3947792,0.49683303,0.14490469,0.7657522,1.1567801,0.38005355,0.14284657,0.7655221,0.64064,-0.049704287,-0.1561691,0.82269204,0.31530043,-0.2939649,-0.45984405,0.3604943,768.3883,807.47253,862.674,762.3443,720.4396,0.7315673828125,-0.05413818359375,0.61956787109375,13.92181396484375,0.216827392578125,-3.15521240234375,1.0,1.0,1.0,1.0,1.0,45.0,
2023-09-09 23:02:31.205,1.29944,0.85357684,1.2027756,1.1214055,1.3947792,0.49683303,0.14490469,0.7657522,1.1567801,0.38005355,0.14284657,0.7655221,0.64064,-0.049704287,-0.1561691,0.82269204,0.31530043,-0.2939649,-0.45984405,0.3604943,773.6264,807.0696,861.4652,734.1392,756.7033,0.764892578125,-0.0361328125,0.656494140625,13.376007080078123,-4.284210205078125,-0.13458251953125,1.0,1.0,1.0,1.0,1.0,45.0,
2023-09-09 23:02:31.268,1.29944,0.85357684,1.2027756,1.1214055,1.3947792,0.49683303,0.14490469,0.7657522,1.1567801,0.38005355,0.14284657,0.7655221,0.64064,-0.049704287,-0.1561691,0.82269204,0.31530043,-0.2939649,-0.45984405,0.3604943,786.52014,782.49084,821.1722,735.7509,821.1722,0.78924560546875,-0.0289306640625,0.64093017578125,8.65814208984375,-5.196380615234375,1.98883056640625,1.0,1.0,1.0,1.0,1.0,45.0,
2023-09-09 23:02:31.316,1.29944,0.85357684,1.2027756,1.1214055,1.3947792,0.49683303,0.14490469,0.7657522,1.1567801,0.38005355,0.14284657,0.7655221,0.64064,-0.049704287,-0.1561691,0.82269204,0.31530043,-0.2939649,-0.45984405,0.3604943,769.19415,753.0769,785.31134,738.97437,913.0403,0.78045654296875,-0.045166015625,0.6300048828125,6.878662109375,-5.8917236328125,3.2000732421875,1.0,1.0,1.0,1.0,1.0,45.0,
2023-09-09 23:02:31.324,1.29944,0.85357684,1.2027756,1.1214055,1.3947792,0.49683303,0.14490469,0.7657522,1.1567801,0.38005355,0.14284657,0.7655221,0.64064,-0.049704287,-0.1561691,0.82269204,0.31530043,-0.2939649,-0.45984405,0.3604943,760.32965,722.8571,761.9414,707.1429,817.1429,0.7708740234375,-0.034912109375,0.62261962890625,8.1048583984375,-3.282318115234375,6.108551025390625,1.0,1.0,1.0,1.0,1.0,45.0,
2023-09-09 23:02:31.447,1.29944,0.85357684,1.2027756,1.1214055,1.3947792,0.49683303,0.14490469,0.7657522,1.1567801,0.38005355,0.14284657,0.7655221,0.64064,-0.049704287,-0.1561691,0.82269204,0.31530043,-0.2939649,-0.45984405,0.3604943,766.77655,755.4945,759.12085,722.8571,672.8938,0.74639892578125,-0.036865234375,0.60595703125,7.080535888671875,-1.65985107421875,4.164581298828125,1.0,1.0,1.0,1.0,1.0,45.0,
2023-09-09 23:02:31.494,1.29944,0.85357684,1.2027756,1.1214055,1.3947792,0.49683303,0.14490469,0.7657522,1.1567801,0.38005355,0.14284657,0.7655221,0.64064,-0.049704287,-0.1561691,0.82269204,0.31530043,-0.2939649,-0.45984405,0.3604943,741.79486,786.1172,794.9817,744.21246,718.022,0.75146484375,-0.0460205078125,0.6072998046875,5.87677001953125,-4.044952392578125,1.786956787109375,1.0,1.0,1.0,1.0,1.0,45.0,
2023-09-09 23:02:31.539,1.29944,0.85357684,1.2027756,1.1214055,1.3947792,0.49683303,0.14490469,0.7657522,1.1567801,0.38005355,0.14284657,0.7655221,0.64064,-0.049704287,-0.1561691,0.82269204,0.31530043,-0.2939649,-0.45984405,0.3604943,749.45056,798.20514,803.44324,741.79486,758.315,0.7703857421875,-0.0665283203125,0.59930419921875,6.362762451171875,-5.719757080078125,1.353302001953125,1.0,1.0,1.0,1.0,1.0,45.0,
2023-09-09 23:02:31.586,1.29944,0.85357684,1.2027756,1.1214055,1.3947792,0.49683303,0.14490469,0.7657522,1.1567801,0.38005355,0.14284657,0.7655221,0.64064,-0.049704287,-0.1561691,0.82269204,0.31530043,-0.2939649,-0.45984405,0.3604943,745.0183,772.4176,788.93774,742.6007,854.61536,0.73541259765625,-0.07928466796875,0.6065673828125,8.0450439453125,-3.177642822265625,5.7421875,1.0,1.0,1.0,1.0,1.0,45.0,
2023-09-09 23:02:31.594,1.29944,0.85357684,1.2027756,1.1214055,1.3947792,0.49683303,0.14490469,0.7657522,1.1567801,0.38005355,0.14284657,0.7655221,0.64064,-0.049704287,-0.1561691,0.82269204,0.31530043,-0.2939649,-0.45984405,0.3604943,752.27106,787.326,789.34064,738.5714,837.6923,0.7508544921875,-0.0693359375,0.62542724609375,7.25250244140625,-6.901092529296875,8.673095703125,1.0,1.0,1.0,1.0,1.0,45.0,
2023-09-09 23:02:31.699,1.29944,0.85357684,1.2027756,1.1214055,1.3947792,0.49683303,0.14490469,0.7657522,1.1567801,0.38005355,0.14284657,0.7655221,0.64064,-0.049704287,-0.1561691,0.82269204,0.31530043,-0.2939649,-0.45984405,0.3604943,755.4945,794.57874,789.7436,732.52747,782.8938,0.772705078125,-0.08441162109375,0.63409423828125,3.760833740234375,-11.67877197265625,7.3272705078125,1.0,1.0,1.0,1.0,1.0,45.0,
2023-09-09 23:02:31.742,1.29944,0.85357684,1.2027756,1.1214055,1.3947792,0.49683303,0.14490469,0.7657522,1.1567801,0.38005355,0.14284657,0.7655221,0.64064,-0.049704287,-0.1561691,0.82269204,0.31530043,-0.2939649,-0.45984405,0.3604943,766.77655,724.4689,726.08057,732.1245,767.98535,0.81640625,-0.1014404296875,0.61273193359375,3.506622314453125,-10.729217529296877,1.60003662109375,1.0,1.0,1.0,1.0,1.0,45.0,
2023-09-09 23:02:31.799,1.29944,0.85357684,1.2027756,1.1214055,1.3947792,0.49683303,0.14490469,0.7657522,1.1567801,0.38005355,0.14284657,0.7655221,0.64064,-0.049704287,-0.1561691,0.82269204,0.31530043,-0.2939649,-0.45984405,0.3604943,757.9121,670.87915,653.5531,743.00366,982.3443,0.80499267578125,-0.1112060546875,0.59613037109375,4.26177978515625,-5.719757080078125,-3.730926513671875,1.0,1.0,1.0,1.0,1.0,45.0,
2023-09-09 23:02:31.861,1.29944,0.85357684,1.2027756,1.1214055,1.3947792,0.49683303,0.14490469,0.7657522,1.1567801,0.38005355,0.14284657,0.7655221,0.64064,-0.049704287,-0.1561691,0.82269204,0.31530043,-0.2939649,-0.45984405,0.3604943,749.45056,691.02563,637.03296,731.31866,746.2271,0.7886962890625,-0.11639404296875,0.59527587890625,4.29168701171875,-3.45428466796875,-4.927215576171875,1.0,1.0,1.0,1.0,1.0,45.0,
2023-09-09 23:02:31.988,1.29944,0.85357684,1.2027756,1.1214055,1.3947792,0.49683303,0.14490469,0.7657522,1.1567801,0.38005355,0.14284657,0.7655221,0.64064,-0.049704287,-0.1561691,0.82269204,0.31530043,-0.2939649,-0.45984405,0.3604943,781.28204,766.3736,747.4359,727.6923,779.2674,0.78436279296875,-0.121337890625,0.58782958984375,4.284210205078125,-5.360870361328125,-5.323486328125,1.0,1.0,1.0,1.0,1.0,45.0,
2023-09-09 23:02:31.992,1.2793137,0.85357684,1.2027756,1.1214055,0.8984234,0.49683303,0.14490469,0.7657522,0.7155397,0.38005355,0.14284657,0.7655221,0.37427765,-0.049704287,-0.1561691,0.82269204,0.1643283,-0.2939649,-0.45984405,0.3604943,752.27106,764.35895,755.4945,724.4689,911.02563,0.78436279296875,-0.121337890625,0.58782958984375,4.284210205078125,-5.360870361328125,-5.323486328125,1.0,1.0,1.0,1.0,1.0,45.0,
2023-09-09 23:02:32.001,1.2793137,0.85357684,1.2027756,1.1214055,0.8984234,0.49683303,0.14490469,0.7657522,0.7155397,0.38005355,0.14284657,0.7655221,0.37427765,-0.049704287,-0.1561691,0.82269204,0.1643283,-0.2939649,-0.45984405,0.3604943,765.9707,762.3443,774.43225,723.663,819.5604,0.80133056640625,-0.1337890625,0.57159423828125,6.6094970703125,-5.644989013671875,-7.798309326171875,1.0,1.0,1.0,1.0,1.0,45.0,
2023-09-09 23:02:32.037,1.2793137,0.85357684,1.2027756,1.1214055,0.8984234,0.49683303,0.14490469,0.7657522,0.7155397,0.38005355,0.14284657,0.7655221,0.37427765,-0.049704287,-0.1561691,0.82269204,0.1643283,-0.2939649,-0.45984405,0.3604943,755.89746,754.2857,719.2308,739.7802,815.12823,0.83856201171875,-0.1063232421875,0.56451416015625,13.8470458984375,-2.953338623046875,-3.940277099609375,1.0,1.0,1.0,1.0,1.0,45.0,
2023-09-09 23:02:32.041,1.2397923,0.85357684,1.2027756,1.1214055,0.85831773,0.49683303,0.14490469,0.7657522,0.73893726,0.38005355,0.14284657,0.7655221,0.378379,-0.049704287,-0.1561691,0.82269204,0.15683955,-0.2939649,-0.45984405,0.3604943,753.0769,761.9414,691.8315,723.663,981.9414,0.83856201171875,-0.1063232421875,0.56451416015625,13.8470458984375,-2.953338623046875,-3.940277099609375,1.0,1.0,1.0,1.0,1.0,45.0,
2023-09-09 23:02:32.048,1.2397923,0.85357684,1.2027756,1.1214055,0.85831773,0.49683303,0.14490469,0.7657522,0.73893726,0.38005355,0.14284657,0.7655221,0.378379,-0.049704287,-0.1561691,0.82269204,0.15683955,-0.2939649,-0.45984405,0.3604943,739.7802,752.27106,687.3993,724.0659,849.7802,0.824951171875,-0.06231689453125,0.58648681640625,16.052703857421875,-2.332763671875,4.134674072265625,1.0,1.0,1.0,1.0,1.0,45.0,
2023-09-09 23:02:32.133,1.2397923,0.85357684,1.2027756,1.1214055,0.85831773,0.49683303,0.14490469,0.7657522,0.73893726,0.38005355,0.14284657,0.7655221,0.378379,-0.049704287,-0.1561691,0.82269204,0.15683955,-0.2939649,-0.45984405,0.3604943,732.9304,754.2857,682.1612,707.1429,728.0952,0.788330078125,-0.03399658203125,0.583740234375,13.106842041015623,-0.216827392578125,4.77020263671875,1.0,1.0,1.0,1.0,1.0,45.0,
2023-09-09 23:02:32.141,1.1874982,0.85357684,1.2027756,0.58670145,0.816326,0.49683303,0.14490469,0.5011108,0.79402345,0.38005355,0.14284657,0.8455747,0.41308662,-0.049704287,-0.1561691,0.907554,0.14723729,-0.2939649,-0.45984405,0.94208634,717.2161,758.71796,664.43225,704.3223,777.6557,0.788330078125,-0.03399658203125,0.583740234375,13.106842041015623,-0.216827392578125,4.77020263671875,1.0,1.0,1.0,1.0,1.0,45.0,
2023-09-09 23:02:32.242,1.1874982,0.85357684,1.2027756,0.58670145,0.816326,0.49683303,0.14490469,0.5011108,0.79402345,0.38005355,0.14284657,0.8455747,0.41308662,-0.049704287,-0.1561691,0.907554,0.14723729,-0.2939649,-0.45984405,0.94208634,724.0659,787.326,705.9341,702.71063,753.47986,0.7515869140625,-0.0379638671875,0.6021728515625,9.9591064453125,-0.740203857421875,3.3795166015625,1.0,1.0,1.0,1.0,1.0,45.0,
2023-09-09 23:02:32.250,1.156622,0.85357684,1.2027756,0.5815698,0.7810322,0.49683303,0.14490469,0.52783924,0.8270211,0.38005355,0.14284657,0.9289481,0.4621727,-0.049704287,-0.1561691,0.88366747,0.13770214,-0.2939649,-0.45984405,0.9020466,736.55676,807.0696,755.89746,726.08057,919.89014,0.7515869140625,-0.0379638671875,0.6021728515625,9.9591064453125,-0.740203857421875,3.3795166015625,1.0,1.0,1.0,1.0,1.0,45.0,
2023-09-09 23:02:32.311,1.156622,0.85357684,1.2027756,0.5815698,0.7810322,0.49683303,0.14490469,0.52783924,0.8270211,0.38005355,0.14284657,0.9289481,0.4621727,-0.049704287,-0.1561691,0.88366747,0.13770214,-0.2939649,-0.45984405,0.9020466,729.707,810.293,755.4945,712.381,712.7839,0.7691650390625,-0.044921875,0.59228515625,7.245025634765625,-2.938385009765625,-0.171966552734375,1.0,1.0,1.0,1.0,1.0,45.0,
2023-09-09 23:02:32.365,1.156622,0.85357684,1.2027756,0.5815698,0.7810322,0.49683303,0.14490469,0.52783924,0.8270211,0.38005355,0.14284657,0.9289481,0.4621727,-0.049704287,-0.1561691,0.88366747,0.13770214,-0.2939649,-0.45984405,0.9020466,724.87177,805.8608,772.8205,704.7253,771.2088,0.77630615234375,-0.0443115234375,0.6031494140625,6.32537841796875,-3.57391357421875,-2.07855224609375,1.0,1.0,1.0,1.0,1.0,45.0,
2023-09-09 23:02:32.375,1.156622,0.85357684,1.2027756,0.5815698,0.7810322,0.49683303,0.14490469,0.52783924,0.8270211,0.38005355,0.14284657,0.9289481,0.4621727,-0.049704287,-0.1561691,0.88366747,0.13770214,-0.2939649,-0.45984405,0.9020466,738.97437,791.3553,755.89746,620.10986,815.9341,0.78900146484375,-0.04705810546875,0.6024169921875,6.542205810546875,-3.24493408203125,-2.265472412109375,1.0,1.0,1.0,1.0,1.0,45.0,
2023-09-09 23:02:32.375,1.1695886,0.85357684,1.2027756,0.5815698,0.7539028,0.49683303,0.14490469,0.52783924,0.8270211,0.38005355,0.14284657,0.9289481,0.5086026,-0.049704287,-0.1561691,0.88366747,0.12983203,-0.2939649,-0.45984405,0.9020466,731.31866,791.3553,756.30035,616.08057,778.0586,0.78900146484375,-0.04705810546875,0.6024169921875,6.542205810546875,-3.24493408203125,-2.265472412109375,1.0,1.0,1.0,1.0,1.0,45.0,
2023-09-09 23:02:32.431,1.1695886,0.85357684,1.2027756,0.5815698,0.7539028,0.49683303,0.14490469,0.52783924,0.8270211,0.38005355,0.14284657,0.9289481,0.5086026,-0.049704287,-0.1561691,0.88366747,0.12983203,-0.2939649,-0.45984405,0.9020466,755.4945,778.0586,751.06226,678.93774,788.1319,0.78375244140625,-0.0496826171875,0.5965576171875,6.7291259765625,-2.609405517578125,-0.052337646484375,1.0,1.0,1.0,1.0,1.0,45.0,
2023-09-09 23:02:32.498,1.1695886,0.85357684,1.2027756,0.5815698,0.7539028,0.49683303,0.14490469,0.52783924,0.8270211,0.38005355,0.14284657,0.9289481,0.5086026,-0.049704287,-0.1561691,0.88366747,0.12983203,-0.2939649,-0.45984405,0.9020466,766.77655,782.49084,759.5238,682.5641,743.4066,0.77899169921875,-0.0517578125,0.59649658203125,7.01324462890625,-2.071075439453125,1.562652587890625,1.0,1.0,1.0,1.0,1.0,45.0,
2023-09-09 23:02:32.554,1.1695886,0.85357684,1.2027756,0.5815698,0.7539028,0.49683303,0.14490469,0.52783924,0.8270211,0.38005355,0.14284657,0.9289481,0.5086026,-0.049704287,-0.1561691,0.88366747,0.12983203,-0.2939649,-0.45984405,0.9020466,746.63007,784.5055,777.6557,718.022,765.16486,0.77996826171875,-0.04766845703125,0.59161376953125,7.259979248046875,-3.147735595703125,2.235565185546875,1.0,1.0,1.0,1.0,1.0,45.0,
2023-09-09 23:02:32.598,1.1695886,0.85357684,1.2027756,0.5815698,0.7539028,0.49683303,0.14490469,0.52783924,0.8270211,0.38005355,0.14284657,0.9289481,0.5086026,-0.049704287,-0.1561691,0.88366747,0.12983203,-0.2939649,-0.45984405,0.9020466,774.0293,788.93774,772.8205,721.6484,822.7839,0.77239990234375,-0.0517578125,0.6036376953125,5.96649169921875,-4.44122314453125,0.28411865234375,1.0,1.0,1.0,1.0,1.0,45.0,
2023-09-09 23:02:32.646,1.1695886,0.85357684,1.2027756,0.5815698,0.7539028,0.49683303,0.14490469,0.52783924,0.8270211,0.38005355,0.14284657,0.9289481,0.5086026,-0.049704287,-0.1561691,0.88366747,0.12983203,-0.2939649,-0.45984405,0.9020466,779.67035,780.4762,764.35895,717.619,752.674,0.795654296875,-0.06170654296875,0.60955810546875,5.9515380859375,-4.62066650390625,-2.100982666015625,1.0,1.0,1.0,1.0,1.0,45.0,
2023-09-09 23:02:32.746,1.1695886,0.85357684,1.2027756,0.5815698,0.7539028,0.49683303,0.14490469,0.52783924,0.8270211,0.38005355,0.14284657,0.9289481,0.5086026,-0.049704287,-0.1561691,0.88366747,0.12983203,-0.2939649,-0.45984405,0.9020466,797.3993,755.89746,691.8315,736.1539,805.05493,0.80615234375,-0.058837890625,0.5859375,5.51788330078125,-3.06549072265625,-2.79632568359375,1.0,1.0,1.0,1.0,1.0,45.0,
2023-09-09 23:02:32.765,1.1695886,0.85357684,1.2027756,0.5815698,0.7539028,0.49683303,0.14490469,0.52783924,0.8270211,0.38005355,0.14284657,0.9289481,0.5086026,-0.049704287,-0.1561691,0.88366747,0.12983203,-0.2939649,-0.45984405,0.9020466,789.34064,742.6007,694.65204,758.315,806.6667,0.78948974609375,-0.0511474609375,0.5999755859375,5.061798095703125,-1.368255615234375,-1.173858642578125,1.0,1.0,1.0,1.0,1.0,45.0,
2023-09-09 23:02:32.797,1.1695886,0.85357684,1.2027756,0.5815698,0.7539028,0.49683303,0.14490469,0.52783924,0.8270211,0.38005355,0.14284657,0.9289481,0.5086026,-0.049704287,-0.1561691,0.88366747,0.12983203,-0.2939649,-0.45984405,0.9020466,767.5824,769.59705,739.7802,749.0476,833.2601,0.78497314453125,-0.05438232421875,0.591796875,4.344024658203125,-1.278533935546875,-1.039276123046875,1.0,1.0,1.0,1.0,1.0,45.0,
2023-09-09 23:02:32.870,1.1695886,0.85357684,1.2027756,0.5815698,0.7539028,0.49683303,0.14490469,0.52783924,0.8270211,0.38005355,0.14284657,0.9289481,0.5086026,-0.049704287,-0.1561691,0.88366747,0.12983203,-0.2939649,-0.45984405,0.9020466,761.53845,778.0586,751.06226,723.2601,823.9927,0.78033447265625,-0.05029296875,0.59765625,4.56085205078125,-1.016845703125,-0.635528564453125,1.0,1.0,1.0,1.0,1.0,45.0,
2023-09-09 23:02:32.994,1.1695886,0.85357684,1.2027756,0.5815698,0.7539028,0.49683303,0.14490469,0.52783924,0.8270211,0.38005355,0.14284657,0.9289481,0.5086026,-0.049704287,-0.1561691,0.88366747,0.12983203,-0.2939649,-0.45984405,0.9020466,767.98535,784.90845,768.7912,716.4103,744.61536,0.78533935546875,-0.04705810546875,0.5977783203125,4.3963623046875,-1.65985107421875,0.478515625,1.0,1.0,1.0,1.0,1.0,45.0,
2023-09-09 23:02:33.028,1.1695886,0.85357684,1.2027756,0.5815698,0.7539028,0.49683303,0.14490469,0.52783924,0.8270211,0.38005355,0.14284657,0.9289481,0.5086026,-0.049704287,-0.1561691,0.88366747,0.12983203,-0.2939649,-0.45984405,0.9020466,776.8498,780.4762,767.1795,739.3773,734.5421,0.78045654296875,-0.0419921875,0.59417724609375,5.181427001953125,-1.876678466796875,2.265472412109375,1.0,1.0,1.0,1.0,1.0,45.0,
2023-09-09 23:02:33.043,1.1695886,0.85357684,1.2027756,0.5815698,0.7539028,0.49683303,0.14490469,0.52783924,0.8270211,0.38005355,0.14284657,0.9289481,0.5086026,-0.049704287,-0.1561691,0.88366747,0.12983203,-0.2939649,-0.45984405,0.9020466,787.326,776.04395,755.09155,724.87177,762.3443,0.77191162109375,-0.04339599609375,0.597412109375,5.525360107421875,-2.310333251953125,2.444915771484375,1.0,1.0,1.0,1.0,1.0,45.0,
2023-09-09 23:02:33.131,1.1695886,0.85357684,1.2027756,0.5815698,0.7539028,0.49683303,0.14490469,0.52783924,0.8270211,0.38005355,0.14284657,0.9289481,0.5086026,-0.049704287,-0.1561691,0.88366747,0.12983203,-0.2939649,-0.45984405,0.9020466,783.2967,767.5824,760.7326,724.4689,894.5055,0.7945556640625,-0.0302734375,0.59759521484375,8.052520751953125,-3.207550048828125,4.329071044921875,1.0,1.0,1.0,1.0,1.0,45.0,
2023-09-09 23:02:33.182,1.1695886,0.85357684,1.2027756,0.5815698,0.7539028,0.49683303,0.14490469,0.52783924,0.8270211,0.38005355,0.14284657,0.9289481,0.5086026,-0.049704287,-0.1561691,0.88366747,0.12983203,-0.2939649,-0.45984405,0.9020466,773.22345,747.8388,755.09155,728.9011,830.0366,0.79412841796875,-0.035400390625,0.5919189453125,9.936676025390623,-4.02252197265625,8.8525390625,1.0,1.0,1.0,1.0,1.0,45.0,
2023-09-09 23:02:33.187,1.1504389,0.85357684,1.2027756,0.5815698,0.74101543,0.49683303,0.14490469,0.52783924,0.8083921,0.38005355,0.14284657,0.9289481,0.50595355,-0.049704287,-0.1561691,0.88366747,0.12656426,-0.2939649,-0.45984405,0.9020466,774.83514,749.0476,748.6447,713.1868,803.0403,0.79412841796875,-0.035400390625,0.5919189453125,9.936676025390623,-4.02252197265625,8.8525390625,1.0,1.0,1.0,1.0,1.0,45.0,
2023-09-09 23:02:33.245,1.1504389,0.85357684,1.2027756,0.5815698,0.74101543,0.49683303,0.14490469,0.52783924,0.8083921,0.38005355,0.14284657,0.9289481,0.50595355,-0.049704287,-0.1561691,0.88366747,0.12656426,-0.2939649,-0.45984405,0.9020466,796.99634,758.315,725.2747,714.7985,892.8938,0.781494140625,-0.0321044921875,0.60601806640625,9.308624267578123,-4.403839111328125,9.742279052734377,1.0,1.0,1.0,1.0,1.0,45.0,
2023-09-09 23:02:33.251,1.1083696,0.85357684,1.2027756,0.5815698,0.69334006,0.49683303,0.14490469,0.52783924,0.8025688,0.38005355,0.14284657,0.9289481,0.5231119,-0.049704287,-0.1561691,0.88366747,0.117995,-0.2939649,-0.45984405,0.9020466,770.0,763.1502,721.6484,750.2564,1278.9011,0.781494140625,-0.0321044921875,0.60601806640625,9.308624267578123,-4.403839111328125,9.742279052734377,1.0,1.0,1.0,1.0,1.0,45.0,
2023-09-09 23:02:33.299,1.1083696,0.85357684,1.2027756,0.5815698,0.69334006,0.49683303,0.14490469,0.52783924,0.8025688,0.38005355,0.14284657,0.9289481,0.5231119,-0.049704287,-0.1561691,0.88366747,0.117995,-0.2939649,-0.45984405,0.9020466,765.56775,758.71796,725.2747,742.1978,756.7033,0.77081298828125,-0.0443115234375,0.5955810546875,4.62066650390625,-3.06549072265625,5.2935791015625,1.0,1.0,1.0,1.0,1.0,45.0,
2023-09-09 23:02:33.344,1.1083696,0.85357684,1.2027756,0.5815698,0.69334006,0.49683303,0.14490469,0.52783924,0.8025688,0.38005355,0.14284657,0.9289481,0.5231119,-0.049704287,-0.1561691,0.88366747,0.117995,-0.2939649,-0.45984405,0.9020466,769.59705,763.95605,716.0073,731.7216,733.3333,0.77044677734375,-0.07293701171875,0.58709716796875,1.136474609375,-2.25799560546875,-0.665435791015625,1.0,1.0,1.0,1.0,1.0,45.0,
2023-09-09 23:02:33.351,1.0587093,0.85357684,1.2027756,0.5342152,0.61583966,0.49683303,0.14490469,0.5412517,0.7830524,0.38005355,0.14284657,0.79478335,0.56057996,-0.049704287,-0.1561691,0.8460327,0.105948694,-0.2939649,-0.45984405,0.86341935,777.6557,767.1795,725.2747,718.8278,855.42126,0.77044677734375,-0.07293701171875,0.58709716796875,1.136474609375,-2.25799560546875,-0.665435791015625,1.0,1.0,1.0,1.0,1.0,45.0,
2023-09-09 23:02:33.395,1.0587093,0.85357684,1.2027756,0.5342152,0.61583966,0.49683303,0.14490469,0.5412517,0.7830524,0.38005355,0.14284657,0.79478335,0.56057996,-0.049704287,-0.1561691,0.8460327,0.105948694,-0.2939649,-0.45984405,0.86341935,770.0,758.315,723.2601,712.7839,805.05493,0.79400634765625,-0.09552001953125,0.58648681640625,1.517791748046875,-2.444915771484375,-3.39447021484375,1.0,1.0,1.0,1.0,1.0,45.0,
2023-09-09 23:02:33.464,1.0587093,0.85357684,1.2027756,0.5342152,0.61583966,0.49683303,0.14490469,0.5412517,0.7830524,0.38005355,0.14284657,0.79478335,0.56057996,-0.049704287,-0.1561691,0.8460327,0.105948694,-0.2939649,-0.45984405,0.86341935,760.32965,751.06226,724.4689,732.52747,830.84247,0.8028564453125,-0.0880126953125,0.5855712890625,2.893524169921875,-2.624359130859375,-3.132781982421875,1.0,1.0,1.0,1.0,1.0,45.0,
2023-09-09 23:02:33.473,1.0926043,1.4626653,1.2027756,0.5342152,0.54106003,1.0278975,0.14490469,0.5412517,0.7693607,0.5922223,0.14284657,0.79478335,0.5640864,-0.040793598,-0.1561691,0.8460327,0.116795816,-0.46150735,-0.45984405,0.86341935,750.65936,752.27106,718.022,753.0769,762.74725,0.8028564453125,-0.0880126953125,0.5855712890625,2.893524169921875,-2.624359130859375,-3.132781982421875,1.0,1.0,1.0,1.0,1.0,45.0,
2023-09-09 23:02:33.537,1.0926043,1.4626653,1.2027756,0.5342152,0.54106003,1.0278975,0.14490469,0.5412517,0.7693607,0.5922223,0.14284657,0.79478335,0.5640864,-0.040793598,-0.1561691,0.8460327,0.116795816,-0.46150735,-0.45984405,0.86341935,751.4652,749.45056,708.7546,742.6007,759.12085,0.7919921875,-0.09246826171875,0.5931396484375,2.87109375,-0.785064697265625,-1.31591796875,1.0,1.0,1.0,1.0,1.0,45.0,
2023-09-09 23:02:33.607,1.0926043,1.4626653,1.2027756,0.5342152,0.54106003,1.0278975,0.14490469,0.5412517,0.7693607,0.5922223,0.14284657,0.79478335,0.5640864,-0.040793598,-0.1561691,0.8460327,0.116795816,-0.46150735,-0.45984405,0.86341935,757.50916,752.27106,718.4249,736.55676,1208.3883,0.78094482421875,-0.094482421875,0.58489990234375,2.474822998046875,-1.921539306640625,-1.951446533203125,1.0,1.0,1.0,1.0,1.0,45.0,
2023-09-09 23:02:33.608,1.118395,1.4653742,1.2027756,0.5342152,0.5324366,0.9913538,0.14490469,0.5412517,0.78601074,0.61036277,0.14284657,0.79478335,0.5563127,0.046372447,-0.1561691,0.8460327,0.10263534,-0.43011165,-0.45984405,0.86341935,757.1062,746.63007,718.8278,726.08057,906.1905,0.78094482421875,-0.094482421875,0.58489990234375,2.474822998046875,-1.921539306640625,-1.951446533203125,1.0,1.0,1.0,1.0,1.0,45.0,
2023-09-09 23:02:33.656,1.118395,1.4653742,1.2027756,0.5342152,0.5324366,0.9913538,0.14490469,0.5412517,0.78601074,0.61036277,0.14284657,0.79478335,0.5563127,0.046372447,-0.1561691,0.8460327,0.10263534,-0.43011165,-0.45984405,0.86341935,758.315,751.06226,722.8571,715.6044,794.9817,0.78424072265625,-0.0946044921875,0.58905029296875,3.48419189453125,-1.816864013671875,-2.3626708984375,1.0,1.0,1.0,1.0,1.0,45.0,
2023-09-09 23:02:33.666,1.118395,1.4653742,1.2027756,0.5342152,0.5324366,0.9913538,0.14490469,0.5412517,0.78601074,0.61036277,0.14284657,0.79478335,0.5563127,0.046372447,-0.1561691,0.8460327,0.10263534,-0.43011165,-0.45984405,0.86341935,765.9707,765.16486,743.4066,729.304,749.45056,0.78753662109375,-0.08953857421875,0.5927734375,4.02252197265625,-2.519683837890625,-2.25799560546875,1.0,1.0,1.0,1.0,1.0,45.0,
2023-09-09 23:02:33.670,1.1721983,1.4458631,1.2027756,0.5342152,0.5741792,0.9569437,0.14490469,0.5412517,0.793662,0.6210476,0.14284657,0.79478335,0.53455734,0.10183564,-0.1561691,0.8460327,0.07166513,-0.4156865,-0.45984405,0.86341935,754.2857,756.30035,743.8095,736.9597,912.6374,0.78753662109375,-0.08953857421875,0.5927734375,4.02252197265625,-2.519683837890625,-2.25799560546875,1.0,1.0,1.0,1.0,1.0,45.0,
2023-09-09 23:02:33.775,1.1721983,1.4458631,1.2027756,0.5342152,0.5741792,0.9569437,0.14490469,0.5412517,0.793662,0.6210476,0.14284657,0.79478335,0.53455734,0.10183564,-0.1561691,0.8460327,0.07166513,-0.4156865,-0.45984405,0.86341935,744.21246,749.45056,735.7509,709.5604,751.06226,0.78985595703125,-0.085205078125,0.6011962890625,4.6954345703125,-2.392578125,-2.773895263671875,1.0,1.0,1.0,1.0,1.0,45.0,
2023-09-09 23:02:33.779,1.2177806,1.4079202,1.2027756,0.5342152,0.6162307,0.91726714,0.14490469,0.5412517,0.7542334,0.6210476,0.14284657,0.79478335,0.5099268,0.121877976,-0.1561691,0.8460327,0.030180277,-0.41881788,-0.45984405,0.86341935,734.5421,734.1392,722.0513,721.2454,971.4652,0.78985595703125,-0.085205078125,0.6011962890625,4.6954345703125,-2.392578125,-2.773895263671875,1.0,1.0,1.0,1.0,1.0,45.0,
2023-09-09 23:02:33.818,1.2177806,1.4079202,1.2027756,0.5342152,0.6162307,0.91726714,0.14490469,0.5412517,0.7542334,0.6210476,0.14284657,0.79478335,0.5099268,0.121877976,-0.1561691,0.8460327,0.030180277,-0.41881788,-0.45984405,0.86341935,745.0183,744.61536,722.0513,716.4103,754.2857,0.79083251953125,-0.0697021484375,0.59295654296875,6.497344970703125,-1.30096435546875,-1.71966552734375,1.0,1.0,1.0,1.0,1.0,45.0,
2023-09-09 23:02:33.857,1.2177806,1.4079202,1.2027756,0.5342152,0.6162307,0.91726714,0.14490469,0.5412517,0.7542334,0.6210476,0.14284657,0.79478335,0.5099268,0.121877976,-0.1561691,0.8460327,0.030180277,-0.41881788,-0.45984405,0.86341935,750.2564,762.3443,744.21246,719.6337,962.6007,0.77203369140625,-0.0562744140625,0.59796142578125,6.519775390625,-0.9271240234375,-1.054229736328125,1.0,1.0,1.0,1.0,1.0,45.0,
2023-09-09 23:02:33.863,1.1966013,1.3640927,1.2027756,0.5342152,0.63390833,0.8715026,0.14490469,0.5412517,0.7244231,0.6210476,0.14284657,0.79478335,0.5036997,0.121641636,-0.1561691,0.8460327,-0.020559313,-0.43075135,-0.45984405,0.86341935,762.74725,767.5824,748.6447,723.663,823.5897,0.77203369140625,-0.0562744140625,0.59796142578125,6.519775390625,-0.9271240234375,-1.054229736328125,1.0,1.0,1.0,1.0,1.0,45.0,
2023-09-09 23:02:33.904,1.1966013,1.3640927,1.2027756,0.5342152,0.63390833,0.8715026,0.14490469,0.5412517,0.7244231,0.6210476,0.14284657,0.79478335,0.5036997,0.121641636,-0.1561691,0.8460327,-0.020559313,-0.43075135,-0.45984405,0.86341935,786.52014,775.64105,753.0769,749.85345,974.2857,0.7698974609375,-0.05267333984375,0.59942626953125,5.48797607421875,-2.6617431640625,-1.65985107421875,1.0,1.0,1.0,1.0,1.0,45.0,
2023-09-09 23:02:33.948,1.1966013,1.3640927,1.2027756,0.5342152,0.63390833,0.8715026,0.14490469,0.5412517,0.7244231,0.6210476,0.14284657,0.79478335,0.5036997,0.121641636,-0.1561691,0.8460327,-0.020559313,-0.43075135,-0.45984405,0.86341935,780.87915,778.46155,766.77655,741.79486,822.381,0.78424072265625,-0.05224609375,0.605224609375,5.271148681640625,-3.416900634765625,-0.889739990234375,1.0,1.0,1.0,1.0,1.0,45.0,
2023-09-09 23:02:33.955,1.1948248,1.3254536,1.2027756,0.5342152,0.61422145,0.8298307,0.14490469,0.5412517,0.738027,0.6210476,0.14284657,0.79478335,0.5719271,0.11990839,-0.1561691,0.8460327,-0.046121284,-0.44087923,-0.45984405,0.86341935,808.2784,784.90845,766.3736,727.28937,736.55676,0.78424072265625,-0.05224609375,0.605224609375,5.271148681640625,-3.416900634765625,-0.889739990234375,1.0,1.0,1.0,1.0,1.0,45.0,
2023-09-09 23:02:34.049,1.1948248,1.3254536,1.2027756,0.5342152,0.61422145,0.8298307,0.14490469,0.5412517,0.738027,0.6210476,0.14284657,0.79478335,0.5719271,0.11990839,-0.1561691,0.8460327,-0.046121284,-0.44087923,-0.45984405,0.86341935,772.8205,768.7912,759.5238,736.55676,738.1685,0.78497314453125,-0.0562744140625,0.5958251953125,4.366455078125,-3.70849609375,-1.016845703125,1.0,1.0,1.0,1.0,1.0,45.0,
2023-09-09 23:02:34.059,1.2247453,1.2989497,1.2027756,0.5342152,0.59934914,0.80409724,0.14490469,0.5412517,0.7572547,0.6258223,0.14284657,0.79478335,0.61679226,0.124063365,-0.1561691,0.8460327,-0.05682533,-0.44624892,-0.45984405,0.86341935,778.0586,765.9707,744.21246,739.3773,788.1319,0.78497314453125,-0.0562744140625,0.5958251953125,4.366455078125,-3.70849609375,-1.016845703125,1.0,1.0,1.0,1.0,1.0,45.0,
2023-09-09 23:02:34.099,1.2247453,1.2989497,1.2027756,0.5342152,0.59934914,0.80409724,0.14490469,0.5412517,0.7572547,0.6258223,0.14284657,0.79478335,0.61679226,0.124063365,-0.1561691,0.8460327,-0.05682533,-0.44624892,-0.45984405,0.86341935,782.8938,765.56775,749.45056,707.9487,778.86444,0.7889404296875,-0.058837890625,0.5908203125,5.001983642578125,-3.75335693359375,-2.609405517578125,1.0,1.0,1.0,1.0,1.0,45.0,
2023-09-09 23:02:34.135,1.2247453,1.2989497,1.2027756,0.5342152,0.59934914,0.80409724,0.14490469,0.5412517,0.7572547,0.6258223,0.14284657,0.79478335,0.61679226,0.124063365,-0.1561691,0.8460327,-0.05682533,-0.44624892,-0.45984405,0.86341935,796.99634,755.89746,746.2271,749.45056,714.3956,0.80377197265625,-0.0517578125,0.59307861328125,5.57769775390625,-2.773895263671875,-1.951446533203125,1.0,1.0,1.0,1.0,1.0,45.0,
2023-09-09 23:02:34.175,1.2247453,1.2989497,1.2027756,0.5342152,0.59934914,0.80409724,0.14490469,0.5412517,0.7572547,0.6258223,0.14284657,0.79478335,0.61679226,0.124063365,-0.1561691,0.8460327,-0.05682533,-0.44624892,-0.45984405,0.86341935,801.02563,749.45056,745.42126,750.2564,862.27106,0.79132080078125,-0.0469970703125,0.59259033203125,6.168365478515625,-1.5252685546875,-0.22430419921875,1.0,1.0,1.0,1.0,1.0,45.0,
2023-09-09 23:02:34.176,1.2247453,1.2938597,1.2027756,0.5342152,0.59934914,0.795057,0.14490469,0.5412517,0.7572547,0.6366888,0.14284657,0.79478335,0.61679226,0.12770997,-0.1561691,0.8460327,-0.05682533,-0.4479278,-0.45984405,0.86341935,785.31134,750.2564,743.4066,749.85345,912.6374,0.79132080078125,-0.0469970703125,0.59259033203125,6.168365478515625,-1.5252685546875,-0.22430419921875,1.0,1.0,1.0,1.0,1.0,45.0,
2023-09-09 23:02:34.299,1.2247453,1.2938597,1.2027756,0.5342152,0.59934914,0.795057,0.14490469,0.5412517,0.7572547,0.6366888,0.14284657,0.79478335,0.61679226,0.12770997,-0.1561691,0.8460327,-0.05682533,-0.4479278,-0.45984405,0.86341935,767.1795,745.0183,732.1245,721.6484,763.1502,0.77801513671875,-0.04876708984375,0.59295654296875,5.81695556640625,-1.547698974609375,-0.336456298828125,1.0,1.0,1.0,1.0,1.0,45.0,
2023-09-09 23:02:34.302,1.2247453,1.308587,1.2027756,0.5342152,0.59934914,0.7923432,0.14490469,0.5412517,0.7572547,0.6440583,0.14284657,0.79478335,0.61679226,0.12318015,-0.1561691,0.8460327,-0.05682533,-0.44831276,-0.45984405,0.86341935,767.5824,752.674,736.55676,718.8278,784.5055,0.77801513671875,-0.04876708984375,0.59295654296875,5.81695556640625,-1.547698974609375,-0.336456298828125,1.0,1.0,1.0,1.0,1.0,45.0,
2023-09-09 23:02:34.354,1.2247453,1.308587,1.2027756,0.5342152,0.59934914,0.7923432,0.14490469,0.5412517,0.7572547,0.6440583,0.14284657,0.79478335,0.61679226,0.12318015,-0.1561691,0.8460327,-0.05682533,-0.44831276,-0.45984405,0.86341935,777.25275,776.8498,752.27106,746.63007,773.22345,0.78045654296875,-0.04736328125,0.59576416015625,5.62255859375,-3.00567626953125,-0.67291259765625,1.0,1.0,1.0,1.0,1.0,45.0,
2023-09-09 23:02:34.428,1.2247453,1.308587,1.2027756,0.5342152,0.59934914,0.7923432,0.14490469,0.5412517,0.7572547,0.6440583,0.14284657,0.79478335,0.61679226,0.12318015,-0.1561691,0.8460327,-0.05682533,-0.44831276,-0.45984405,0.86341935,772.01465,782.49084,757.9121,746.63007,854.61536,0.79302978515625,-0.0472412109375,0.59722900390625,5.540313720703125,-3.5589599609375,-0.299072265625,1.0,1.0,1.0,1.0,1.0,45.0,
2023-09-09 23:02:34.447,1.2247453,1.308587,1.2027756,0.5342152,0.59934914,0.7923432,0.14490469,0.5412517,0.7572547,0.6440583,0.14284657,0.79478335,0.61679226,0.12318015,-0.1561691,0.8460327,-0.05682533,-0.44831276,-0.45984405,0.86341935,765.56775,764.7619,748.6447,643.0769,857.03296,0.78656005859375,-0.05426025390625,0.59649658203125,4.6356201171875,-2.444915771484375,0.46356201171875,1.0,1.0,1.0,1.0,1.0,45.0,
2023-09-09 23:02:34.491,1.2247453,1.308587,1.2027756,0.5342152,0.59934914,0.7923432,0.14490469,0.5412517,0.7572547,0.6440583,0.14284657,0.79478335,0.61679226,0.12318015,-0.1561691,0.8460327,-0.05682533,-0.44831276,-0.45984405,0.86341935,772.8205,733.73627,749.45056,684.57874,728.0952,0.7880859375,-0.05633544921875,0.59686279296875,5.061798095703125,-2.19818115234375,-0.171966552734375,1.0,1.0,1.0,1.0,1.0,45.0,
2023-09-09 23:02:34.568,1.2247453,1.308587,1.2027756,0.5342152,0.59934914,0.7923432,0.14490469,0.5412517,0.7572547,0.6440583,0.14284657,0.79478335,0.61679226,0.12318015,-0.1561691,0.8460327,-0.05682533,-0.44831276,-0.45984405,0.86341935,779.2674,751.4652,748.24176,737.3626,805.8608,0.783203125,-0.04901123046875,0.60211181640625,4.972076416015625,-2.34771728515625,0.545806884765625,1.0,1.0,1.0,1.0,1.0,45.0,
2023-09-09 23:02:34.612,1.2247453,1.308587,1.2027756,0.5342152,0.59934914,0.7923432,0.14490469,0.5412517,0.7572547,0.6440583,0.14284657,0.79478335,0.61679226,0.12318015,-0.1561691,0.8460327,-0.05682533,-0.44831276,-0.45984405,0.86341935,783.2967,762.74725,749.85345,721.2454,938.8278,0.780517578125,-0.0501708984375,0.5977783203125,4.852447509765625,-2.25799560546875,0.85235595703125,1.0,1.0,1.0,1.0,1.0,45.0,
2023-09-09 23:02:34.663,1.2247453,1.308587,1.2027756,0.5342152,0.59934914,0.7923432,0.14490469,0.5412517,0.7572547,0.6440583,0.14284657,0.79478335,0.61679226,0.12318015,-0.1561691,0.8460327,-0.05682533,-0.44831276,-0.45984405,0.86341935,774.83514,762.74725,749.0476,680.54944,937.2161,0.77001953125,-0.05194091796875,0.6007080078125,4.7552490234375,-2.6617431640625,0.814971923828125,1.0,1.0,1.0,1.0,1.0,45.0,
2023-09-09 23:02:34.674,1.2247453,1.2935963,1.2027756,0.5342152,0.59934914,0.7648952,0.14490469,0.5412517,0.7572547,0.6342206,0.14284657,0.79478335,0.61679226,0.14233154,-0.1561691,0.8460327,-0.05682533,-0.44395173,-0.45984405,0.86341935,774.0293,767.1795,748.24176,693.8461,819.9634,0.77001953125,-0.05194091796875,0.6007080078125,4.7552490234375,-2.6617431640625,0.814971923828125,1.0,1.0,1.0,1.0,1.0,45.0,
2023-09-09 23:02:34.714,1.2247453,1.2935963,1.2027756,0.5342152,0.59934914,0.7648952,0.14490469,0.5412517,0.7572547,0.6342206,0.14284657,0.79478335,0.61679226,0.14233154,-0.1561691,0.8460327,-0.05682533,-0.44395173,-0.45984405,0.86341935,780.4762,767.1795,745.0183,689.81683,838.9011,0.77838134765625,-0.05047607421875,0.59722900390625,3.895416259765625,-3.8580322265625,0.396270751953125,1.0,1.0,1.0,1.0,1.0,45.0,
2023-09-09 23:02:34.789,1.2247453,1.2935963,1.2027756,0.5342152,0.59934914,0.7648952,0.14490469,0.5412517,0.7572547,0.6342206,0.14284657,0.79478335,0.61679226,0.14233154,-0.1561691,0.8460327,-0.05682533,-0.44395173,-0.45984405,0.86341935,769.59705,774.43225,764.35895,704.3223,960.18317,0.77880859375,-0.05670166015625,0.593994140625,3.1402587890625,-4.074859619140625,1.07666015625,1.0,1.0,1.0,1.0,1.0,45.0,
2023-09-09 23:02:34.790,1.2247453,1.2722514,1.2027756,0.5342152,0.59934914,0.7097579,0.14490469,0.5412517,0.7572547,0.6116502,0.14284657,0.79478335,0.61679226,0.16441113,-0.1561691,0.8460327,-0.05682533,-0.4366245,-0.45984405,0.86341935,772.8205,770.0,765.56775,701.50183,802.23444,0.77880859375,-0.05670166015625,0.593994140625,3.1402587890625,-4.074859619140625,1.07666015625,1.0,1.0,1.0,1.0,1.0,45.0,
2023-09-09 23:02:34.833,1.2247453,1.2722514,1.2027756,0.5342152,0.59934914,0.7097579,0.14490469,0.5412517,0.7572547,0.6116502,0.14284657,0.79478335,0.61679226,0.16441113,-0.1561691,0.8460327,-0.05682533,-0.4366245,-0.45984405,0.86341935,762.3443,763.95605,763.1502,697.0696,718.8278,0.7908935546875,-0.058349609375,0.58984375,3.312225341796875,-5.921630859375,0.381317138671875,1.0,1.0,1.0,1.0,1.0,45.0,
2023-09-09 23:02:34.874,1.2247453,1.2722514,1.2027756,0.5342152,0.59934914,0.7097579,0.14490469,0.5412517,0.7572547,0.6116502,0.14284657,0.79478335,0.61679226,0.16441113,-0.1561691,0.8460327,-0.05682533,-0.4366245,-0.45984405,0.86341935,732.9304,745.42126,749.45056,681.75824,821.1722,0.80938720703125,-0.060302734375,0.5946044921875,3.69354248046875,-4.9945068359375,-0.67291259765625,1.0,1.0,1.0,1.0,1.0,45.0,
2023-09-09 23:02:34.876,1.2247453,1.2460613,1.2027756,0.5342152,0.59934914,0.6475858,0.14490469,0.5412517,0.7572547,0.58437365,0.14284657,0.79478335,0.61679226,0.18272115,-0.1561691,0.8460327,-0.05682533,-0.4334135,-0.45984405,0.86341935,729.707,727.28937,742.6007,679.34064,779.2674,0.80938720703125,-0.060302734375,0.5946044921875,3.69354248046875,-4.9945068359375,-0.67291259765625,1.0,1.0,1.0,1.0,1.0,45.0,
2023-09-09 23:02:34.924,1.2247453,1.2460613,1.2027756,0.5342152,0.59934914,0.6475858,0.14490469,0.5412517,0.7572547,0.58437365,0.14284657,0.79478335,0.61679226,0.18272115,-0.1561691,0.8460327,-0.05682533,-0.4334135,-0.45984405,0.86341935,752.674,711.5751,720.0366,702.3077,806.26373,0.80010986328125,-0.06072998046875,0.59033203125,3.48419189453125,-1.846771240234375,-1.383209228515625,1.0,1.0,1.0,1.0,1.0,45.0,
2023-09-09 23:02:35.018,1.2247453,1.2460613,1.2027756,0.5342152,0.59934914,0.6475858,0.14490469,0.5412517,0.7572547,0.58437365,0.14284657,0.79478335,0.61679226,0.18272115,-0.1561691,0.8460327,-0.05682533,-0.4334135,-0.45984405,0.86341935,809.89014,770.40295,744.61536,796.99634,846.9597,0.7879638671875,-0.06231689453125,0.58123779296875,4.0972900390625,-1.398162841796875,-1.801910400390625,1.0,1.0,1.0,1.0,1.0,45.0,
2023-09-09 23:02:35.025,1.1667911,1.2045989,1.2027756,0.5342152,0.6074216,0.5984884,0.14490469,0.5412517,0.78473204,0.5556884,0.14284657,0.79478335,0.63202846,0.18660177,-0.1561691,0.8460327,-0.05707487,-0.4418628,-0.45984405,0.86341935,807.8755,780.4762,749.85345,793.7729,887.25275,0.7879638671875,-0.06231689453125,0.58123779296875,4.0972900390625,-1.398162841796875,-1.801910400390625,1.0,1.0,1.0,1.0,1.0,45.0,
2023-09-09 23:02:35.100,1.1667911,1.2045989,1.2027756,0.5342152,0.6074216,0.5984884,0.14490469,0.5412517,0.78473204,0.5556884,0.14284657,0.79478335,0.63202846,0.18660177,-0.1561691,0.8460327,-0.05707487,-0.4418628,-0.45984405,0.86341935,803.8461,777.6557,764.35895,784.10254,1296.63,0.79058837890625,-0.06085205078125,0.581787109375,4.478607177734375,-2.654266357421875,-1.532745361328125,1.0,1.0,1.0,1.0,1.0,45.0,
2023-09-09 23:02:35.105,1.1431187,1.1470821,1.1513598,0.5342152,0.6212919,0.559347,0.675853,0.5412517,0.8669784,0.4972541,0.2151276,0.79478335,0.6540389,0.1707609,0.06641523,0.8460327,-0.04040831,-0.461797,-0.65349376,0.86341935,786.52014,780.07324,769.19415,785.31134,1185.0183,0.79058837890625,-0.06085205078125,0.581787109375,4.478607177734375,-2.654266357421875,-1.532745361328125,1.0,1.0,1.0,1.0,1.0,45.0,
2023-09-09 23:02:35.144,1.1431187,1.1470821,1.1513598,0.5342152,0.6212919,0.559347,0.675853,0.5412517,0.8669784,0.4972541,0.2151276,0.79478335,0.6540389,0.1707609,0.06641523,0.8460327,-0.04040831,-0.461797,-0.65349376,0.86341935,778.46155,776.4469,775.64105,767.5824,761.9414,0.78363037109375,-0.06103515625,0.59051513671875,4.284210205078125,-2.70660400390625,-1.33087158203125,1.0,1.0,1.0,1.0,1.0,45.0,
2023-09-09 23:02:35.180,1.1431187,1.1470821,1.1513598,0.5342152,0.6212919,0.559347,0.675853,0.5412517,0.8669784,0.4972541,0.2151276,0.79478335,0.6540389,0.1707609,0.06641523,0.8460327,-0.04040831,-0.461797,-0.65349376,0.86341935,777.25275,775.2381,784.90845,756.30035,761.13556,0.79498291015625,-0.05499267578125,0.585693359375,5.061798095703125,-2.669219970703125,-0.695343017578125,1.0,1.0,1.0,1.0,1.0,45.0,
2023-09-09 23:02:35.188,1.1785694,1.1067166,1.1256053,0.5342152,0.7302024,0.5240667,0.6859012,0.5412517,0.96877414,0.36004686,0.23896916,0.79478335,0.67868394,0.14352459,0.047954887,0.8460327,-0.018557684,-0.4835906,-0.6613202,0.86341935,758.71796,770.0,784.5055,755.4945,852.6007,0.79498291015625,-0.05499267578125,0.585693359375,5.061798095703125,-2.669219970703125,-0.695343017578125,1.0,1.0,1.0,1.0,1.0,45.0,
2023-09-09 23:02:35.242,1.1785694,1.1067166,1.1256053,0.5342152,0.7302024,0.5240667,0.6859012,0.5412517,0.96877414,0.36004686,0.23896916,0.79478335,0.67868394,0.14352459,0.047954887,0.8460327,-0.018557684,-0.4835906,-0.6613202,0.86341935,767.98535,772.4176,780.07324,755.09155,869.12085,0.7835693359375,-0.0533447265625,0.59033203125,4.762725830078125,-2.669219970703125,0.112152099609375,1.0,1.0,1.0,1.0,1.0,45.0,
2023-09-09 23:02:35.288,1.1785694,1.1067166,1.1256053,0.5342152,0.7302024,0.5240667,0.6859012,0.5412517,0.96877414,0.36004686,0.23896916,0.79478335,0.67868394,0.14352459,0.047954887,0.8460327,-0.018557684,-0.4835906,-0.6613202,0.86341935,774.43225,779.67035,770.80585,761.53845,788.1319,0.77862548828125,-0.05413818359375,0.59417724609375,4.88983154296875,-2.8411865234375,-0.650482177734375,1.0,1.0,1.0,1.0,1.0,45.0,
2023-09-09 23:02:35.295,1.2890683,1.114908,1.1623406,0.5342152,0.9271086,0.51939374,0.7389419,0.5412517,1.0268027,0.17656988,0.3451295,0.79478335,0.69682646,0.12499666,0.040515825,0.8460327,0.0021435611,-0.49329078,-0.65954137,0.86341935,767.5824,782.8938,767.5824,762.3443,752.674,0.77862548828125,-0.05413818359375,0.59417724609375,4.88983154296875,-2.8411865234375,-0.650482177734375,1.0,1.0,1.0,1.0,1.0,45.0,
2023-09-09 23:02:35.342,1.2890683,1.114908,1.1623406,0.5342152,0.9271086,0.51939374,0.7389419,0.5412517,1.0268027,0.17656988,0.3451295,0.79478335,0.69682646,0.12499666,0.040515825,0.8460327,0.0021435611,-0.49329078,-0.65954137,0.86341935,763.1502,783.69965,782.49084,793.36993,891.685,0.77947998046875,-0.0543212890625,0.58984375,4.3963623046875,-3.267364501953125,-1.861724853515625,1.0,1.0,1.0,1.0,1.0,45.0,
2023-09-09 23:02:35.403,1.2890683,1.114908,1.1623406,0.5342152,0.9271086,0.51939374,0.7389419,0.5412517,1.0268027,0.17656988,0.3451295,0.79478335,0.69682646,0.12499666,0.040515825,0.8460327,0.0021435611,-0.49329078,-0.65954137,0.86341935,757.1062,770.80585,778.46155,759.5238,785.7143,0.78741455078125,-0.05535888671875,0.5992431640625,3.955230712890625,-2.9608154296875,-1.742095947265625,1.0,1.0,1.0,1.0,1.0,45.0,
2023-09-09 23:02:35.403,1.4374315,1.3352361,1.244571,0.5342152,1.1135823,1.0120195,0.78847486,0.5412517,1.0632595,1.0727566,0.39587563,0.79478335,0.69858027,0.09650154,0.040835425,0.8460327,0.021523226,-0.49204814,-0.65426695,0.86341935,753.0769,770.40295,777.25275,765.16486,743.00366,0.78741455078125,-0.05535888671875,0.5992431640625,3.955230712890625,-2.9608154296875,-1.742095947265625,1.0,1.0,1.0,1.0,1.0,45.0,
2023-09-09 23:02:35.466,1.4374315,1.3352361,1.244571,0.5342152,1.1135823,1.0120195,0.78847486,0.5412517,1.0632595,1.0727566,0.39587563,0.79478335,0.69858027,0.09650154,0.040835425,0.8460327,0.021523226,-0.49204814,-0.65426695,0.86341935,771.2088,769.19415,780.07324,765.16486,992.8205,0.79083251953125,-0.0584716796875,0.58984375,3.416900634765625,-3.33465576171875,-0.874786376953125,1.0,1.0,1.0,1.0,1.0,45.0,
2023-09-09 23:02:35.535,1.4374315,1.3352361,1.244571,0.5342152,1.1135823,1.0120195,0.78847486,0.5412517,1.0632595,1.0727566,0.39587563,0.79478335,0.69858027,0.09650154,0.040835425,0.8460327,0.021523226,-0.49204814,-0.65426695,0.86341935,746.63007,762.74725,778.86444,749.85345,833.2601,0.78778076171875,-0.06396484375,0.583251953125,3.955230712890625,-3.46923828125,-0.25421142578125,1.0,1.0,1.0,1.0,1.0,45.0,
2023-09-09 23:02:35.537,1.5590025,1.4920441,1.3267926,0.5342152,1.2372828,1.2280797,0.80751085,0.5412517,1.0803183,1.0729766,0.40651146,0.79478335,0.68061787,0.065575436,0.040078703,0.8460327,0.035471443,-0.49145946,-0.6487893,0.86341935,746.2271,761.9414,775.2381,757.1062,884.83514,0.78778076171875,-0.06396484375,0.583251953125,3.955230712890625,-3.46923828125,-0.25421142578125,1.0,1.0,1.0,1.0,1.0,45.0,
2023-09-09 23:02:35.594,1.5590025,1.4920441,1.3267926,0.5342152,1.2372828,1.2280797,0.80751085,0.5412517,1.0803183,1.0729766,0.40651146,0.79478335,0.68061787,0.065575436,0.040078703,0.8460327,0.035471443,-0.49145946,-0.6487893,0.86341935,753.8828,763.95605,776.4469,738.97437,766.77655,0.79058837890625,-0.0577392578125,0.57952880859375,4.91973876953125,-4.83001708984375,-1.158905029296875,1.0,1.0,1.0,1.0,1.0,45.0,
2023-09-09 23:02:35.598,1.583749,1.5731108,1.3731122,0.5342152,1.2927843,1.3197371,0.79984415,0.5412517,1.0803183,1.0729766,0.40651146,0.79478335,0.65284145,0.008575476,0.033510253,0.8460327,0.057522364,-0.5157759,-0.6431653,0.86341935,751.4652,772.8205,761.13556,717.619,872.3443,0.79058837890625,-0.0577392578125,0.57952880859375,4.91973876953125,-4.83001708984375,-1.158905029296875,1.0,1.0,1.0,1.0,1.0,45.0,
2023-09-09 23:02:35.629,1.583749,1.5731108,1.3731122,0.5342152,1.2927843,1.3197371,0.79984415,0.5412517,1.0803183,1.0729766,0.40651146,0.79478335,0.65284145,0.008575476,0.033510253,0.8460327,0.057522364,-0.5157759,-0.6431653,0.86341935,765.16486,761.13556,769.59705,744.61536,783.2967,0.80615234375,-0.05145263671875,0.5916748046875,4.613189697265625,-4.433746337890625,-1.084136962890625,1.0,1.0,1.0,1.0,1.0,45.0,
2023-09-09 23:02:35.682,1.583749,1.5731108,1.3731122,0.5342152,1.2927843,1.3197371,0.79984415,0.5412517,1.0803183,1.0729766,0.40651146,0.79478335,0.65284145,0.008575476,0.033510253,0.8460327,0.057522364,-0.5157759,-0.6431653,0.86341935,782.0879,773.22345,760.7326,713.1868,801.02563,0.8062744140625,-0.05633544921875,0.58203125,4.149627685546875,-2.6019287109375,-1.293487548828125,1.0,1.0,1.0,1.0,1.0,45.0,
2023-09-09 23:02:35.687,1.583749,1.5896084,1.3731122,0.5342152,1.2927843,1.341354,0.79984415,0.5412517,1.0803183,1.0729766,0.40651146,0.79478335,0.65284145,-0.074096724,0.033510253,0.8460327,0.057522364,-0.57230353,-0.6431653,0.86341935,761.9414,770.80585,759.92676,713.9927,901.75824,0.8062744140625,-0.05633544921875,0.58203125,4.149627685546875,-2.6019287109375,-1.293487548828125,1.0,1.0,1.0,1.0,1.0,45.0,
2023-09-09 23:02:35.717,1.583749,1.5896084,1.3731122,0.5342152,1.2927843,1.341354,0.79984415,0.5412517,1.0803183,1.0729766,0.40651146,0.79478335,0.65284145,-0.074096724,0.033510253,0.8460327,0.057522364,-0.57230353,-0.6431653,0.86341935,761.13556,769.19415,758.71796,736.9597,971.8681,0.80035400390625,-0.0616455078125,0.57135009765625,4.306640625,-2.205657958984375,-1.42059326171875,1.0,1.0,1.0,1.0,1.0,45.0,
2023-09-09 23:02:35.775,1.583749,1.5896084,1.3731122,0.5342152,1.2927843,1.341354,0.79984415,0.5412517,1.0803183,1.0729766,0.40651146,0.79478335,0.65284145,-0.074096724,0.033510253,0.8460327,0.057522364,-0.57230353,-0.6431653,0.86341935,751.4652,773.6264,719.2308,735.7509,799.011,0.79962158203125,-0.060791015625,0.57513427734375,4.38140869140625,-3.00567626953125,-0.8074951171875,1.0,1.0,1.0,1.0,1.0,45.0,
2023-09-09 23:02:35.783,1.583749,1.560548,1.3731122,0.5342152,1.2927843,1.3329161,0.79984415,0.5412517,1.0803183,1.063125,0.40651146,0.79478335,0.65284145,-0.15698592,0.033510253,0.8460327,0.057522364,-0.6571073,-0.6431653,0.86341935,734.5421,769.19415,735.34796,724.4689,1067.7656,0.79962158203125,-0.060791015625,0.57513427734375,4.38140869140625,-3.00567626953125,-0.8074951171875,1.0,1.0,1.0,1.0,1.0,45.0,
2023-09-09 23:02:35.883,1.583749,1.560548,1.3731122,0.5342152,1.2927843,1.3329161,0.79984415,0.5412517,1.0803183,1.063125,0.40651146,0.79478335,0.65284145,-0.15698592,0.033510253,0.8460327,0.057522364,-0.6571073,-0.6431653,0.86341935,774.83514,804.2491,776.8498,752.674,813.5165,0.79766845703125,-0.0577392578125,0.58062744140625,5.323486328125,-2.9608154296875,0.201873779296875,1.0,1.0,1.0,1.0,1.0,45.0,
2023-09-09 23:02:35.921,1.583749,1.560548,1.3731122,0.5342152,1.2927843,1.3329161,0.79984415,0.5412517,1.0803183,1.063125,0.40651146,0.79478335,0.65284145,-0.15698592,0.033510253,0.8460327,0.057522364,-0.6571073,-0.6431653,0.86341935,769.59705,802.6374,765.16486,747.4359,848.1685,0.79730224609375,-0.0616455078125,0.58404541015625,5.316009521484375,-3.170166015625,0.276641845703125,1.0,1.0,1.0,1.0,1.0,45.0,
2023-09-09 23:02:35.960,1.583749,1.560548,1.3731122,0.5342152,1.2927843,1.3329161,0.79984415,0.5412517,1.0803183,1.063125,0.40651146,0.79478335,0.65284145,-0.15698592,0.033510253,0.8460327,0.057522364,-0.6571073,-0.6431653,0.86341935,768.7912,791.75824,753.8828,743.8095,758.315,0.7989501953125,-0.0498046875,0.5869140625,5.14404296875,-2.893524169921875,0.3887939453125,1.0,1.0,1.0,1.0,1.0,45.0,
2023-09-09 23:02:36.018,1.583749,1.560548,1.3731122,0.5342152,1.2927843,1.3329161,0.79984415,0.5412517,1.0803183,1.063125,0.40651146,0.79478335,0.65284145,-0.15698592,0.033510253,0.8460327,0.057522364,-0.6571073,-0.6431653,0.86341935,753.8828,795.78754,742.1978,738.5714,824.7985,0.78594970703125,-0.055908203125,0.58367919921875,4.78515625,-2.684173583984375,0.59814453125,1.0,1.0,1.0,1.0,1.0,45.0,
2023-09-09 23:02:36.142,1.583749,1.560548,1.3731122,0.5342152,1.2927843,1.3329161,0.79984415,0.5412517,1.0803183,1.063125,0.40651146,0.79478335,0.65284145,-0.15698592,0.033510253,0.8460327,0.057522364,-0.6571073,-0.6431653,0.86341935,733.73627,767.1795,764.7619,718.8278,875.16486,0.7886962890625,-0.0526123046875,0.58172607421875,4.88983154296875,-3.043060302734375,0.1495361328125,1.0,1.0,1.0,1.0,1.0,45.0,
2023-09-09 23:02:36.145,1.5420899,1.560548,1.3731122,0.5342152,1.2565979,1.3329161,0.79984415,0.5412517,1.0803183,1.063125,0.40651146,0.79478335,0.64670116,-0.15698592,0.033510253,0.8460327,0.010161286,-0.6571073,-0.6431653,0.86341935,738.97437,763.5531,769.19415,722.4542,880.0,0.7886962890625,-0.0526123046875,0.58172607421875,4.88983154296875,-3.043060302734375,0.1495361328125,1.0,1.0,1.0,1.0,1.0,45.0,
2023-09-09 23:02:36.164,1.5420899,1.560548,1.3731122,0.5342152,1.2565979,1.3329161,0.79984415,0.5412517,1.0803183,1.063125,0.40651146,0.79478335,0.64670116,-0.15698592,0.033510253,0.8460327,0.010161286,-0.6571073,-0.6431653,0.86341935,718.4249,763.1502,772.4176,710.3663,871.13556,0.7945556640625,-0.05767822265625,0.5823974609375,4.605712890625,-3.66363525390625,-0.216827392578125,1.0,1.0,1.0,1.0,1.0,45.0,
2023-09-09 23:02:36.231,1.5420899,1.560548,1.3731122,0.5342152,1.2565979,1.3329161,0.79984415,0.5412517,1.0803183,1.063125,0.40651146,0.79478335,0.64670116,-0.15698592,0.033510253,0.8460327,0.010161286,-0.6571073,-0.6431653,0.86341935,718.8278,759.92676,751.8681,736.55676,909.011,0.793212890625,-0.05462646484375,0.58642578125,4.299163818359375,-3.372039794921875,-0.456085205078125,1.0,1.0,1.0,1.0,1.0,45.0,
2023-09-09 23:02:36.237,1.5145214,1.560548,1.3731122,0.5342152,1.2432607,1.3329161,0.79984415,0.5412517,1.0803183,1.063125,0.40651146,0.79478335,0.6361696,-0.15698592,0.033510253,0.8460327,-0.024878222,-0.6571073,-0.6431653,0.86341935,722.8571,760.7326,744.21246,730.10986,853.4066,0.793212890625,-0.05462646484375,0.58642578125,4.299163818359375,-3.372039794921875,-0.456085205078125,1.0,1.0,1.0,1.0,1.0,45.0,
2023-09-09 23:02:36.285,1.5145214,1.560548,1.3731122,0.5342152,1.2432607,1.3329161,0.79984415,0.5412517,1.0803183,1.063125,0.40651146,0.79478335,0.6361696,-0.15698592,0.033510253,0.8460327,-0.024878222,-0.6571073,-0.6431653,0.86341935,732.9304,770.0,743.8095,727.6923,871.13556,0.80133056640625,-0.05914306640625,0.57257080078125,4.015045166015625,-2.97576904296875,-1.069183349609375,1.0,1.0,1.0,1.0,1.0,45.0,
2023-09-09 23:02:36.291,1.5145214,1.560548,1.3731122,0.5342152,1.2432607,1.3329161,0.79984415,0.5412517,1.0803183,1.063125,0.40651146,0.79478335,0.6361696,-0.15698592,0.033510253,0.8460327,-0.024878222,-0.6571073,-0.6431653,0.86341935,752.674,763.95605,744.21246,734.1392,806.26373,0.8011474609375,-0.054443359375,0.5794677734375,3.72344970703125,-3.22998046875,-0.964508056640625,1.0,1.0,1.0,1.0,1.0,45.0,
2023-09-09 23:02:36.294,1.5079051,1.5549649,1.368705,0.5342152,1.2393731,1.2844698,0.7924207,0.5412517,1.0803183,1.063125,0.3653733,0.79478335,0.62744385,-0.03327589,0.01192304,0.8460327,-0.045567337,-0.6569986,-0.6573628,0.86341935,757.50916,763.1502,743.8095,742.1978,994.43225,0.8011474609375,-0.054443359375,0.5794677734375,3.72344970703125,-3.22998046875,-0.964508056640625,1.0,1.0,1.0,1.0,1.0,45.0,
2023-09-09 23:02:36.416,1.5079051,1.5549649,1.368705,0.5342152,1.2393731,1.2844698,0.7924207,0.5412517,1.0803183,1.063125,0.3653733,0.79478335,0.62744385,-0.03327589,0.01192304,0.8460327,-0.045567337,-0.6569986,-0.6573628,0.86341935,748.6447,759.5238,757.50916,715.2015,767.1795,0.8104248046875,-0.04437255859375,0.58380126953125,3.446807861328125,-3.3197021484375,-0.3289794921875,1.0,1.0,1.0,1.0,1.0,45.0,
2023-09-09 23:02:36.423,1.5179473,1.570341,1.385971,0.5342152,1.2293535,1.2447981,0.7992723,0.5412517,1.0803183,1.063125,0.3367786,0.79478335,0.62375546,0.02805357,-0.00060806243,0.8460327,-0.050881233,-0.6363871,-0.6591754,0.86341935,753.47986,766.77655,766.3736,732.1245,1161.6483,0.8104248046875,-0.04437255859375,0.58380126953125,3.446807861328125,-3.3197021484375,-0.3289794921875,1.0,1.0,1.0,1.0,1.0,45.0,
2023-09-09 23:02:36.460,1.5179473,1.570341,1.385971,0.5342152,1.2293535,1.2447981,0.7992723,0.5412517,1.0803183,1.063125,0.3367786,0.79478335,0.62375546,0.02805357,-0.00060806243,0.8460327,-0.050881233,-0.6363871,-0.6591754,0.86341935,755.89746,764.7619,760.32965,716.0073,851.39197,0.81207275390625,-0.02557373046875,0.60052490234375,3.3795166015625,-1.00189208984375,0.590667724609375,1.0,1.0,1.0,1.0,1.0,45.0,
2023-09-09 23:02:36.470,1.5179473,1.570341,1.385971,0.5342152,1.2293535,1.2447981,0.7992723,0.5412517,1.0803183,1.063125,0.3367786,0.79478335,0.62375546,0.02805357,-0.00060806243,0.8460327,-0.050881233,-0.6363871,-0.6591754,0.86341935,757.50916,786.9231,771.6117,731.7216,836.4835,0.77197265625,-0.03289794921875,0.6082763671875,0.04486083984375,0.25421142578125,-0.336456298828125,1.0,1.0,1.0,1.0,1.0,45.0,
2023-09-09 23:02:36.477,1.5684091,1.570341,1.410542,0.5342152,1.2394873,1.2447981,0.9843808,0.5412517,1.0803183,1.063125,0.43717206,0.79478335,0.63427055,0.02805357,0.008686627,0.8460327,-0.07965425,-0.6363871,-0.61632645,0.86341935,756.30035,783.69965,776.04395,736.9597,801.02563,0.77197265625,-0.03289794921875,0.6082763671875,0.04486083984375,0.25421142578125,-0.336456298828125,1.0,1.0,1.0,1.0,1.0,45.0,
2023-09-09 23:02:36.543,1.5684091,1.570341,1.410542,0.5342152,1.2394873,1.2447981,0.9843808,0.5412517,1.0803183,1.063125,0.43717206,0.79478335,0.63427055,0.02805357,0.008686627,0.8460327,-0.07965425,-0.6363871,-0.61632645,0.86341935,753.0769,780.07324,782.49084,738.1685,862.674,0.76312255859375,-0.060546875,0.58551025390625,-4.059906005859375,-1.562652587890625,-3.3197021484375,1.0,1.0,1.0,1.0,1.0,45.0,
2023-09-09 23:02:36.621,1.5684091,1.570341,1.410542,0.5342152,1.2394873,1.2447981,0.9843808,0.5412517,1.0803183,1.063125,0.43717206,0.79478335,0.63427055,0.02805357,0.008686627,0.8460327,-0.07965425,-0.6363871,-0.61632645,0.86341935,741.39197,780.87915,796.5934,721.2454,809.4872,0.76611328125,-0.07843017578125,0.58197021484375,-3.058013916015625,-2.788848876953125,-3.940277099609375,1.0,1.0,1.0,1.0,1.0,45.0,
2023-09-09 23:02:36.622,1.6058184,1.570341,1.4620603,0.5342152,1.2381179,1.2447981,1.0317174,0.5412517,1.0803183,1.063125,0.4362037,0.79478335,0.63515514,0.02805357,0.016507193,0.8460327,-0.09172162,-0.6363871,-0.5994983,0.86341935,747.4359,782.0879,793.7729,734.1392,792.96704,0.76611328125,-0.07843017578125,0.58197021484375,-3.058013916015625,-2.788848876953125,-3.940277099609375,1.0,1.0,1.0,1.0,1.0,45.0,
2023-09-09 23:02:36.667,1.6058184,1.570341,1.4620603,0.5342152,1.2381179,1.2447981,1.0317174,0.5412517,1.0803183,1.063125,0.4362037,0.79478335,0.63515514,0.02805357,0.016507193,0.8460327,-0.09172162,-0.6363871,-0.5994983,0.86341935,740.989,777.25275,794.17584,745.0183,979.12085,0.775634765625,-0.08148193359375,0.5770263671875,-1.188812255859375,-4.38140869140625,-3.7384033203125,1.0,1.0,1.0,1.0,1.0,45.0,
2023-09-09 23:02:36.718,1.6058184,1.570341,1.4620603,0.5342152,1.2381179,1.2447981,1.0317174,0.5412517,1.0803183,1.063125,0.4362037,0.79478335,0.63515514,0.02805357,0.016507193,0.8460327,-0.09172162,-0.6363871,-0.5994983,0.86341935,743.00366,774.0293,786.9231,741.39197,770.40295,0.7867431640625,-0.09173583984375,0.56463623046875,-0.545806884765625,-4.9945068359375,-3.222503662109375,1.0,1.0,1.0,1.0,1.0,45.0,
2023-09-09 23:02:36.721,1.6266726,1.570341,1.515276,0.5342152,1.2491764,1.2447981,1.0737202,0.5412517,1.0739253,1.063125,0.4352284,0.79478335,0.6325831,0.02805357,0.026097279,0.8460327,-0.11186817,-0.6363871,-0.5828184,0.86341935,741.79486,773.22345,778.46155,737.3626,805.05493,0.7867431640625,-0.09173583984375,0.56463623046875,-0.545806884765625,-4.9945068359375,-3.222503662109375,1.0,1.0,1.0,1.0,1.0,45.0,
2023-09-09 23:02:36.753,1.6266726,1.570341,1.515276,0.5342152,1.2491764,1.2447981,1.0737202,0.5412517,1.0739253,1.063125,0.4352284,0.79478335,0.6325831,0.02805357,0.026097279,0.8460327,-0.11186817,-0.6363871,-0.5828184,0.86341935,753.0769,781.28204,778.0586,724.0659,784.10254,0.80877685546875,-0.0859375,0.55963134765625,2.295379638671875,-5.973968505859375,-2.280426025390625,1.0,1.0,1.0,1.0,1.0,45.0,
2023-09-09 23:02:36.811,1.6266726,1.570341,1.515276,0.5342152,1.2491764,1.2447981,1.0737202,0.5412517,1.0739253,1.063125,0.4352284,0.79478335,0.6325831,0.02805357,0.026097279,0.8460327,-0.11186817,-0.6363871,-0.5828184,0.86341935,749.85345,778.46155,769.59705,689.41394,802.6374,0.819580078125,-0.07794189453125,0.56634521484375,3.06549072265625,-5.345916748046875,-1.33087158203125,1.0,1.0,1.0,1.0,1.0,45.0,
2023-09-09 23:02:36.815,1.5907005,1.570341,1.5543329,0.5342152,1.1806686,1.2447981,1.1022359,0.5412517,1.0426394,1.063125,0.4352284,0.79478335,0.6001871,0.02805357,0.032086182,0.8460327,-0.114128955,-0.6363871,-0.567374,0.86341935,734.5421,772.8205,763.1502,695.8608,990.0,0.819580078125,-0.07794189453125,0.56634521484375,3.06549072265625,-5.345916748046875,-1.33087158203125,1.0,1.0,1.0,1.0,1.0,45.0,
2023-09-09 23:02:36.936,1.5907005,1.570341,1.5543329,0.5342152,1.1806686,1.2447981,1.1022359,0.5412517,1.0426394,1.063125,0.4352284,0.79478335,0.6001871,0.02805357,0.032086182,0.8460327,-0.114128955,-0.6363871,-0.567374,0.86341935,772.4176,777.25275,740.18317,720.84247,885.64105,0.8267822265625,-0.0750732421875,0.56463623046875,2.9010009765625,-4.598236083984375,-0.94207763671875,1.0,1.0,1.0,1.0,1.0,45.0,
2023-09-09 23:02:36.941,1.5079869,1.5467322,1.5543329,0.5342152,1.0584902,1.1587427,1.1022359,0.5412517,0.92225593,1.0163405,0.4352284,0.79478335,0.5553456,0.039567348,0.032086182,0.8460327,-0.117631294,-0.65960944,-0.567374,0.86341935,778.0586,767.98535,726.08057,726.08057,929.5604,0.8267822265625,-0.0750732421875,0.56463623046875,2.9010009765625,-4.598236083984375,-0.94207763671875,1.0,1.0,1.0,1.0,1.0,45.0,
2023-09-09 23:02:36.950,1.5079869,1.5467322,1.5543329,0.5342152,1.0584902,1.1587427,1.1022359,0.5412517,0.92225593,1.0163405,0.4352284,0.79478335,0.5553456,0.039567348,0.032086182,0.8460327,-0.117631294,-0.65960944,-0.567374,0.86341935,758.71796,765.16486,717.2161,743.8095,759.12085,0.82354736328125,-0.08245849609375,0.55987548828125,2.145843505859375,-3.072967529296875,-1.48040771484375,1.0,1.0,1.0,1.0,1.0,45.0,
2023-09-09 23:02:37.010,1.5079869,1.5467322,1.5543329,0.5342152,1.0584902,1.1587427,1.1022359,0.5412517,0.92225593,1.0163405,0.4352284,0.79478335,0.5553456,0.039567348,0.032086182,0.8460327,-0.117631294,-0.65960944,-0.567374,0.86341935,752.674,765.56775,731.7216,728.9011,823.1868,0.8138427734375,-0.0848388671875,0.55523681640625,2.2430419921875,-2.250518798828125,-1.614990234375,1.0,1.0,1.0,1.0,1.0,45.0,
2023-09-09 23:02:37.019,1.3840731,1.5019763,1.5543329,0.5342152,0.8971624,1.0172659,1.1022359,0.5412517,0.60219425,0.81334424,0.4352284,0.79478335,0.50903225,0.058857467,0.032086182,0.8460327,-0.11328671,-0.69134855,-0.567374,0.86341935,766.3736,768.3883,737.3626,760.32965,714.7985,0.8138427734375,-0.0848388671875,0.55523681640625,2.2430419921875,-2.250518798828125,-1.614990234375,1.0,1.0,1.0,1.0,1.0,45.0,
2023-09-09 23:02:37.060,1.3840731,1.5019763,1.5543329,0.5342152,0.8971624,1.0172659,1.1022359,0.5412517,0.60219425,0.81334424,0.4352284,0.79478335,0.50903225,0.058857467,0.032086182,0.8460327,-0.11328671,-0.69134855,-0.567374,0.86341935,768.3883,763.95605,744.21246,746.2271,869.12085,0.81158447265625,-0.0853271484375,0.564453125,3.237457275390625,-2.444915771484375,-1.128997802734375,1.0,1.0,1.0,1.0,1.0,45.0,
2023-09-09 23:02:37.131,1.3840731,1.5019763,1.5543329,0.5342152,0.8971624,1.0172659,1.1022359,0.5412517,0.60219425,0.81334424,0.4352284,0.79478335,0.50903225,0.058857467,0.032086182,0.8460327,-0.11328671,-0.69134855,-0.567374,0.86341935,752.674,757.1062,760.7326,744.21246,750.65936,0.82354736328125,-0.08563232421875,0.55975341796875,3.745880126953125,-2.833709716796875,-0.605621337890625,1.0,1.0,1.0,1.0,1.0,45.0,
2023-09-09 23:02:37.139,1.3496747,1.4111029,1.5543329,0.5342152,0.85753,0.78620243,1.1022359,0.5412517,0.60219425,0.6640611,0.4352284,0.79478335,0.49676043,0.080809616,0.032086182,0.8460327,-0.0876786,-0.6340539,-0.567374,0.86341935,761.13556,756.7033,763.5531,748.6447,853.8095,0.82354736328125,-0.08563232421875,0.55975341796875,3.745880126953125,-2.833709716796875,-0.605621337890625,1.0,1.0,1.0,1.0,1.0,45.0,
2023-09-09 23:02:37.190,1.3496747,1.4111029,1.5543329,0.5342152,0.85753,0.78620243,1.1022359,0.5412517,0.60219425,0.6640611,0.4352284,0.79478335,0.49676043,0.080809616,0.032086182,0.8460327,-0.0876786,-0.6340539,-0.567374,0.86341935,745.42126,761.13556,766.3736,744.61536,773.22345,0.8143310546875,-0.08544921875,0.56134033203125,5.1739501953125,-1.55517578125,-0.157012939453125,1.0,1.0,1.0,1.0,1.0,45.0,
2023-09-09 23:02:37.222,1.3496747,1.4111029,1.5543329,0.5342152,0.85753,0.78620243,1.1022359,0.5412517,0.60219425,0.6640611,0.4352284,0.79478335,0.49676043,0.080809616,0.032086182,0.8460327,-0.0876786,-0.6340539,-0.567374,0.86341935,743.00366,767.1795,764.7619,714.7985,786.1172,0.80450439453125,-0.075927734375,0.56597900390625,6.41510009765625,-0.785064697265625,0.3289794921875,1.0,1.0,1.0,1.0,1.0,45.0,
2023-09-09 23:02:37.223,1.3264071,1.3542848,1.5543329,0.5342152,0.8288562,0.63624746,1.1022359,0.5412517,0.60219425,0.65961707,0.4352284,0.79478335,0.5001036,0.08832276,0.032086182,0.8460327,-0.0500494,-0.51772076,-0.567374,0.86341935,740.58606,767.98535,763.1502,725.6777,822.381,0.80450439453125,-0.075927734375,0.56597900390625,6.41510009765625,-0.785064697265625,0.3289794921875,1.0,1.0,1.0,1.0,1.0,45.0,
2023-09-09 23:02:37.261,1.3264071,1.3542848,1.5543329,0.5342152,0.8288562,0.63624746,1.1022359,0.5412517,0.60219425,0.65961707,0.4352284,0.79478335,0.5001036,0.08832276,0.032086182,0.8460327,-0.0500494,-0.51772076,-0.567374,0.86341935,732.9304,763.1502,771.6117,728.49817,902.5641,0.7984619140625,-0.073974609375,0.56488037109375,6.332855224609375,-1.27105712890625,0.695343017578125,1.0,1.0,1.0,1.0,1.0,45.0,
2023-09-09 23:02:37.328,1.3264071,1.3542848,1.5543329,0.5342152,0.8288562,0.63624746,1.1022359,0.5412517,0.60219425,0.65961707,0.4352284,0.79478335,0.5001036,0.08832276,0.032086182,0.8460327,-0.0500494,-0.51772076,-0.567374,0.86341935,752.674,779.67035,775.64105,733.73627,892.0879,0.812255859375,-0.06109619140625,0.58612060546875,6.44500732421875,-2.46734619140625,1.60003662109375,1.0,1.0,1.0,1.0,1.0,45.0,
2023-09-09 23:02:37.332,1.3094109,1.3273834,1.5543329,0.5342152,0.8132862,0.59893626,1.1022359,0.5412517,0.6109207,0.65663624,0.4352284,0.79478335,0.5134362,0.089030854,0.032086182,0.8460327,-0.013145675,-0.39329085,-0.567374,0.86341935,766.77655,779.67035,776.8498,744.61536,958.97437,0.812255859375,-0.06109619140625,0.58612060546875,6.44500732421875,-2.46734619140625,1.60003662109375,1.0,1.0,1.0,1.0,1.0,45.0,
2023-09-09 23:02:37.409,1.3094109,1.3273834,1.5543329,0.5342152,0.8132862,0.59893626,1.1022359,0.5412517,0.6109207,0.65663624,0.4352284,0.79478335,0.5134362,0.089030854,0.032086182,0.8460327,-0.013145675,-0.39329085,-0.567374,0.86341935,745.0183,770.80585,772.8205,752.27106,1143.9194,0.8045654296875,-0.06494140625,0.5955810546875,4.5758056640625,-0.2093505859375,1.278533935546875,1.0,1.0,1.0,1.0,1.0,45.0,
2023-09-09 23:02:37.415,1.2955631,1.2842838,1.5543329,0.5342152,0.80632067,0.56856203,1.1022359,0.5412517,0.6271163,0.65663624,0.4352284,0.79478335,0.5249068,0.03514986,0.032086182,0.8460327,0.010546893,-0.35613957,-0.567374,0.86341935,743.4066,770.40295,766.77655,741.79486,862.674,0.8045654296875,-0.06494140625,0.5955810546875,4.5758056640625,-0.2093505859375,1.278533935546875,1.0,1.0,1.0,1.0,1.0,45.0,
2023-09-09 23:02:37.475,1.2955631,1.2842838,1.5543329,0.5342152,0.80632067,0.56856203,1.1022359,0.5412517,0.6271163,0.65663624,0.4352284,0.79478335,0.5249068,0.03514986,0.032086182,0.8460327,0.010546893,-0.35613957,-0.567374,0.86341935,744.21246,776.04395,764.7619,744.21246,767.1795,0.78338623046875,-0.07672119140625,0.5775146484375,4.29168701171875,1.55517578125,-0.725250244140625,1.0,1.0,1.0,1.0,1.0,45.0,
2023-09-09 23:02:37.530,1.2955631,1.2842838,1.5543329,0.5342152,0.80632067,0.56856203,1.1022359,0.5412517,0.6271163,0.65663624,0.4352284,0.79478335,0.5249068,0.03514986,0.032086182,0.8460327,0.010546893,-0.35613957,-0.567374,0.86341935,759.92676,781.28204,777.25275,752.674,765.9707,0.76727294921875,-0.0758056640625,0.57757568359375,4.015045166015625,-0.471038818359375,-0.276641845703125,1.0,1.0,1.0,1.0,1.0,45.0,
2023-09-09 23:02:37.536,1.2826432,1.2516698,1.5543329,0.5342152,0.80170614,0.5464145,1.1022359,0.5412517,0.62805456,0.65663624,0.4352284,0.79478335,0.52685934,-0.0067633814,0.032086182,0.8460327,0.01837485,-0.34453174,-0.567374,0.86341935,769.19415,784.10254,783.69965,760.7326,854.61536,0.76727294921875,-0.0758056640625,0.57757568359375,4.015045166015625,-0.471038818359375,-0.276641845703125,1.0,1.0,1.0,1.0,1.0,45.0,
2023-09-09 23:02:37.588,1.2826432,1.2516698,1.5543329,0.5342152,0.80170614,0.5464145,1.1022359,0.5412517,0.62805456,0.65663624,0.4352284,0.79478335,0.52685934,-0.0067633814,0.032086182,0.8460327,0.01837485,-0.34453174,-0.567374,0.86341935,751.06226,783.2967,781.28204,741.39197,913.0403,0.76556396484375,-0.0810546875,0.57177734375,4.029998779296875,-2.998199462890625,-0.13458251953125,1.0,1.0,1.0,1.0,1.0,45.0,
2023-09-09 23:02:37.629,1.2826432,1.2516698,1.5543329,0.5342152,0.80170614,0.5464145,1.1022359,0.5412517,0.62805456,0.65663624,0.4352284,0.79478335,0.52685934,-0.0067633814,0.032086182,0.8460327,0.01837485,-0.34453174,-0.567374,0.86341935,745.82416,791.75824,774.43225,727.28937,823.9927,0.78582763671875,-0.081298828125,0.57403564453125,5.151519775390625,-5.96649169921875,0.381317138671875,1.0,1.0,1.0,1.0,1.0,45.0,
2023-09-09 23:02:37.637,1.27733,1.225499,1.5543329,0.5342152,0.78422934,0.5231919,1.1022359,0.5412517,0.637961,0.65663624,0.4352284,0.79478335,0.5132371,-0.036546804,0.032086182,0.8460327,0.038474843,-0.34740144,-0.567374,0.86341935,747.8388,785.31134,778.0586,744.21246,1105.238,0.78582763671875,-0.081298828125,0.57403564453125,5.151519775390625,-5.96649169921875,0.381317138671875,1.0,1.0,1.0,1.0,1.0,45.0,
2023-09-09 23:02:37.693,1.27733,1.225499,1.5543329,0.5342152,0.78422934,0.5231919,1.1022359,0.5412517,0.637961,0.65663624,0.4352284,0.79478335,0.5132371,-0.036546804,0.032086182,0.8460327,0.038474843,-0.34740144,-0.567374,0.86341935,746.63007,776.04395,771.2088,722.8571,861.06226,0.8125,-0.07989501953125,0.58123779296875,5.600128173828125,-6.078643798828125,0.70281982421875,1.0,1.0,1.0,1.0,1.0,45.0,
2023-09-09 23:02:37.700,1.262733,1.2020998,1.5543329,0.5342152,0.73706394,0.49808583,1.1022359,0.5412517,0.6607791,0.65663624,0.4352284,0.79478335,0.4996116,-0.05592388,0.032086182,0.8460327,0.055358972,-0.3530652,-0.567374,0.86341935,751.8681,776.04395,760.32965,746.63007,803.0403,0.8125,-0.07989501953125,0.58123779296875,5.600128173828125,-6.078643798828125,0.70281982421875,1.0,1.0,1.0,1.0,1.0,45.0,
2023-09-09 23:02:37.734,1.262733,1.2020998,1.5543329,0.5342152,0.73706394,0.49808583,1.1022359,0.5412517,0.6607791,0.65663624,0.4352284,0.79478335,0.4996116,-0.05592388,0.032086182,0.8460327,0.055358972,-0.3530652,-0.567374,0.86341935,751.06226,774.0293,753.0769,735.34796,786.52014,0.81634521484375,-0.0775146484375,0.56829833984375,5.5328369140625,-3.90289306640625,1.084136962890625,1.0,1.0,1.0,1.0,1.0,45.0,
2023-09-09 23:02:37.794,1.262733,1.2020998,1.5543329,0.5342152,0.73706394,0.49808583,1.1022359,0.5412517,0.6607791,0.65663624,0.4352284,0.79478335,0.4996116,-0.05592388,0.032086182,0.8460327,0.055358972,-0.3530652,-0.567374,0.86341935,777.6557,774.43225,746.2271,739.7802,778.46155,0.80718994140625,-0.076171875,0.57305908203125,5.570220947265625,-3.22998046875,0.6280517578125,1.0,1.0,1.0,1.0,1.0,45.0,
2023-09-09 23:02:37.841,1.262733,1.2020998,1.5543329,0.5342152,0.73706394,0.49808583,1.1022359,0.5412517,0.6607791,0.65663624,0.4352284,0.79478335,0.4996116,-0.05592388,0.032086182,0.8460327,0.055358972,-0.3530652,-0.567374,0.86341935,767.98535,773.22345,751.8681,756.7033,807.47253,0.8016357421875,-0.07843017578125,0.5682373046875,4.912261962890625,-1.98883056640625,0.321502685546875,1.0,1.0,1.0,1.0,1.0,45.0,
2023-09-09 23:02:37.842,1.2272687,1.122912,1.5543329,0.5342152,0.66948533,0.38406697,1.1022359,0.5412517,0.6735313,0.6505162,0.4352284,0.79478335,0.48856255,-0.1426721,0.032086182,0.8460327,0.06930549,-0.3347374,-0.567374,0.86341935,763.5531,774.0293,753.0769,759.92676,820.3663,0.8016357421875,-0.07843017578125,0.5682373046875,4.912261962890625,-1.98883056640625,0.321502685546875,1.0,1.0,1.0,1.0,1.0,45.0,
2023-09-09 23:02:37.916,1.2272687,1.122912,1.5543329,0.5342152,0.66948533,0.38406697,1.1022359,0.5412517,0.6735313,0.6505162,0.4352284,0.79478335,0.48856255,-0.1426721,0.032086182,0.8460327,0.06930549,-0.3347374,-0.567374,0.86341935,764.7619,775.2381,761.53845,739.7802,839.707,0.7960205078125,-0.08160400390625,0.5704345703125,4.269256591796875,-2.392578125,-0.889739990234375,1.0,1.0,1.0,1.0,1.0,50.0,
2023-09-09 23:02:37.919,1.1628649,0.9872904,1.5543329,0.5342152,0.6100304,0.23684067,1.1022359,0.5412517,0.6972295,0.2924051,0.4352284,0.79478335,0.4842702,-0.22958364,0.032086182,0.8460327,0.075143,-0.3287212,-0.567374,0.86341935,771.6117,784.10254,767.1795,748.24176,821.978,0.7960205078125,-0.08160400390625,0.5704345703125,4.269256591796875,-2.392578125,-0.889739990234375,1.0,1.0,1.0,1.0,1.0,50.0,
2023-09-09 23:02:37.999,1.1628649,0.9872904,1.5543329,0.5342152,0.6100304,0.23684067,1.1022359,0.5412517,0.6972295,0.2924051,0.4352284,0.79478335,0.4842702,-0.22958364,0.032086182,0.8460327,0.075143,-0.3287212,-0.567374,0.86341935,769.59705,782.8938,764.35895,739.3773,837.28937,0.80364990234375,-0.0802001953125,0.56884765625,4.732818603515625,-3.162689208984375,-1.173858642578125,1.0,1.0,1.0,1.0,1.0,50.0,
2023-09-09 23:02:38.048,1.1628649,0.9872904,1.5543329,0.5342152,0.6100304,0.23684067,1.1022359,0.5412517,0.6972295,0.2924051,0.4352284,0.79478335,0.4842702,-0.22958364,0.032086182,0.8460327,0.075143,-0.3287212,-0.567374,0.86341935,778.46155,785.31134,774.43225,766.77655,829.6337,0.80572509765625,-0.0809326171875,0.5745849609375,5.061798095703125,-2.6019287109375,-0.291595458984375,1.0,1.0,1.0,1.0,1.0,50.0,
2023-09-09 23:02:38.052,1.07466,1.0040923,1.5543329,0.5342152,0.5827905,0.22283867,1.1022359,0.5412517,0.77992654,0.2924051,0.4352284,0.79478335,0.4935645,-0.2094282,0.032086182,0.8460327,0.07080257,-0.34564695,-0.567374,0.86341935,787.326,798.60803,773.6264,761.9414,947.28937,0.80572509765625,-0.0809326171875,0.5745849609375,5.061798095703125,-2.6019287109375,-0.291595458984375,1.0,1.0,1.0,1.0,1.0,50.0,
2023-09-09 23:02:38.091,1.07466,1.0040923,1.5543329,0.5342152,0.5827905,0.22283867,1.1022359,0.5412517,0.77992654,0.2924051,0.4352284,0.79478335,0.4935645,-0.2094282,0.032086182,0.8460327,0.07080257,-0.34564695,-0.567374,0.86341935,792.96704,795.78754,770.80585,748.24176,1080.2565,0.79833984375,-0.07763671875,0.57904052734375,5.076751708984375,-2.3626708984375,0.500946044921875,1.0,1.0,1.0,1.0,1.0,50.0,
2023-09-09 23:02:38.133,1.07466,1.0040923,1.5543329,0.5342152,0.5827905,0.22283867,1.1022359,0.5412517,0.77992654,0.2924051,0.4352284,0.79478335,0.4935645,-0.2094282,0.032086182,0.8460327,0.07080257,-0.34564695,-0.567374,0.86341935,786.52014,788.5348,769.19415,759.5238,941.2454,0.79534912109375,-0.0787353515625,0.5791015625,5.1141357421875,-2.61688232421875,-0.0299072265625,1.0,1.0,1.0,1.0,1.0,50.0,
2023-09-09 23:02:38.138,0.989657,1.0071493,1.5543329,0.5342152,0.5811019,0.21312408,1.1022359,0.5412517,0.86706436,0.2924051,0.4352284,0.79478335,0.51453483,-0.18564582,0.032086182,0.8460327,0.05942175,-0.3641502,-0.567374,0.86341935,784.90845,786.1172,771.2088,768.7912,1325.238,0.79534912109375,-0.0787353515625,0.5791015625,5.1141357421875,-2.61688232421875,-0.0299072265625,1.0,1.0,1.0,1.0,1.0,50.0,
2023-09-09 23:02:38.222,0.989657,1.0071493,1.5543329,0.5342152,0.5811019,0.21312408,1.1022359,0.5412517,0.86706436,0.2924051,0.4352284,0.79478335,0.51453483,-0.18564582,0.032086182,0.8460327,0.05942175,-0.3641502,-0.567374,0.86341935,788.1319,782.0879,763.1502,749.45056,747.8388,0.78839111328125,-0.07720947265625,0.5732421875,4.314117431640625,-2.6617431640625,-0.216827392578125,1.0,1.0,1.0,1.0,1.0,50.0,
2023-09-09 23:02:38.229,1.0126964,1.005305,1.1429871,0.5342152,0.5828525,0.20449772,0.391353,0.5412517,0.8932198,0.2924051,-0.06022336,0.79478335,0.53481674,-0.1632937,-0.004531161,0.8460327,0.04597846,-0.38161418,-0.65312326,0.86341935,784.5055,779.67035,768.7912,750.2564,870.32965,0.78839111328125,-0.07720947265625,0.5732421875,4.314117431640625,-2.6617431640625,-0.216827392578125,1.0,1.0,1.0,1.0,1.0,50.0,
2023-09-09 23:02:38.257,1.0126964,1.005305,1.1429871,0.5342152,0.5828525,0.20449772,0.391353,0.5412517,0.8932198,0.2924051,-0.06022336,0.79478335,0.53481674,-0.1632937,-0.004531161,0.8460327,0.04597846,-0.38161418,-0.65312326,0.86341935,793.36993,781.685,774.83514,757.9121,789.7436,0.7891845703125,-0.07879638671875,0.5714111328125,4.127197265625,-3.6785888671875,-1.03179931640625,1.0,1.0,1.0,1.0,1.0,50.0,
2023-09-09 23:02:38.313,1.0126964,1.005305,1.1429871,0.5342152,0.5828525,0.20449772,0.391353,0.5412517,0.8932198,0.2924051,-0.06022336,0.79478335,0.53481674,-0.1632937,-0.004531161,0.8460327,0.04597846,-0.38161418,-0.65312326,0.86341935,793.7729,781.28204,773.6264,764.7619,827.2161,0.8055419921875,-0.08203125,0.5738525390625,3.5888671875,-4.269256591796875,-1.233673095703125,1.0,1.0,1.0,1.0,1.0,50.0,
2023-09-09 23:02:38.323,1.0147176,1.006271,1.1617196,0.5342152,0.59329593,0.19523855,0.3614007,0.5412517,0.89620185,0.2924051,-0.0006916106,0.79478335,0.5493955,-0.14581919,0.00019749669,0.8460327,0.034386292,-0.39631322,-0.69950557,0.86341935,806.26373,773.22345,760.7326,759.12085,770.40295,0.8055419921875,-0.08203125,0.5738525390625,3.5888671875,-4.269256591796875,-1.233673095703125,1.0,1.0,1.0,1.0,1.0,50.0,
2023-09-09 23:02:38.382,1.0147176,1.006271,1.1617196,0.5342152,0.59329593,0.19523855,0.3614007,0.5412517,0.89620185,0.2924051,-0.0006916106,0.79478335,0.5493955,-0.14581919,0.00019749669,0.8460327,0.034386292,-0.39631322,-0.69950557,0.86341935,796.1905,772.8205,760.32965,763.5531,1035.1282,0.81231689453125,-0.08282470703125,0.57000732421875,3.39447021484375,-3.626251220703125,-1.495361328125,1.0,1.0,1.0,1.0,1.0,50.0,
2023-09-09 23:02:38.437,1.0147176,1.006271,1.1617196,0.5342152,0.59329593,0.19523855,0.3614007,0.5412517,0.89620185,0.2924051,-0.0006916106,0.79478335,0.5493955,-0.14581919,0.00019749669,0.8460327,0.034386292,-0.39631322,-0.69950557,0.86341935,785.7143,761.13556,716.0073,734.5421,793.7729,0.81396484375,-0.08575439453125,0.57037353515625,4.164581298828125,-3.237457275390625,-1.383209228515625,1.0,1.0,1.0,1.0,1.0,50.0,
2023-09-09 23:02:38.438,1.0238774,1.0107943,1.1439557,0.5342152,0.61061686,0.1895662,0.31890506,0.5412517,0.89810777,0.29457518,0.079441816,0.79478335,0.55668205,-0.13393204,0.0016260082,0.8460327,0.0209894,-0.4062885,-0.72244626,0.86341935,795.38464,768.7912,728.0952,745.42126,749.85345,0.81396484375,-0.08575439453125,0.57037353515625,4.164581298828125,-3.237457275390625,-1.383209228515625,1.0,1.0,1.0,1.0,1.0,50.0,
2023-09-09 23:02:38.514,1.0238774,1.0107943,1.1439557,0.5342152,0.61061686,0.1895662,0.31890506,0.5412517,0.89810777,0.29457518,0.079441816,0.79478335,0.55668205,-0.13393204,0.0016260082,0.8460327,0.0209894,-0.4062885,-0.72244626,0.86341935,844.1392,808.68134,764.35895,765.16486,831.6484,0.810302734375,-0.0855712890625,0.5670166015625,4.05242919921875,-1.831817626953125,-1.099090576171875,1.0,1.0,1.0,1.0,1.0,50.0,
2023-09-09 23:02:38.563,1.0238774,1.0107943,1.1439557,0.5342152,0.61061686,0.1895662,0.31890506,0.5412517,0.89810777,0.29457518,0.079441816,0.79478335,0.55668205,-0.13393204,0.0016260082,0.8460327,0.0209894,-0.4062885,-0.72244626,0.86341935,807.0696,792.96704,765.16486,774.83514,857.8388,0.80462646484375,-0.08026123046875,0.5614013671875,4.254302978515625,-2.04864501953125,-0.934600830078125,1.0,1.0,1.0,1.0,1.0,50.0,
2023-09-09 23:02:38.566,1.0390834,1.0152344,1.1439557,0.5342152,0.6321853,0.20736745,0.31890506,0.5412517,0.89810777,0.30286357,0.079441816,0.79478335,0.5722865,-0.12528138,0.0016260082,0.8460327,0.02433902,-0.4096733,-0.72244626,0.86341935,797.3993,786.52014,767.98535,774.43225,890.4762,0.80462646484375,-0.08026123046875,0.5614013671875,4.254302978515625,-2.04864501953125,-0.934600830078125,1.0,1.0,1.0,1.0,1.0,50.0,
2023-09-09 23:02:38.623,1.0390834,1.0152344,1.1439557,0.5342152,0.6321853,0.20736745,0.31890506,0.5412517,0.89810777,0.30286357,0.079441816,0.79478335,0.5722865,-0.12528138,0.0016260082,0.8460327,0.02433902,-0.4096733,-0.72244626,0.86341935,798.60803,782.49084,764.7619,774.83514,817.1429,0.8115234375,-0.07733154296875,0.5716552734375,4.127197265625,-2.818756103515625,-1.069183349609375,1.0,1.0,1.0,1.0,1.0,50.0,
2023-09-09 23:02:38.633,1.0390834,1.0152344,1.1439557,0.5342152,0.6321853,0.20736745,0.31890506,0.5412517,0.89810777,0.30286357,0.079441816,0.79478335,0.5722865,-0.12528138,0.0016260082,0.8460327,0.02433902,-0.4096733,-0.72244626,0.86341935,798.60803,791.75824,783.2967,776.4469,794.57874,0.8057861328125,-0.07806396484375,0.576171875,4.418792724609375,-1.9439697265625,-0.844879150390625,1.0,1.0,1.0,1.0,1.0,50.0,
2023-09-09 23:02:38.637,1.0545782,1.0264677,1.1439557,0.5342152,0.65700877,0.2945964,0.31890506,0.5412517,0.89810777,0.3201522,0.079441816,0.79478335,0.58468205,-0.12627108,0.0016260082,0.8460327,0.018594328,-0.4056772,-0.72244626,0.86341935,798.20514,786.1172,778.0586,782.49084,1144.7252,0.8057861328125,-0.07806396484375,0.576171875,4.418792724609375,-1.9439697265625,-0.844879150390625,1.0,1.0,1.0,1.0,1.0,50.0,
2023-09-09 23:02:38.746,1.0545782,1.0264677,1.1439557,0.5342152,0.65700877,0.2945964,0.31890506,0.5412517,0.89810777,0.3201522,0.079441816,0.79478335,0.58468205,-0.12627108,0.0016260082,0.8460327,0.018594328,-0.4056772,-0.72244626,0.86341935,789.34064,799.011,790.54944,780.07324,830.84247,0.80322265625,-0.0799560546875,0.56951904296875,3.54400634765625,-1.413116455078125,-1.54022216796875,1.0,1.0,1.0,1.0,1.0,50.0,
2023-09-09 23:02:38.753,1.0603024,1.0576465,1.1439557,0.5342152,0.6757236,0.4601973,0.31890506,0.5412517,0.89810777,0.38614985,0.079441816,0.79478335,0.5887828,-0.11000966,0.0016260082,0.8460327,-0.0022530737,-0.40799874,-0.72244626,0.86341935,784.90845,793.7729,786.9231,788.1319,886.4469,0.80322265625,-0.0799560546875,0.56951904296875,3.54400634765625,-1.413116455078125,-1.54022216796875,1.0,1.0,1.0,1.0,1.0,50.0,
2023-09-09 23:02:38.790,1.0603024,1.0576465,1.1439557,0.5342152,0.6757236,0.4601973,0.31890506,0.5412517,0.89810777,0.38614985,0.079441816,0.79478335,0.5887828,-0.11000966,0.0016260082,0.8460327,-0.0022530737,-0.40799874,-0.72244626,0.86341935,788.1319,791.3553,791.3553,774.0293,865.09155,0.79632568359375,-0.08074951171875,0.57012939453125,3.63372802734375,-1.981353759765625,-1.114044189453125,1.0,1.0,1.0,1.0,1.0,50.0,
2023-09-09 23:02:38.823,1.0603024,1.0576465,1.1439557,0.5342152,0.6757236,0.4601973,0.31890506,0.5412517,0.89810777,0.38614985,0.079441816,0.79478335,0.5887828,-0.11000966,0.0016260082,0.8460327,-0.0022530737,-0.40799874,-0.72244626,0.86341935,765.16486,775.64105,783.69965,769.59705,900.14655,0.7991943359375,-0.07928466796875,0.57513427734375,4.149627685546875,-2.175750732421875,-0.710296630859375,1.0,1.0,1.0,1.0,1.0,50.0,
2023-09-09 23:02:38.829,1.0604787,1.1048563,1.1439557,0.9321023,0.68271405,0.6424207,0.31890506,0.8912023,0.89810777,0.52730703,0.079441816,0.92881703,0.58400637,-0.08339246,0.0016260082,0.77328414,-0.037142787,-0.41975003,-0.72244626,0.5312615,757.1062,765.16486,773.6264,755.4945,838.0952,0.7991943359375,-0.07928466796875,0.57513427734375,4.149627685546875,-2.175750732421875,-0.710296630859375,1.0,1.0,1.0,1.0,1.0,50.0,
2023-09-09 23:02:38.892,1.0604787,1.1048563,1.1439557,0.9321023,0.68271405,0.6424207,0.31890506,0.8912023,0.89810777,0.52730703,0.079441816,0.92881703,0.58400637,-0.08339246,0.0016260082,0.77328414,-0.037142787,-0.41975003,-0.72244626,0.5312615,755.4945,765.56775,772.8205,768.7912,1187.8389,0.79534912109375,-0.07763671875,0.583251953125,2.818756103515625,-2.213134765625,-0.665435791015625,1.0,1.0,1.0,1.0,1.0,50.0,
2023-09-09 23:02:38.926,1.0604787,1.1048563,1.1439557,0.9321023,0.68271405,0.6424207,0.31890506,0.8912023,0.89810777,0.52730703,0.079441816,0.92881703,0.58400637,-0.08339246,0.0016260082,0.77328414,-0.037142787,-0.41975003,-0.72244626,0.5312615,751.4652,756.7033,771.2088,763.5531,1060.1099,0.7965087890625,-0.0789794921875,0.58074951171875,2.6318359375,-1.338348388671875,-1.069183349609375,1.0,1.0,1.0,1.0,1.0,50.0,
2023-09-09 23:02:38.934,1.0582932,1.148004,1.1439557,1.0440549,0.6796042,0.78850955,0.31890506,0.9662853,0.89810777,0.6315208,0.079441816,0.9498659,0.577629,-0.056308966,0.0016260082,0.79880893,-0.074637346,-0.4392023,-0.72244626,0.5277302,757.1062,762.74725,781.28204,748.6447,790.54944,0.7965087890625,-0.0789794921875,0.58074951171875,2.6318359375,-1.338348388671875,-1.069183349609375,1.0,1.0,1.0,1.0,1.0,50.0,
2023-09-09 23:02:39.053,1.0582932,1.148004,1.1439557,1.0440549,0.6796042,0.78850955,0.31890506,0.9662853,0.89810777,0.6315208,0.079441816,0.9498659,0.577629,-0.056308966,0.0016260082,0.79880893,-0.074637346,-0.4392023,-0.72244626,0.5277302,759.5238,780.07324,782.8938,748.24176,683.7729,0.78814697265625,-0.07958984375,0.58868408203125,1.517791748046875,-1.054229736328125,-1.00189208984375,1.0,1.0,1.0,1.0,1.0,50.0,
2023-09-09 23:02:39.090,1.0582932,1.148004,1.1439557,1.0440549,0.6796042,0.78850955,0.31890506,0.9662853,0.89810777,0.6315208,0.079441816,0.9498659,0.577629,-0.056308966,0.0016260082,0.79880893,-0.074637346,-0.4392023,-0.72244626,0.5277302,749.0476,777.25275,781.28204,765.16486,796.99634,0.78564453125,-0.08416748046875,0.58148193359375,0.6280517578125,-0.321502685546875,-1.278533935546875,1.0,1.0,1.0,1.0,1.0,50.0,
2023-09-09 23:02:39.091,1.0574107,1.1824456,1.1439557,1.1399889,0.67276084,0.8822213,0.31890506,0.9945613,0.89643013,0.63797104,0.079441816,0.97076666,0.5804402,-0.03535922,0.0016260082,0.8132436,-0.10081766,-0.460949,-0.72244626,0.532643,750.65936,774.0293,777.6557,759.12085,873.5531,0.78564453125,-0.08416748046875,0.58148193359375,0.6280517578125,-0.321502685546875,-1.278533935546875,1.0,1.0,1.0,1.0,1.0,50.0,
2023-09-09 23:02:39.103,1.0574107,1.1824456,1.1439557,1.1399889,0.67276084,0.8822213,0.31890506,0.9945613,0.89643013,0.63797104,0.079441816,0.97076666,0.5804402,-0.03535922,0.0016260082,0.8132436,-0.10081766,-0.460949,-0.72244626,0.532643,749.85345,770.40295,765.56775,747.4359,906.99634,0.78125,-0.09051513671875,0.59368896484375,-0.478515625,-0.16448974609375,-1.60003662109375,1.0,1.0,1.0,1.0,1.0,50.0,
2023-09-09 23:02:39.162,1.0574107,1.1824456,1.1439557,1.1399889,0.67276084,0.8822213,0.31890506,0.9945613,0.89643013,0.63797104,0.079441816,0.97076666,0.5804402,-0.03535922,0.0016260082,0.8132436,-0.10081766,-0.460949,-0.72244626,0.532643,767.98535,763.1502,766.77655,759.92676,872.74725,0.7879638671875,-0.09173583984375,0.5867919921875,-0.680389404296875,1.0467529296875,-1.09161376953125,1.0,1.0,1.0,1.0,1.0,50.0,
2023-09-09 23:02:39.168,1.0615836,1.2153492,1.1439557,1.2125754,0.6676925,0.9306901,0.31890506,0.99056435,0.89507616,0.6393634,0.079441816,0.98356247,0.5973078,-0.022753038,0.0016260082,0.81829166,-0.115793064,-0.4812961,-0.72244626,0.536358,758.71796,764.7619,765.16486,751.8681,850.989,0.7879638671875,-0.09173583984375,0.5867919921875,-0.680389404296875,1.0467529296875,-1.09161376953125,1.0,1.0,1.0,1.0,1.0,50.0,
2023-09-09 23:02:39.289,1.0615836,1.2153492,1.1439557,1.2125754,0.6676925,0.9306901,0.31890506,0.99056435,0.89507616,0.6393634,0.079441816,0.98356247,0.5973078,-0.022753038,0.0016260082,0.81829166,-0.115793064,-0.4812961,-0.72244626,0.536358,773.22345,769.59705,782.49084,753.47986,802.23444,0.77349853515625,-0.0869140625,0.58770751953125,-1.77947998046875,2.13836669921875,-0.67291259765625,1.0,1.0,1.0,1.0,1.0,50.0,
2023-09-09 23:02:39.295,1.0753049,1.2484565,1.1439557,1.2603549,0.66410893,0.951138,0.31890506,0.9676146,0.8893964,0.6393634,0.079441816,0.9945694,0.6244017,-0.016158985,0.0016260082,0.8170947,-0.13477854,-0.49810988,-0.72244626,0.5336351,782.49084,780.07324,784.10254,744.61536,890.4762,0.77349853515625,-0.0869140625,0.58770751953125,-1.77947998046875,2.13836669921875,-0.67291259765625,1.0,1.0,1.0,1.0,1.0,50.0,
2023-09-09 23:02:39.341,1.0753049,1.2484565,1.1439557,1.2603549,0.66410893,0.951138,0.31890506,0.9676146,0.8893964,0.6393634,0.079441816,0.9945694,0.6244017,-0.016158985,0.0016260082,0.8170947,-0.13477854,-0.49810988,-0.72244626,0.5336351,766.3736,779.67035,775.64105,749.45056,811.0989,0.765380859375,-0.09814453125,0.59307861328125,-2.13836669921875,1.263580322265625,-2.011260986328125,1.0,1.0,1.0,1.0,1.0,50.0,
2023-09-09 23:02:39.356,1.0753049,1.2484565,1.1439557,1.2603549,0.66410893,0.951138,0.31890506,0.9676146,0.8893964,0.6393634,0.079441816,0.9945694,0.6244017,-0.016158985,0.0016260082,0.8170947,-0.13477854,-0.49810988,-0.72244626,0.5336351,781.685,774.0293,779.2674,773.6264,813.5165,0.76123046875,-0.10198974609375,0.591796875,-0.52337646484375,0.755157470703125,-2.64678955078125,1.0,1.0,1.0,1.0,1.0,50.0,
2023-09-09 23:02:39.360,1.097532,1.2623128,1.1439557,1.2603549,0.65653974,0.976707,0.31890506,0.9676146,0.8863662,0.6393634,0.079441816,0.9945694,0.65380764,-0.0059154904,0.0016260082,0.8170947,-0.169149,-0.5055006,-0.72244626,0.5336351,782.8938,775.2381,780.4762,774.83514,849.7802,0.76123046875,-0.10198974609375,0.591796875,-0.52337646484375,0.755157470703125,-2.64678955078125,1.0,1.0,1.0,1.0,1.0,50.0,
2023-09-09 23:02:39.409,1.097532,1.2623128,1.1439557,1.2603549,0.65653974,0.976707,0.31890506,0.9676146,0.8863662,0.6393634,0.079441816,0.9945694,0.65380764,-0.0059154904,0.0016260082,0.8170947,-0.169149,-0.5055006,-0.72244626,0.5336351,792.1612,770.40295,776.4469,725.2747,788.5348,0.77239990234375,-0.0997314453125,0.59271240234375,0.456085205078125,-2.056121826171875,-3.072967529296875,1.0,1.0,1.0,1.0,1.0,50.0,
2023-09-09 23:02:39.467,1.097532,1.2623128,1.1439557,1.2603549,0.65653974,0.976707,0.31890506,0.9676146,0.8863662,0.6393634,0.079441816,0.9945694,0.65380764,-0.0059154904,0.0016260082,0.8170947,-0.169149,-0.5055006,-0.72244626,0.5336351,791.75824,775.2381,772.01465,796.99634,819.5604,0.77130126953125,-0.10333251953125,0.579833984375,0.6280517578125,-4.8748779296875,-3.529052734375,1.0,1.0,1.0,1.0,1.0,50.0,
2023-09-09 23:02:39.474,1.1331131,1.272042,1.1632524,1.2603549,0.6470016,1.0048759,0.28213173,0.9676146,0.88344204,0.6393634,0.07638789,0.9945694,0.6735552,0.0025384894,0.0132998675,0.8170947,-0.21448082,-0.5099181,-0.7890125,0.5336351,796.5934,776.8498,778.46155,778.86444,1233.37,0.77130126953125,-0.10333251953125,0.579833984375,0.6280517578125,-4.8748779296875,-3.529052734375,1.0,1.0,1.0,1.0,1.0,50.0,
2023-09-09 23:02:39.552,1.1331131,1.272042,1.1632524,1.2603549,0.6470016,1.0048759,0.28213173,0.9676146,0.88344204,0.6393634,0.07638789,0.9945694,0.6735552,0.0025384894,0.0132998675,0.8170947,-0.21448082,-0.5099181,-0.7890125,0.5336351,809.4872,804.2491,822.381,864.2857,869.5238,0.78643798828125,-0.100341796875,0.57781982421875,2.0635986328125,-5.9515380859375,-3.058013916015625,1.0,1.0,1.0,1.0,1.0,50.0,
2023-09-09 23:02:39.564,1.1737278,1.2819226,1.1914803,1.2939365,0.64045596,1.0357294,0.24948584,1.0090989,0.878115,0.6393634,0.044507265,0.9945694,0.6674461,0.007420991,0.018111715,0.8279912,-0.26050943,-0.5076659,-0.8569659,0.52654475,811.50183,811.9048,828.4249,851.39197,824.3956,0.78643798828125,-0.100341796875,0.57781982421875,2.0635986328125,-5.9515380859375,-3.058013916015625,1.0,1.0,1.0,1.0,1.0,50.0,
2023-09-09 23:02:39.595,1.1737278,1.2819226,1.1914803,1.2939365,0.64045596,1.0357294,0.24948584,1.0090989,0.878115,0.6393634,0.044507265,0.9945694,0.6674461,0.007420991,0.018111715,0.8279912,-0.26050943,-0.5076659,-0.8569659,0.52654475,815.5311,809.4872,824.3956,840.10986,858.6447,0.79840087890625,-0.1014404296875,0.56561279296875,1.45050048828125,-6.47491455078125,-2.97576904296875,1.0,1.0,1.0,1.0,1.0,50.0,
2023-09-09 23:02:39.636,1.1737278,1.2819226,1.1914803,1.2939365,0.64045596,1.0357294,0.24948584,1.0090989,0.878115,0.6393634,0.044507265,0.9945694,0.6674461,0.007420991,0.018111715,0.8279912,-0.26050943,-0.5076659,-0.8569659,0.52654475,832.4542,826.4103,836.08057,847.3626,831.2454,0.801513671875,-0.10736083984375,0.5625,1.622467041015625,-6.631927490234375,-2.87109375,1.0,1.0,1.0,1.0,1.0,50.0,
2023-09-09 23:02:39.686,1.1737278,1.2819226,1.1914803,1.2939365,0.64045596,1.0357294,0.24948584,1.0090989,0.878115,0.6393634,0.044507265,0.9945694,0.6674461,0.007420991,0.018111715,0.8279912,-0.26050943,-0.5076659,-0.8569659,0.52654475,815.9341,806.26373,807.47253,834.4689,803.44324,0.8148193359375,-0.10968017578125,0.5599365234375,2.893524169921875,-6.3702392578125,-2.519683837890625,1.0,1.0,1.0,1.0,1.0,50.0,
2023-09-09 23:02:39.687,1.1737278,1.2986362,1.2202573,1.2939365,0.64045596,1.0692842,0.35827455,1.0090989,0.878115,0.6393634,0.2120723,0.9945694,0.6674461,0.00810151,0.025943263,0.8279912,-0.26050943,-0.49929395,-0.7426529,0.52654475,812.71063,804.65204,807.0696,837.28937,797.8022,0.8148193359375,-0.10968017578125,0.5599365234375,2.893524169921875,-6.3702392578125,-2.519683837890625,1.0,1.0,1.0,1.0,1.0,50.0,
2023-09-09 23:02:39.785,1.1737278,1.2986362,1.2202573,1.2939365,0.64045596,1.0692842,0.35827455,1.0090989,0.878115,0.6393634,0.2120723,0.9945694,0.6674461,0.00810151,0.025943263,0.8279912,-0.26050943,-0.49929395,-0.7426529,0.52654475,797.8022,778.86444,780.4762,786.52014,784.10254,0.8209228515625,-0.10443115234375,0.54840087890625,4.8150634765625,-8.007659912109375,-1.9439697265625,1.0,1.0,1.0,1.0,1.0,50.0,
2023-09-09 23:02:39.788,1.1737278,1.3204406,1.2202573,1.2939365,0.64045596,1.1064557,0.35827455,1.0090989,0.878115,0.6393634,0.2120723,0.9945694,0.6674461,0.0061080847,0.025943263,0.8279912,-0.26050943,-0.48727587,-0.7426529,0.52654475,800.6227,771.2088,774.43225,780.87915,777.25275,0.8209228515625,-0.10443115234375,0.54840087890625,4.8150634765625,-8.007659912109375,-1.9439697265625,1.0,1.0,1.0,1.0,1.0,50.0,
2023-09-09 23:02:39.830,1.1737278,1.3204406,1.2202573,1.2939365,0.64045596,1.1064557,0.35827455,1.0090989,0.878115,0.6393634,0.2120723,0.9945694,0.6674461,0.0061080847,0.025943263,0.8279912,-0.26050943,-0.48727587,-0.7426529,0.52654475,784.90845,771.6117,765.9707,771.6117,814.7253,0.823974609375,-0.0972900390625,0.560302734375,5.555267333984375,-8.553466796875,-1.218719482421875,1.0,1.0,1.0,1.0,1.0,50.0,
2023-09-09 23:02:39.839,1.1737278,1.3204406,1.2202573,1.2939365,0.64045596,1.1064557,0.35827455,1.0090989,0.878115,0.6393634,0.2120723,0.9945694,0.6674461,0.0061080847,0.025943263,0.8279912,-0.26050943,-0.48727587,-0.7426529,0.52654475,791.3553,792.96704,767.1795,799.011,822.7839,0.83203125,-0.08563232421875,0.552978515625,6.7291259765625,-6.213226318359375,-1.951446533203125,1.0,1.0,1.0,1.0,1.0,50.0,
