timestamp,TP9,AF7,AF8,TP10
0.0,3.269203494163426e-05,1.5117933481345863e-05,3.90382382467384e-05,1.4141594511329842e-05
0.00390625,3.659739082169834e-05,1.6094272451361885e-05,4.0990916186770444e-05,1.6094272451361885e-05
0.0078125,3.610922133669034e-05,2.439315369649807e-05,5.905318713206685e-05,1.951145884641796e-05
0.01171875,3.4156543396658294e-05,3.7573729791714366e-05,8.30040024902724e-05,2.292864524147404e-05
0.015625,3.3668373911650276e-05,2.3416814726482047e-05,8.886203631036852e-05,1.755878090638592e-05
0.01953125,3.610922133669034e-05,-3.890165841153565e-06,6.835891794003205e-05,1.5606102966353874e-05
0.0234375,3.171569597161824e-05,2.4255268711375773e-06,6.295854301213094e-05,1.951145884641796e-05
0.02734375,2.439315369649807e-05,1.7070611421377907e-05,7.47051212451362e-05,1.902328936140995e-05
0.03125,3.659739082169834e-05,2.488132318150608e-05,8.349217197528039e-05,1.6094272451361885e-05
0.03515625,5.270698382696271e-05,2.5857662151522106e-05,8.544484991531244e-05,1.4141594511329842e-05
0.0390625,5.2218814341954696e-05,1.6582441936369896e-05,6.5887559922179e-05,1.5117933481345863e-05
0.04296875,4.294359412680248e-05,6.819052236209676e-06,4.391993309681851e-05,1.4629763996337851e-05
0.046875,4.245542464179448e-05,9.748069146257742e-06,3.806189927672238e-05,1.0724408116273763e-05
0.05078125,4.880162794689862e-05,3.1227526486610226e-05,5.124247537193867e-05,1.365342502632183e-05
0.0546875,5.612417022201878e-05,2.1464136786450005e-05,5.71005091920348e-05,1.4141594511329842e-05
0.05859375,4.440810258182652e-05,-3.401996356145554e-06,4.1479085671778456e-05,9.748069146257742e-06
0.0625,3.610922133669034e-05,-3.890165841153565e-06,2.6834001121538125e-05,1.2188916571297797e-05
0.06640625,4.001457721675442e-05,7.307221721217687e-06,2.3416814726482047e-05,1.0236238631265752e-05
0.0703125,4.245542464179448e-05,1.6094272451361885e-05,3.952640773174641e-05,1.2677086056305808e-05
0.07421875,4.245542464179448e-05,1.365342502632183e-05,5.319515331197072e-05,1.4141594511329842e-05
0.078125,3.90382382467384e-05,1.4491879011215552e-06,3.952640773174641e-05,1.2188916571297797e-05
0.08203125,3.952640773174641e-05,-2.5857792666514058e-05,1.7070611421377907e-05,1.2188916571297797e-05
0.0859375,4.001457721675442e-05,-1.0236369146257707e-05,1.6582441936369896e-05,9.259899661249731e-06
0.08984375,4.245542464179448e-05,2.829850957656216e-05,3.1227526486610226e-05,5.354543781185643e-06
0.09375,4.245542464179448e-05,3.171569597161824e-05,4.538444155184254e-05,5.842713266193654e-06
0.09765625,3.220386545662624e-05,1.2188916571297797e-05,4.831345846189061e-05,6.330882751201665e-06
0.1015625,3.171569597161824e-05,-9.61148931105499e-07,3.806189927672238e-05,7.307221721217687e-06
0.10546875,4.196725515678646e-05,2.3416814726482047e-05,3.0251187516594204e-05,5.842713266193654e-06
0.109375,4.7337119491874584e-05,3.1227526486610226e-05,4.196725515678646e-05,9.259899661249731e-06
0.11328125,4.9289797431906635e-05,1.755878090638592e-05,5.66123397070268e-05,1.2188916571297797e-05
0.1171875,5.2218814341954696e-05,3.401865841153599e-06,5.026613640192266e-05,1.0724408116273763e-05
0.12109375,5.026613640192266e-05,-1.121270811627373e-05,4.001457721675442e-05,1.2188916571297797e-05
0.125,4.391993309681851e-05,1.0724408116273763e-05,3.8550068761730395e-05,1.1700747086289786e-05
0.12890625,4.34317636118105e-05,3.5132882366674316e-05,4.636078052185856e-05,7.795391206225697e-06
0.1328125,4.7825288976882595e-05,2.3416814726482047e-05,5.5636000737010774e-05,7.795391206225697e-06
0.13671875,4.7337119491874584e-05,-5.842843781185608e-06,4.977796691691464e-05,1.0236238631265752e-05
0.140625,4.196725515678646e-05,-1.755891142137787e-05,3.46447128816663e-05,5.842713266193654e-06
0.14453125,4.440810258182652e-05,-9.61148931105499e-07,2.6834001121538125e-05,4.378204811169621e-06
0.1484375,5.319515331197072e-05,1.5117933481345863e-05,3.952640773174641e-05,8.283560691233709e-06
0.15234375,5.5636000737010774e-05,1.1700747086289786e-05,6.0029526102082876e-05,1.0236238631265752e-05
0.15625,5.1730644856946685e-05,-1.072453863126572e-05,5.5636000737010774e-05,9.259899661249731e-06
0.16015625,5.465966176699475e-05,-2.4393284211490024e-05,3.659739082169834e-05,8.283560691233709e-06
0.1640625,5.417149228198674e-05,-1.560623348134583e-05,3.46447128816663e-05,1.1700747086289786e-05
0.16796875,4.880162794689862e-05,-3.401996356145554e-06,4.636078052185856e-05,1.1212577601281776e-05
0.171875,5.026613640192266e-05,8.77173017624172e-06,5.66123397070268e-05,9.259899661249731e-06
0.17578125,5.124247537193867e-05,-2.425657386129532e-06,5.417149228198674e-05,1.2188916571297797e-05
0.1796875,5.1730644856946685e-05,-3.890165841153565e-06,4.0990916186770444e-05,1.5117933481345863e-05
0.18359375,5.368332279697873e-05,1.0236238631265752e-05,2.6834001121538125e-05,1.5117933481345863e-05
0.1875,5.270698382696271e-05,2.0487797816433986e-05,3.318020442664227e-05,1.365342502632183e-05
0.19140625,5.124247537193867e-05,3.220386545662624e-05,5.612417022201878e-05,1.4141594511329842e-05
0.1953125,5.2218814341954696e-05,2.7322170606546137e-05,6.247037352712293e-05,1.8535119876401938e-05
0.19921875,5.075430588693066e-05,1.365342502632183e-05,4.5872611036850557e-05,1.951145884641796e-05
0.203125,4.7825288976882595e-05,5.354543781185643e-06,3.171569597161824e-05,2.0975967301441994e-05
0.20703125,5.66123397070268e-05,1.365342502632183e-05,4.0990916186770444e-05,2.0975967301441994e-05
0.2109375,5.319515331197072e-05,2.292864524147404e-05,5.1730644856946685e-05,2.0975967301441994e-05
0.21484375,5.856501764705884e-05,2.7810340091554148e-05,4.9289797431906635e-05,2.6834001121538125e-05
0.21875,5.856501764705884e-05,1.1700747086289786e-05,3.1227526486610226e-05,2.3416814726482047e-05
0.22265625,4.538444155184254e-05,-9.748199661249696e-06,1.755878090638592e-05,2.2440475756466028e-05
0.2265625,5.075430588693066e-05,3.890035326161609e-06,2.5857662151522106e-05,2.488132318150608e-05
0.23046875,5.514783125200276e-05,2.3416814726482047e-05,4.294359412680248e-05,2.7322170606546137e-05
0.234375,5.319515331197072e-05,1.7070611421377907e-05,5.075430588693066e-05,2.9274848546578178e-05
0.23828125,4.7825288976882595e-05,-1.3165386056305774e-05,3.610922133669034e-05,2.2440475756466028e-05
0.2421875,4.636078052185856e-05,-2.4393284211490024e-05,2.292864524147404e-05,2.1952306271458016e-05
0.24609375,5.319515331197072e-05,-1.3653555541313785e-05,2.7810340091554148e-05,2.439315369649807e-05
0.25,5.612417022201878e-05,9.610184161135442e-07,4.245542464179448e-05,2.3904984211490058e-05
0.25390625,5.514783125200276e-05,9.259899661249731e-06,4.34317636118105e-05,2.439315369649807e-05
0.2578125,4.977796691691464e-05,4.7284893110553325e-07,2.7322170606546137e-05,2.292864524147404e-05
0.26171875,5.2218814341954696e-05,-7.307352236209642e-06,1.951145884641796e-05,1.8046950391393927e-05
0.265625,5.66123397070268e-05,5.354543781185643e-06,2.292864524147404e-05,1.9999628331425975e-05
0.26953125,5.1730644856946685e-05,1.8046950391393927e-05,2.7322170606546137e-05,2.5369492666514095e-05
0.2734375,5.417149228198674e-05,2.976301803158619e-05,4.196725515678646e-05,2.878667906157017e-05
0.27734375,5.758867867704282e-05,1.0724408116273763e-05,4.4896272066834534e-05,2.6345831636530114e-05
0.28125,5.856501764705884e-05,-1.072453863126572e-05,3.1227526486610226e-05,2.0975967301441994e-05
0.28515625,5.71005091920348e-05,-1.44931841611351e-06,3.269203494163426e-05,2.1952306271458016e-05
0.2890625,4.977796691691464e-05,7.307221721217687e-06,5.270698382696271e-05,2.6345831636530114e-05
0.29296875,5.2218814341954696e-05,1.8046950391393927e-05,7.226427382009615e-05,2.5369492666514095e-05
0.296875,5.66123397070268e-05,1.2188916571297797e-05,6.491122095216298e-05,2.3904984211490058e-05
0.30078125,6.0029526102082876e-05,-9.61148931105499e-07,4.5872611036850557e-05,2.488132318150608e-05
0.3046875,5.5636000737010774e-05,3.890035326161609e-06,4.245542464179448e-05,2.3904984211490058e-05
0.30859375,5.270698382696271e-05,2.0487797816433986e-05,5.5636000737010774e-05,2.488132318150608e-05
0.3125,5.954135661707486e-05,2.9274848546578178e-05,7.128793485008013e-05,3.0739357001602215e-05
0.31640625,5.319515331197072e-05,7.795391206225697e-06,6.491122095216298e-05,3.220386545662624e-05
0.3203125,4.977796691691464e-05,-3.401996356145554e-06,4.196725515678646e-05,2.829850957656216e-05
0.32421875,5.075430588693066e-05,-1.5320553902477717e-08,4.050274670176243e-05,2.9274848546578178e-05
0.328125,5.417149228198674e-05,1.9999628331425975e-05,4.977796691691464e-05,3.269203494163426e-05
0.33203125,6.198220404211491e-05,3.659739082169834e-05,6.198220404211491e-05,3.46447128816663e-05
0.3359375,5.954135661707486e-05,4.7284893110553325e-07,6.198220404211491e-05,3.46447128816663e-05
0.33984375,5.8076848162050824e-05,-2.488145369649804e-05,4.440810258182652e-05,3.269203494163426e-05
0.34375,6.198220404211491e-05,-1.5118063996337817e-05,2.7810340091554148e-05,3.269203494163426e-05
0.34765625,6.149403455710691e-05,-3.890165841153565e-06,2.7810340091554148e-05,3.5132882366674316e-05
0.3515625,5.71005091920348e-05,1.2677086056305808e-05,4.7337119491874584e-05,3.269203494163426e-05
0.35546875,5.612417022201878e-05,1.2677086056305808e-05,4.050274670176243e-05,3.220386545662624e-05
0.359375,5.465966176699475e-05,-2.9138268711375426e-06,2.0975967301441994e-05,3.0251187516594204e-05
0.36328125,5.71005091920348e-05,-1.4629894511329806e-05,2.0487797816433986e-05,2.9274848546578178e-05
0.3671875,6.442305146715498e-05,1.5606102966353874e-05,3.952640773174641e-05,2.976301803158619e-05
0.37109375,6.198220404211491e-05,3.659739082169834e-05,5.612417022201878e-05,2.6834001121538125e-05
0.375,5.514783125200276e-05,1.1700747086289786e-05,4.636078052185856e-05,2.6345831636530114e-05
0.37890625,5.1730644856946685e-05,-1.937487901121521e-06,3.1227526486610226e-05,3.0739357001602215e-05
0.3828125,5.2218814341954696e-05,-4.3783353261615755e-06,2.439315369649807e-05,3.1227526486610226e-05
0.38671875,5.417149228198674e-05,4.378204811169621e-06,3.318020442664227e-05,2.829850957656216e-05
0.390625,5.5636000737010774e-05,1.4629763996337851e-05,5.417149228198674e-05,3.0251187516594204e-05
0.39453125,5.1730644856946685e-05,1.951145884641796e-05,5.71005091920348e-05,3.0251187516594204e-05
0.3984375,5.124247537193867e-05,6.819052236209676e-06,4.391993309681851e-05,3.0251187516594204e-05
0.40234375,5.026613640192266e-05,-1.5118063996337817e-05,2.829850957656216e-05,2.7322170606546137e-05
0.40625,5.417149228198674e-05,2.913696356145588e-06,3.0251187516594204e-05,2.6834001121538125e-05
0.41015625,5.71005091920348e-05,3.4156543396658294e-05,5.075430588693066e-05,2.439315369649807e-05
0.4140625,4.977796691691464e-05,3.220386545662624e-05,5.026613640192266e-05,1.951145884641796e-05
0.41796875,4.391993309681851e-05,-2.425657386129532e-06,3.610922133669034e-05,1.8046950391393927e-05
0.421875,4.7337119491874584e-05,-1.9023419876401904e-05,2.292864524147404e-05,1.951145884641796e-05
0.42578125,4.880162794689862e-05,-1.5118063996337817e-05,2.1952306271458016e-05,2.439315369649807e-05
0.4296875,4.440810258182652e-05,-5.842843781185608e-06,3.8550068761730395e-05,2.3904984211490058e-05
0.43359375,4.4896272066834534e-05,3.401865841153599e-06,4.196725515678646e-05,2.0975967301441994e-05
0.4375,4.34317636118105e-05,-1.3165386056305774e-05,3.0251187516594204e-05,2.0975967301441994e-05
0.44140625,3.90382382467384e-05,-1.951158936140992e-05,1.9999628331425975e-05,2.3416814726482047e-05
0.4453125,4.34317636118105e-05,-1.44931841611351e-06,1.5117933481345863e-05,2.3904984211490058e-05
0.44921875,4.7337119491874584e-05,1.5606102966353874e-05,2.6345831636530114e-05,1.951145884641796e-05
0.453125,4.196725515678646e-05,5.354543781185643e-06,4.294359412680248e-05,1.8535119876401938e-05
0.45703125,4.001457721675442e-05,-2.536962318150605e-05,3.952640773174641e-05,1.8535119876401938e-05
0.4609375,4.391993309681851e-05,-2.195243678644997e-05,1.8046950391393927e-05,1.6582441936369896e-05
0.46484375,4.391993309681851e-05,-4.72979446097488e-07,1.5606102966353874e-05,1.365342502632183e-05
0.46875,4.1479085671778456e-05,1.4629763996337851e-05,3.7573729791714366e-05,1.3165255541313818e-05
0.47265625,3.8550068761730395e-05,1.365342502632183e-05,5.124247537193867e-05,1.6094272451361885e-05
0.4765625,3.8550068761730395e-05,-3.401996356145554e-06,5.1730644856946685e-05,1.951145884641796e-05
0.48046875,4.294359412680248e-05,-3.401996356145554e-06,3.659739082169834e-05,1.902328936140995e-05
0.484375,4.391993309681851e-05,1.4491879011215552e-06,2.6345831636530114e-05,1.755878090638592e-05
0.48828125,4.0990916186770444e-05,8.283560691233709e-06,3.90382382467384e-05,1.5606102966353874e-05
0.4921875,3.562105185168232e-05,8.283560691233709e-06,5.075430588693066e-05,1.3165255541313818e-05
0.49609375,3.8550068761730395e-05,4.866374296177632e-06,5.026613640192266e-05,1.365342502632183e-05
0.5,3.952640773174641e-05,-4.72979446097488e-07,4.050274670176243e-05,1.2188916571297797e-05
0.50390625,4.391993309681851e-05,-6.3310132661936195e-06,3.7085560306706354e-05,1.4629763996337851e-05
0.5078125,4.196725515678646e-05,1.4629763996337851e-05,4.391993309681851e-05,1.4629763996337851e-05
0.51171875,3.269203494163426e-05,1.755878090638592e-05,5.417149228198674e-05,1.2188916571297797e-05
0.515625,3.8550068761730395e-05,7.307221721217687e-06,4.831345846189061e-05,1.2188916571297797e-05
0.51953125,4.0990916186770444e-05,-7.795521721217652e-06,2.878667906157017e-05,1.2188916571297797e-05
0.5234375,3.610922133669034e-05,-1.072453863126572e-05,1.365342502632183e-05,1.1700747086289786e-05
0.52734375,3.3668373911650276e-05,7.307221721217687e-06,2.439315369649807e-05,1.3165255541313818e-05
0.53125,3.1227526486610226e-05,1.7070611421377907e-05,4.5872611036850557e-05,1.5117933481345863e-05
0.53515625,3.0251187516594204e-05,8.77173017624172e-06,4.636078052185856e-05,1.3165255541313818e-05
0.5390625,3.269203494163426e-05,-5.842843781185608e-06,3.0251187516594204e-05,1.3165255541313818e-05
0.54296875,3.171569597161824e-05,3.401865841153599e-06,2.0487797816433986e-05,1.1212577601281776e-05
0.546875,2.6834001121538125e-05,2.1464136786450005e-05,2.976301803158619e-05,7.795391206225697e-06
0.55078125,2.5369492666514095e-05,1.951145884641796e-05,5.270698382696271e-05,1.1700747086289786e-05
0.5546875,2.5857662151522106e-05,1.8046950391393927e-05,5.856501764705884e-05,1.5606102966353874e-05
0.55859375,2.976301803158619e-05,1.1212577601281776e-05,4.440810258182652e-05,1.5606102966353874e-05
0.5625,3.220386545662624e-05,-2.9138268711375426e-06,3.0739357001602215e-05,1.4141594511329842e-05
0.56640625,3.1227526486610226e-05,1.4491879011215552e-06,3.0251187516594204e-05,1.2677086056305808e-05
0.5703125,2.7322170606546137e-05,1.5117933481345863e-05,4.538444155184254e-05,9.259899661249731e-06
0.57421875,2.2440475756466028e-05,2.1464136786450005e-05,5.514783125200276e-05,9.259899661249731e-06
0.578125,2.439315369649807e-05,3.890035326161609e-06,4.538444155184254e-05,1.2188916571297797e-05
0.58203125,2.439315369649807e-05,-1.560623348134583e-05,3.0739357001602215e-05,1.0724408116273763e-05
0.5859375,1.9999628331425975e-05,-1.5320553902477717e-08,2.976301803158619e-05,1.4141594511329842e-05
0.58984375,1.9999628331425975e-05,2.1464136786450005e-05,4.538444155184254e-05,1.6582441936369896e-05
0.59375,1.9999628331425975e-05,8.77173017624172e-06,5.71005091920348e-05,1.6582441936369896e-05
0.59765625,1.902328936140995e-05,-1.5118063996337817e-05,4.391993309681851e-05,1.9999628331425975e-05
0.6015625,2.1464136786450005e-05,-2.2928775756465994e-05,2.9274848546578178e-05,2.0975967301441994e-05
0.60546875,1.755878090638592e-05,-7.795521721217652e-06,2.9274848546578178e-05,1.755878090638592e-05
0.609375,1.3165255541313818e-05,1.8046950391393927e-05,4.245542464179448e-05,1.8535119876401938e-05
0.61328125,1.3165255541313818e-05,2.878667906157017e-05,4.7337119491874584e-05,1.7070611421377907e-05
0.6171875,1.4141594511329842e-05,8.77173017624172e-06,3.5132882366674316e-05,1.6094272451361885e-05
0.62109375,1.6094272451361885e-05,-4.866504811169587e-06,2.488132318150608e-05,1.8535119876401938e-05
0.625,1.951145884641796e-05,1.2188916571297797e-05,1.951145884641796e-05,2.0487797816433986e-05
0.62890625,1.7070611421377907e-05,3.4156543396658294e-05,3.269203494163426e-05,2.0487797816433986e-05
0.6328125,1.5117933481345863e-05,3.269203494163426e-05,5.1730644856946685e-05,2.1464136786450005e-05
0.63671875,1.902328936140995e-05,1.951145884641796e-05,4.636078052185856e-05,2.1952306271458016e-05
0.640625,1.8046950391393927e-05,5.842713266193654e-06,3.610922133669034e-05,1.951145884641796e-05
0.64453125,2.292864524147404e-05,1.4491879011215552e-06,3.269203494163426e-05,1.755878090638592e-05
0.6484375,2.2440475756466028e-05,2.1952306271458016e-05,4.636078052185856e-05,1.755878090638592e-05
0.65234375,1.8535119876401938e-05,3.562105185168232e-05,6.491122095216298e-05,1.902328936140995e-05
0.65625,2.0487797816433986e-05,2.1464136786450005e-05,6.149403455710691e-05,1.6582441936369896e-05
0.66015625,2.292864524147404e-05,2.913696356145588e-06,4.0990916186770444e-05,1.7070611421377907e-05
0.6640625,2.439315369649807e-05,-7.307352236209642e-06,2.439315369649807e-05,2.0487797816433986e-05
0.66796875,2.1464136786450005e-05,2.2440475756466028e-05,3.46447128816663e-05,2.2440475756466028e-05
0.671875,1.6094272451361885e-05,3.90382382467384e-05,5.319515331197072e-05,2.3416814726482047e-05
0.67578125,1.2188916571297797e-05,6.330882751201665e-06,4.880162794689862e-05,2.1464136786450005e-05
0.6796875,1.3165255541313818e-05,-1.755891142137787e-05,3.269203494163426e-05,2.3416814726482047e-05
0.68359375,1.5606102966353874e-05,-2.195243678644997e-05,1.902328936140995e-05,2.6345831636530114e-05
0.6875,1.7070611421377907e-05,3.401865841153599e-06,2.488132318150608e-05,2.292864524147404e-05
0.69140625,1.8046950391393927e-05,2.439315369649807e-05,4.977796691691464e-05,1.8535119876401938e-05
0.6953125,1.951145884641796e-05,1.1212577601281776e-05,4.7825288976882595e-05,1.902328936140995e-05
0.69921875,2.1464136786450005e-05,-1.609440296635384e-05,2.2440475756466028e-05,1.755878090638592e-05
0.703125,1.755878090638592e-05,-1.560623348134583e-05,1.4629763996337851e-05,2.0975967301441994e-05
0.70703125,2.0487797816433986e-05,1.0724408116273763e-05,3.0739357001602215e-05,2.488132318150608e-05
0.7109375,2.0487797816433986e-05,1.4141594511329842e-05,5.124247537193867e-05,2.3416814726482047e-05
0.71484375,1.5117933481345863e-05,1.365342502632183e-05,5.905318713206685e-05,2.0487797816433986e-05
0.71875,1.6582441936369896e-05,3.890035326161609e-06,5.026613640192266e-05,2.3416814726482047e-05
0.72265625,1.951145884641796e-05,3.890035326161609e-06,3.220386545662624e-05,2.3416814726482047e-05
0.7265625,1.8046950391393927e-05,2.3416814726482047e-05,3.610922133669034e-05,2.0487797816433986e-05
0.73046875,1.8046950391393927e-05,3.659739082169834e-05,5.8076848162050824e-05,1.6094272451361885e-05
0.734375,2.439315369649807e-05,3.1227526486610226e-05,6.835891794003205e-05,1.4629763996337851e-05
0.73828125,2.6834001121538125e-05,-7.307352236209642e-06,4.684895000686658e-05,1.755878090638592e-05
0.7421875,2.6834001121538125e-05,-1.609440296635384e-05,2.292864524147404e-05,1.7070611421377907e-05
0.74609375,2.2440475756466028e-05,1.4141594511329842e-05,2.6834001121538125e-05,1.6582441936369896e-05
0.75,1.9999628331425975e-05,3.1227526486610226e-05,4.538444155184254e-05,2.0487797816433986e-05
0.75390625,1.902328936140995e-05,2.2440475756466028e-05,5.026613640192266e-05,1.8046950391393927e-05
0.7578125,1.6094272451361885e-05,-8.283691206225664e-06,3.4156543396658294e-05,1.6582441936369896e-05
0.76171875,2.0487797816433986e-05,-5.842843781185608e-06,1.6582441936369896e-05,1.8535119876401938e-05
0.765625,2.0487797816433986e-05,1.2188916571297797e-05,2.1464136786450005e-05,2.0487797816433986e-05
0.76953125,2.3904984211490058e-05,2.439315369649807e-05,4.001457721675442e-05,2.5369492666514095e-05
0.7734375,2.3416814726482047e-05,9.748069146257742e-06,4.831345846189061e-05,1.8046950391393927e-05
0.77734375,1.951145884641796e-05,-1.7070741936369862e-05,4.0990916186770444e-05,1.3165255541313818e-05
0.78125,2.5857662151522106e-05,-1.5118063996337817e-05,2.9274848546578178e-05,1.5606102966353874e-05
0.78515625,2.5857662151522106e-05,-9.260030176241686e-06,3.269203494163426e-05,1.6094272451361885e-05
0.7890625,1.9999628331425975e-05,5.354543781185643e-06,4.684895000686658e-05,1.902328936140995e-05
0.79296875,2.3416814726482047e-05,1.365342502632183e-05,6.051769558709088e-05,1.902328936140995e-05
0.796875,2.829850957656216e-05,4.866374296177632e-06,4.880162794689862e-05,1.5606102966353874e-05
0.80078125,3.0251187516594204e-05,-1.44931841611351e-06,3.1227526486610226e-05,1.7070611421377907e-05
0.8046875,3.0251187516594204e-05,2.913696356145588e-06,2.829850957656216e-05,1.7070611421377907e-05
0.80859375,2.3904984211490058e-05,2.0975967301441994e-05,2.976301803158619e-05,1.3165255541313818e-05
0.8125,2.3416814726482047e-05,2.3904984211490058e-05,4.7337119491874584e-05,1.5606102966353874e-05
0.81640625,3.0739357001602215e-05,3.401865841153599e-06,4.050274670176243e-05,1.6582441936369896e-05
0.8203125,3.220386545662624e-05,-1.121270811627373e-05,1.951145884641796e-05,1.5117933481345863e-05
0.82421875,2.7810340091554148e-05,-1.44931841611351e-06,1.6094272451361885e-05,1.5117933481345863e-05
0.828125,3.0739357001602215e-05,2.3416814726482047e-05,2.7810340091554148e-05,1.755878090638592e-05
0.83203125,3.269203494163426e-05,2.829850957656216e-05,4.7337119491874584e-05,1.9999628331425975e-05
0.8359375,2.6834001121538125e-05,2.6345831636530114e-05,4.684895000686658e-05,2.0975967301441994e-05
0.83984375,2.976301803158619e-05,8.77173017624172e-06,3.562105185168232e-05,2.1464136786450005e-05
0.84375,3.90382382467384e-05,-8.771860691233675e-06,2.878667906157017e-05,1.902328936140995e-05
0.84765625,3.7085560306706354e-05,4.866374296177632e-06,2.9274848546578178e-05,1.5117933481345863e-05
0.8515625,3.562105185168232e-05,1.8535119876401938e-05,4.196725515678646e-05,1.365342502632183e-05
0.85546875,3.610922133669034e-05,2.1464136786450005e-05,4.294359412680248e-05,1.6094272451361885e-05
0.859375,3.952640773174641e-05,-3.890165841153565e-06,3.0251187516594204e-05,1.4629763996337851e-05
0.86328125,3.8550068761730395e-05,-3.890165841153565e-06,2.6345831636530114e-05,1.2188916571297797e-05
0.8671875,3.562105185168232e-05,1.902328936140995e-05,2.7810340091554148e-05,1.4629763996337851e-05
0.87109375,3.610922133669034e-05,2.829850957656216e-05,3.5132882366674316e-05,1.4141594511329842e-05
0.875,3.46447128816663e-05,3.220386545662624e-05,3.171569597161824e-05,1.4141594511329842e-05
0.87890625,3.90382382467384e-05,7.795391206225697e-06,1.7070611421377907e-05,1.902328936140995e-05
0.8828125,3.3668373911650276e-05,-1.951158936140992e-05,8.77173017624172e-06,1.9999628331425975e-05
0.88671875,2.6834001121538125e-05,-2.146426730144196e-05,2.1952306271458016e-05,2.1464136786450005e-05
0.890625,3.7085560306706354e-05,-4.3783353261615755e-06,4.684895000686658e-05,2.2440475756466028e-05
0.89453125,3.7573729791714366e-05,5.354543781185643e-06,4.7825288976882595e-05,1.902328936140995e-05
0.8984375,3.806189927672238e-05,-2.9138268711375426e-06,3.4156543396658294e-05,1.902328936140995e-05
0.90234375,3.90382382467384e-05,-9.260030176241686e-06,2.1464136786450005e-05,1.6582441936369896e-05
0.90625,3.7085560306706354e-05,-4.3783353261615755e-06,2.3416814726482047e-05,1.4629763996337851e-05
0.91015625,4.391993309681851e-05,1.8046950391393927e-05,4.538444155184254e-05,1.4629763996337851e-05
0.9140625,4.294359412680248e-05,1.6582441936369896e-05,5.124247537193867e-05,1.1700747086289786e-05
0.91796875,3.806189927672238e-05,-7.795521721217652e-06,3.806189927672238e-05,5.354543781185643e-06
0.921875,3.46447128816663e-05,-8.283691206225664e-06,1.8535119876401938e-05,1.4491879011215552e-06
0.92578125,3.4156543396658294e-05,-5.354674296177598e-06,1.2188916571297797e-05,2.913696356145588e-06
0.9296875,3.952640773174641e-05,9.259899661249731e-06,2.6834001121538125e-05,6.819052236209676e-06
0.93359375,4.34317636118105e-05,2.0975967301441994e-05,3.0251187516594204e-05,5.354543781185643e-06
0.9375,4.440810258182652e-05,-4.72979446097488e-07,1.951145884641796e-05,4.866374296177632e-06
0.94140625,4.440810258182652e-05,-1.658257245136185e-05,9.259899661249731e-06,5.354543781185643e-06
0.9453125,4.440810258182652e-05,-1.170087760128174e-05,1.7070611421377907e-05,3.890035326161609e-06
0.94921875,4.391993309681851e-05,1.4141594511329842e-05,4.001457721675442e-05,1.0236238631265752e-05
0.953125,4.7825288976882595e-05,1.951145884641796e-05,4.34317636118105e-05,1.2188916571297797e-05
0.95703125,4.4896272066834534e-05,1.4491879011215552e-06,3.610922133669034e-05,7.307221721217687e-06
0.9609375,3.952640773174641e-05,-1.4141725026321795e-05,2.9274848546578178e-05,1.0236238631265752e-05
0.96484375,5.124247537193867e-05,-6.819182751201631e-06,2.6345831636530114e-05,1.5117933481345863e-05
0.96875,5.075430588693066e-05,1.365342502632183e-05,4.294359412680248e-05,1.2188916571297797e-05
0.97265625,3.8550068761730395e-05,7.795391206225697e-06,5.465966176699475e-05,1.0236238631265752e-05
0.9765625,4.1479085671778456e-05,4.7284893110553325e-07,4.7825288976882595e-05,1.2677086056305808e-05
0.98046875,4.001457721675442e-05,-1.2677216571297761e-05,2.7810340091554148e-05,1.4629763996337851e-05
0.984375,3.610922133669034e-05,-1.609440296635384e-05,2.5369492666514095e-05,1.6582441936369896e-05
0.98828125,4.1479085671778456e-05,1.3165255541313818e-05,4.0990916186770444e-05,1.365342502632183e-05
0.9921875,4.4896272066834534e-05,1.951145884641796e-05,5.465966176699475e-05,1.365342502632183e-05
0.99609375,4.1479085671778456e-05,1.1212577601281776e-05,5.124247537193867e-05,1.8046950391393927e-05
1.0,3.5132882366674316e-05,-9.748199661249696e-06,2.7322170606546137e-05,1.5117933481345863e-05
1.00390625,3.659739082169834e-05,-1.2677216571297761e-05,1.951145884641796e-05,1.755878090638592e-05
1.0078125,4.538444155184254e-05,1.1700747086289786e-05,3.7573729791714366e-05,2.2440475756466028e-05
1.01171875,4.5872611036850557e-05,2.878667906157017e-05,4.9289797431906635e-05,1.951145884641796e-05
1.015625,3.659739082169834e-05,1.6094272451361885e-05,4.0990916186770444e-05,1.6582441936369896e-05
1.01953125,3.0251187516594204e-05,-4.3783353261615755e-06,3.3668373911650276e-05,2.976301803158619e-05
1.0234375,2.976301803158619e-05,-6.3310132661936195e-06,3.0251187516594204e-05,3.562105185168232e-05
1.02734375,3.269203494163426e-05,7.795391206225697e-06,3.269203494163426e-05,2.439315369649807e-05
1.03125,3.318020442664227e-05,2.7322170606546137e-05,5.075430588693066e-05,2.7322170606546137e-05
1.03515625,3.610922133669034e-05,2.5369492666514095e-05,5.270698382696271e-05,2.5369492666514095e-05
1.0390625,4.050274670176243e-05,2.4255268711375773e-06,3.4156543396658294e-05,1.902328936140995e-05
1.04296875,4.196725515678646e-05,-7.795521721217652e-06,3.610922133669034e-05,2.1952306271458016e-05
1.046875,4.4896272066834534e-05,-1.937487901121521e-06,4.7337119491874584e-05,2.1464136786450005e-05
1.05078125,4.7337119491874584e-05,1.2188916571297797e-05,4.831345846189061e-05,1.5606102966353874e-05
1.0546875,4.880162794689862e-05,8.77173017624172e-06,5.124247537193867e-05,1.2677086056305808e-05
1.05859375,5.124247537193867e-05,-1.072453863126572e-05,3.90382382467384e-05,1.5117933481345863e-05
1.0625,4.636078052185856e-05,-7.307352236209642e-06,2.0487797816433986e-05,1.4629763996337851e-05
1.06640625,4.1479085671778456e-05,1.4629763996337851e-05,2.439315369649807e-05,1.6094272451361885e-05
1.0703125,4.684895000686658e-05,3.952640773174641e-05,4.245542464179448e-05,1.6582441936369896e-05
1.07421875,5.026613640192266e-05,2.976301803158619e-05,4.9289797431906635e-05,1.365342502632183e-05
1.078125,4.538444155184254e-05,1.4491879011215552e-06,3.7573729791714366e-05,1.6094272451361885e-05
1.08203125,4.5872611036850557e-05,6.330882751201665e-06,2.878667906157017e-05,1.6582441936369896e-05
1.0859375,4.7337119491874584e-05,1.951145884641796e-05,2.6834001121538125e-05,1.4141594511329842e-05
1.08984375,4.34317636118105e-05,2.3904984211490058e-05,4.050274670176243e-05,1.4141594511329842e-05
1.09375,4.294359412680248e-05,1.951145884641796e-05,5.270698382696271e-05,1.1700747086289786e-05
1.09765625,4.0990916186770444e-05,-3.401996356145554e-06,4.245542464179448e-05,1.1700747086289786e-05
1.1015625,4.1479085671778456e-05,-1.0236369146257707e-05,2.439315369649807e-05,1.1212577601281776e-05
1.10546875,4.4896272066834534e-05,3.401865841153599e-06,1.9999628331425975e-05,1.0724408116273763e-05
1.109375,4.684895000686658e-05,2.488132318150608e-05,4.294359412680248e-05,9.259899661249731e-06
1.11328125,4.7337119491874584e-05,1.7070611421377907e-05,6.393488198214696e-05,9.259899661249731e-06
1.1171875,4.5872611036850557e-05,3.401865841153599e-06,5.075430588693066e-05,1.365342502632183e-05
1.12109375,4.7337119491874584e-05,1.1212577601281776e-05,3.7085560306706354e-05,1.6094272451361885e-05
1.125,4.34317636118105e-05,1.3165255541313818e-05,3.8550068761730395e-05,1.5117933481345863e-05
1.12890625,3.806189927672238e-05,2.5857662151522106e-05,4.440810258182652e-05,1.365342502632183e-05
1.1328125,4.001457721675442e-05,3.3668373911650276e-05,5.66123397070268e-05,1.6582441936369896e-05
1.13671875,4.001457721675442e-05,3.318020442664227e-05,6.787074845502406e-05,2.488132318150608e-05
1.140625,4.0990916186770444e-05,1.8046950391393927e-05,4.7825288976882595e-05,1.6582441936369896e-05
1.14453125,4.391993309681851e-05,-1.4629894511329806e-05,4.34317636118105e-05,6.819052236209676e-06
1.1484375,4.1479085671778456e-05,-1.0236369146257707e-05,8.153949403524835e-05,2.0487797816433986e-05
1.15234375,4.294359412680248e-05,9.259899661249731e-06,6.198220404211491e-05,2.292864524147404e-05
1.15625,5.2218814341954696e-05,2.6345831636530114e-05,2.6345831636530114e-05,1.5117933481345863e-05
1.16015625,4.9289797431906635e-05,1.4141594511329842e-05,2.3904984211490058e-05,1.2188916571297797e-05
1.1640625,4.196725515678646e-05,1.2188916571297797e-05,3.171569597161824e-05,1.5117933481345863e-05
1.16796875,4.294359412680248e-05,3.220386545662624e-05,3.562105185168232e-05,1.951145884641796e-05
1.171875,4.0990916186770444e-05,3.171569597161824e-05,4.5872611036850557e-05,1.8046950391393927e-05
1.17578125,3.952640773174641e-05,2.1952306271458016e-05,5.124247537193867e-05,2.829850957656216e-05
1.1796875,4.440810258182652e-05,5.842713266193654e-06,3.659739082169834e-05,2.5369492666514095e-05
1.18359375,5.124247537193867e-05,7.795391206225697e-06,2.976301803158619e-05,1.8046950391393927e-05
1.1875,5.465966176699475e-05,2.7322170606546137e-05,3.952640773174641e-05,2.439315369649807e-05
1.19140625,5.026613640192266e-05,3.171569597161824e-05,5.5636000737010774e-05,1.9999628331425975e-05
1.1953125,4.538444155184254e-05,1.951145884641796e-05,7.568146021515222e-05,1.902328936140995e-05
1.19921875,4.391993309681851e-05,1.2188916571297797e-05,5.954135661707486e-05,2.2440475756466028e-05
1.203125,4.001457721675442e-05,1.0236238631265752e-05,3.318020442664227e-05,2.5857662151522106e-05
1.20703125,3.7573729791714366e-05,2.913696356145588e-06,4.636078052185856e-05,2.6834001121538125e-05
1.2109375,3.46447128816663e-05,1.6094272451361885e-05,7.812230764019227e-05,2.439315369649807e-05
1.21484375,4.001457721675442e-05,2.0975967301441994e-05,7.665779918516825e-05,2.1464136786450005e-05
1.21875,4.294359412680248e-05,-1.5320553902477717e-08,4.4896272066834534e-05,1.4141594511329842e-05
1.22265625,4.391993309681851e-05,1.937357386129566e-06,4.294359412680248e-05,7.795391206225697e-06
1.2265625,5.124247537193867e-05,2.2440475756466028e-05,6.0029526102082876e-05,1.0724408116273763e-05
1.23046875,4.7337119491874584e-05,3.0251187516594204e-05,7.128793485008013e-05,1.8046950391393927e-05
1.234375,4.440810258182652e-05,2.5369492666514095e-05,6.393488198214696e-05,1.9999628331425975e-05
1.23828125,4.391993309681851e-05,6.819052236209676e-06,5.514783125200276e-05,1.6582441936369896e-05
1.2421875,3.220386545662624e-05,-1.4629894511329806e-05,5.2218814341954696e-05,1.7070611421377907e-05
1.24609375,3.3668373911650276e-05,-8.771860691233675e-06,4.684895000686658e-05,1.755878090638592e-05
1.25,4.684895000686658e-05,2.878667906157017e-05,5.954135661707486e-05,1.365342502632183e-05
1.25390625,4.196725515678646e-05,3.5132882366674316e-05,6.442305146715498e-05,1.1212577601281776e-05
1.2578125,3.5132882366674316e-05,1.8535119876401938e-05,4.684895000686658e-05,1.0236238631265752e-05
1.26171875,3.952640773174641e-05,1.1212577601281776e-05,3.171569597161824e-05,1.0724408116273763e-05
1.265625,4.4896272066834534e-05,2.0487797816433986e-05,3.3668373911650276e-05,1.0236238631265752e-05
1.26953125,4.684895000686658e-05,4.636078052185856e-05,4.245542464179448e-05,1.0236238631265752e-05
1.2734375,4.636078052185856e-05,3.610922133669034e-05,5.71005091920348e-05,1.4141594511329842e-05
1.27734375,5.026613640192266e-05,7.307221721217687e-06,4.538444155184254e-05,1.3165255541313818e-05
1.28125,4.245542464179448e-05,-8.283691206225664e-06,3.220386545662624e-05,7.307221721217687e-06
1.28515625,3.4156543396658294e-05,-4.866504811169587e-06,4.1479085671778456e-05,1.0724408116273763e-05
1.2890625,3.1227526486610226e-05,1.6094272451361885e-05,5.270698382696271e-05,1.1212577601281776e-05
1.29296875,2.2440475756466028e-05,2.878667906157017e-05,7.03115958800641e-05,7.307221721217687e-06
1.296875,2.439315369649807e-05,1.8535119876401938e-05,6.689440948500802e-05,6.330882751201665e-06
1.30078125,3.806189927672238e-05,-9.748199661249696e-06,4.977796691691464e-05,5.354543781185643e-06
1.3046875,4.831345846189061e-05,-6.3310132661936195e-06,3.269203494163426e-05,-4.3783353261615755e-06
1.30859375,4.440810258182652e-05,1.8046950391393927e-05,4.0990916186770444e-05,-1.170087760128174e-05
1.3125,3.7573729791714366e-05,2.829850957656216e-05,5.8076848162050824e-05,-9.260030176241686e-06
1.31640625,3.8550068761730395e-05,1.2188916571297797e-05,4.880162794689862e-05,-1.3653555541313785e-05
1.3203125,3.7085560306706354e-05,-1.4141725026321795e-05,3.610922133669034e-05,-1.999975884641793e-05
1.32421875,3.7085560306706354e-05,-4.866504811169587e-06,2.6345831636530114e-05,-2.146426730144196e-05
1.328125,3.46447128816663e-05,1.2677086056305808e-05,3.0251187516594204e-05,-2.097609781643395e-05
1.33203125,3.318020442664227e-05,2.439315369649807e-05,5.66123397070268e-05,-1.804708090638588e-05
1.3359375,3.4156543396658294e-05,5.354543781185643e-06,4.684895000686658e-05,-1.609440296635384e-05
1.33984375,3.269203494163426e-05,-1.9023419876401904e-05,2.0487797816433986e-05,-1.5118063996337817e-05
1.34375,4.196725515678646e-05,-5.354674296177598e-06,2.439315369649807e-05,-1.804708090638588e-05
1.34765625,4.5872611036850557e-05,2.878667906157017e-05,4.001457721675442e-05,-2.097609781643395e-05
1.3515625,3.220386545662624e-05,3.952640773174641e-05,6.393488198214696e-05,-2.146426730144196e-05
1.35546875,1.9999628331425975e-05,2.1952306271458016e-05,6.640624000000002e-05,-1.560623348134583e-05
1.359375,1.951145884641796e-05,1.1700747086289786e-05,3.90382382467384e-05,-1.7070741936369862e-05
1.36328125,2.1952306271458016e-05,-8.771860691233675e-06,1.6094272451361885e-05,-2.097609781643395e-05
1.3671875,2.6834001121538125e-05,-4.72979446097488e-07,2.7322170606546137e-05,-2.0487928331425938e-05
1.37109375,3.269203494163426e-05,1.5117933481345863e-05,5.8076848162050824e-05,-1.951158936140992e-05
1.375,3.4156543396658294e-05,6.819052236209676e-06,5.124247537193867e-05,-2.146426730144196e-05
1.37890625,3.5132882366674316e-05,-1.121270811627373e-05,3.269203494163426e-05,-2.146426730144196e-05
1.3828125,3.3668373911650276e-05,-1.5118063996337817e-05,5.124247537193867e-05,-1.8535250391393893e-05
1.38671875,2.976301803158619e-05,-4.3783353261615755e-06,7.665779918516825e-05,-2.146426730144196e-05
1.390625,2.439315369649807e-05,-1.5118063996337817e-05,4.636078052185856e-05,-2.2928775756465994e-05
1.39453125,2.7810340091554148e-05,-4.97780974319066e-05,-9.61148931105499e-07,-2.683413163653008e-05
1.3984375,3.3668373911650276e-05,-7.372891279011213e-05,-6.0029656617074824e-05,-3.464484339665826e-05
1.40234375,3.5132882366674316e-05,-7.812243815518424e-05,-0.00011034162416571295,-4.1479216186770404e-05
1.40625,3.90382382467384e-05,-0.00011961684438086517,-0.00012938023408102538,-4.09910467017624e-05
1.41015625,3.4156543396658294e-05,-0.00018551972485694664,-0.00013182108150606544,-4.2455555156786426e-05
1.4140625,2.9274848546578178e-05,-0.00023485535343556875,-0.0001518360303913939,-4.7825419491874556e-05
1.41796875,3.610922133669034e-05,-0.00026414552253604945,-0.00023827253983062485,-6.1005995587090846e-05
1.421875,3.269203494163426e-05,-0.0002856249798764019,-0.0003066162677317464,-7.079989588006407e-05
1.42578125,2.439315369649807e-05,-0.0003124743015518425,-0.0003202850133119707,-7.763426867017622e-05
1.4296875,3.5132882366674316e-05,-0.0003222376912520027,-0.0003075926067017624,-9.764921755550467e-05
1.43359375,4.5872611036850557e-05,-0.0003608335911604486,-0.0003007582339116503,-0.00010448359034561683
1.4375,5.758867867704282e-05,-0.0004101387091462577,-0.00032419036919203477,-0.00011424698004577704
1.44140625,6.247037352712293e-05,-0.0004155085734813458,-0.00038914742129091324,-0.00012840389511100937
1.4453125,5.612417022201878e-05,-0.00041062687863126576,-0.0004135558955413138,-9.325569219043258e-05
1.44921875,5.026613640192266e-05,-0.00041160321760128174,-0.0003535110488853284,-9.081484476539251e-05
1.453125,4.1479085671778456e-05,-0.00040379250584115356,-0.0003447239981551842,-0.00012059318335088118
1.45703125,5.026613640192266e-05,-0.0003876829128358892,-0.0003818248790157931,-0.0001249867087159533
1.4609375,6.738257897001604e-05,-0.00038914742129091324,-0.0003954936245960174,-0.00011082979365072097
1.46484375,7.03115958800641e-05,-0.0003774313536507209,-0.00038231304850080104,-8.349230249027235e-05
1.46875,7.665779918516825e-05,-0.00035888091322041656,-0.000333984269485008,-0.00010545992931563284
1.47265625,7.226427382009615e-05,-0.0003559518963103685,-0.0002963647085465781,-0.00011571148850080108
1.4765625,5.856501764705884e-05,-0.0003457003371252002,-0.0003110097930968185,-5.3683453311970684e-05
1.48046875,5.026613640192266e-05,-0.0003295602335271229,-0.00031491514897688256,-3.025131803158616e-05
1.484375,3.3668373911650276e-05,-0.000289530335756466,-0.000289530335756466,-4.831358897688256e-05
1.48828125,1.1700747086289786e-05,-0.00024754776004577705,-0.00027781426811627374,-4.684908052185853e-05
1.4921875,-1.3165386056305774e-05,-0.00022216294682536047,-0.0002548703023208972,-3.122765700160218e-05
1.49609375,-4.2455555156786426e-05,-0.00021581674352025632,-0.00022850915013046462,-4.636091103685052e-05
1.5,-5.710063970702676e-05,-0.00020751786227512012,-0.0002143522350652323,-7.616976021515219e-05
1.50390625,-8.007511609521628e-05,-0.0001655047759716182,-0.00019040141970702676,-9.569653961547263e-05
1.5078125,-0.00011571148850080108,-0.00014158447120622564,-0.0001615994200915541,-5.075443640192262e-05
1.51171875,-0.00013230925099107346,-0.0001342619289311055,-0.0001347500984161135,4.880162794689862e-05
1.515625,-0.00012791572562600135,-0.00012840389511100937,-0.00012156952232089721,0.00010594796828564891
1.51953125,-0.0001347500984161135,-0.00012840389511100937,-0.00012254586129091324,8.73975278553445e-05
1.5234375,-0.00016257575906157014,-0.00011424698004577704,-0.00011375881056076903,5.8076848162050824e-05
1.52734375,-0.00019528311455710686,-9.520837013046461e-05,-8.202779403524831e-05,6.640624000000002e-05
1.53125,-0.00021288772661020826,-3.318033494163422e-05,-2.146426730144196e-05,7.177610433508813e-05
1.53515625,-0.00021337589609521628,1.3165255541313818e-05,6.330882751201665e-06,2.878667906157017e-05
1.5390625,-0.00022899731961547261,1.2677086056305808e-05,1.937357386129566e-06,1.2677086056305808e-05
1.54296875,-0.00026121650562600134,5.354543781185643e-06,-4.72979446097488e-07,4.7337119491874584e-05
1.546875,-0.0002656100309910735,1.902328936140995e-05,1.2188916571297797e-05,6.051769558709088e-05
1.55078125,-0.00025340579386587316,5.856501764705884e-05,4.977796691691464e-05,7.226427382009615e-05
1.5546875,-0.0002490122685008011,6.640624000000002e-05,6.835891794003205e-05,9.130288373540858e-05
1.55859375,-0.00024754776004577705,5.758867867704282e-05,6.393488198214696e-05,8.83738668253605e-05
1.5625,-0.00025145311592584114,6.5887559922179e-05,7.324061279011216e-05,5.417149228198674e-05
1.56640625,-0.00026072833614099335,9.081471425040057e-05,6.835891794003205e-05,5.8076848162050824e-05
1.5703125,-0.0002558466412909132,0.00011571135798580912,8.544484991531244e-05,6.442305146715498e-05
1.57421875,-0.0002577993192309453,0.00010985332416571298,0.00010643613777065691,3.610922133669034e-05
1.578125,-0.0002690272173861296,0.00010692430725566493,9.032654476539255e-05,4.4896272066834534e-05
1.58203125,-0.00025340579386587316,9.325556167544062e-05,8.544484991531244e-05,5.905318713206685e-05
1.5859375,-0.00022997365858548865,8.983837528038453e-05,7.226427382009615e-05,6.0029526102082876e-05
1.58984375,-0.00022850915013046462,0.00011815220541084917,6.539939043717099e-05,8.349217197528039e-05
1.59375,-0.00026658636996108946,0.00012498657820096134,7.714596867017625e-05,9.862542601052873e-05
1.59765625,-0.0003334961,0.00010643613777065691,5.856501764705884e-05,8.73975278553445e-05
1.6015625,-0.00035985725219043254,9.374373116044863e-05,5.8076848162050824e-05,6.689440948500802e-05
1.60546875,-0.0003457003371252002,0.00010741247674067293,-0.0004169730819363698,4.7825288976882595e-05
1.609375,-0.000333984269485008,0.00010692430725566493,-0.0009648212864866102,3.952640773174641e-05
1.61328125,-0.0003271193861020828,0.00010008993446555277,-0.0009653094559716182,3.659739082169834e-05
1.6171875,-0.0003290720640421149,9.667274807049669e-05,-0.000955546066271458,4.294359412680248e-05
1.62109375,-0.00032614304713206684,8.983837528038453e-05,-0.0009716556592767224,4.440810258182652e-05
1.625,-0.0003197968438269627,0.00011082966313572902,-0.0009682384728816663,2.5857662151522106e-05
1.62890625,-0.0003232140302220188,0.00012889193408102543,-0.0009682384728816663,3.401865841153599e-06
1.6328125,-0.00031833233537193866,0.00012498657820096134,-0.0009682384728816663,3.46447128816663e-05
1.63671875,-0.00030563992876173036,9.911359549553675e-05,-0.0009682384728816663,5.319515331197072e-05
1.640625,-0.0003066162677317464,8.642118888532846e-05,-0.0009682384728816663,3.4156543396658294e-05
1.64453125,-0.00030027006442664224,9.081471425040057e-05,-0.0009682384728816663,5.612417022201878e-05
1.6484375,-0.00030515175927672237,9.667274807049669e-05,-0.0009682384728816663,5.758867867704282e-05
1.65234375,-0.0003237021997070267,0.00010838881571068896,-0.0009682384728816663,4.831345846189061e-05
1.65625,-0.0003090571151567864,0.00011082966313572902,-0.0009682384728816663,7.763413815518427e-05
1.66015625,-0.00028757765781643393,8.935020579537654e-05,-0.0009682384728816663,8.593301940032045e-05
1.6640625,-0.000289530335756466,8.83738668253605e-05,-0.0009682384728816663,6.393488198214696e-05
1.66796875,-0.0002826959629663538,0.00011327051056076907,-0.0009682384728816663,3.269203494163426e-05
1.671875,-0.0002670745394460975,0.00010838881571068896,-0.0009682384728816663,1.951145884641796e-05
1.67578125,-0.0002680508784161135,7.177610433508813e-05,-0.0009682384728816663,6.982342639505609e-05
1.6796875,-0.0002695153868711375,4.880162794689862e-05,-0.0009682384728816663,9.667274807049669e-05
1.68359375,-0.0002538939633508812,6.295854301213094e-05,-0.0009682384728816663,8.495668043030443e-05
1.6875,-0.0002490122685008011,8.78856973403525e-05,-0.0009682384728816663,7.324061279011216e-05
1.69140625,-0.00024950043798580907,9.960176498054477e-05,-0.0009682384728816663,5.270698382696271e-05
1.6953125,-0.0002504767769558251,9.130288373540858e-05,-0.0009682384728816663,5.319515331197072e-05
1.69921875,-0.00026316918356603336,7.324061279011216e-05,-0.0009682384728816663,6.393488198214696e-05
1.703125,-0.0002592638276859693,4.4896272066834534e-05,-0.0009682384728816663,6.247037352712293e-05
1.70703125,-0.00025682298026092926,4.5872611036850557e-05,-0.0009682384728816663,6.982342639505609e-05
1.7109375,-0.0002680508784161135,5.954135661707486e-05,-0.0009682384728816663,5.954135661707486e-05
1.71484375,-0.0002621928445960174,5.612417022201878e-05,-0.0009682384728816663,1.8046950391393927e-05
1.71875,-0.00025145311592584114,6.198220404211491e-05,-0.0009682384728816663,4.001457721675442e-05
1.72265625,-0.00023876070931563284,6.198220404211491e-05,-0.0009682384728816663,9.032654476539255e-05
1.7265625,-0.00022216294682536047,6.787074845502406e-05,-0.0009682384728816663,8.398034146028841e-05
1.73046875,-0.00022216294682536047,6.640624000000002e-05,-0.0009682384728816663,3.7085560306706354e-05
1.734375,-0.00022069843837033644,5.8076848162050824e-05,-0.0009682384728816663,3.3668373911650276e-05
1.73828125,-0.0002094705402151522,4.196725515678646e-05,-0.0009682384728816663,4.1479085671778456e-05
1.7421875,-0.00019967663992217894,3.90382382467384e-05,-0.0009682384728816663,4.1479085671778456e-05
1.74609375,-0.00019870030095216296,4.9289797431906635e-05,-0.0009682384728816663,6.247037352712293e-05
1.75,-0.00018356704691691462,5.417149228198674e-05,-0.0009682384728816663,6.295854301213094e-05
1.75390625,-0.00016501660648661018,4.636078052185856e-05,-0.0009682384728816663,4.977796691691464e-05
1.7578125,-0.0001664811149416342,4.196725515678646e-05,-0.0009682384728816663,4.684895000686658e-05
1.76171875,-0.00015964674215152206,3.610922133669034e-05,-0.0009682384728816663,4.245542464179448e-05
1.765625,-0.00016257575906157014,2.5857662151522106e-05,-0.0009682384728816663,5.026613640192266e-05
1.76953125,-0.00015525321678644996,3.1227526486610226e-05,-0.0009682384728816663,6.982342639505609e-05
1.7734375,-0.00015427687781643392,4.4896272066834534e-05,-0.0009682384728816663,6.982342639505609e-05
1.77734375,-0.00017233914876173037,4.7825288976882595e-05,-0.0009682384728816663,6.149403455710691e-05
1.78125,-0.0001523241998764019,1.755878090638592e-05,-0.0009682384728816663,6.10058650720989e-05
1.78515625,-0.00012840389511100937,1.1700747086289786e-05,-0.0009682384728816663,5.026613640192266e-05
1.7890625,-0.00012840389511100937,3.1227526486610226e-05,-0.0009682384728816663,4.684895000686658e-05
1.79296875,-0.0001259630476859693,4.391993309681851e-05,-0.0009682384728816663,5.417149228198674e-05
1.796875,-0.00011864050541084913,4.245542464179448e-05,-0.0009687266423666742,5.465966176699475e-05
1.80078125,-0.00012352220026092925,3.7085560306706354e-05,-0.0009653094559716182,5.71005091920348e-05
1.8046875,-0.00012254586129091324,4.880162794689862e-05,-0.0009711674897917143,6.295854301213094e-05
1.80859375,-0.00011766416644083312,5.270698382696271e-05,-0.0009550578967864499,5.856501764705884e-05
1.8125,-0.0001259630476859693,5.514783125200276e-05,-0.0008769507791851682,6.149403455710691e-05
1.81640625,-0.0001161996579858091,4.538444155184254e-05,-0.0008324968454566262,6.787074845502406e-05
1.8203125,-0.00010399542086060881,2.6345831636530114e-05,-0.0008198044388464179,6.738257897001604e-05
1.82421875,-0.00010204274292057677,2.488132318150608e-05,-0.0008115055576012818,5.5636000737010774e-05
1.828125,-0.00010350725137560079,5.905318713206685e-05,-0.0006991960654566262,3.4156543396658294e-05
1.83203125,-0.00010399542086060881,6.198220404211491e-05,-0.0006074202022751201,4.050274670176243e-05
1.8359375,-8.739765837033644e-05,3.5132882366674316e-05,-0.000644032913650721,6.442305146715498e-05
1.83984375,-7.324074330510412e-05,2.1464136786450005e-05,-0.0006352458629205768,4.538444155184254e-05
1.84375,-7.421708227512015e-05,2.2440475756466028e-05,-0.0005898155902220187,3.0251187516594204e-05
1.84765625,-7.861060764019224e-05,3.562105185168232e-05,-0.0005004805744655527,6.344671249713895e-05
1.8515625,-7.275257382009612e-05,4.440810258182652e-05,-0.00047070223588006405,8.30040024902724e-05
1.85546875,-7.470525176012816e-05,3.562105185168232e-05,-0.0004101387091462577,8.105132455024035e-05
1.859375,-7.470525176012816e-05,3.318020442664227e-05,-0.00034521216764019227,5.612417022201878e-05
1.86328125,-7.128806536507208e-05,3.659739082169834e-05,-0.0003657152860105287,3.952640773174641e-05
1.8671875,-8.300413300526435e-05,4.440810258182652e-05,-0.00031393881000686653,4.7337119491874584e-05
1.87109375,-7.861060764019224e-05,4.294359412680248e-05,-0.00030368725082169834,6.344671249713895e-05
1.875,-5.075443640192262e-05,4.391993309681851e-05,-0.0003608335911604486,7.372878227512018e-05
1.87890625,-3.366850442664224e-05,3.8550068761730395e-05,-0.00040623335326619357,6.442305146715498e-05
1.8828125,-3.855019927672234e-05,2.1464136786450005e-05,-0.00033837779485008007,4.831345846189061e-05
1.88671875,-4.9289927946898583e-05,4.636078052185856e-05,-0.0002978292170016021,4.7337119491874584e-05
1.890625,-5.563613125200272e-05,6.982342639505609e-05,-0.0003066162677317464,6.933525691004809e-05
1.89453125,-5.270711434195466e-05,5.319515331197072e-05,-0.00027195623429617763,6.689440948500802e-05
1.8984375,-4.3431894126802455e-05,2.5857662151522106e-05,-0.00027830243760128173,4.977796691691464e-05
1.90234375,-5.0266266916914606e-05,1.0236238631265752e-05,-0.0002988055559716182,6.0029526102082876e-05
1.90625,-6.29586735271229e-05,2.878667906157017e-05,-0.00023046182807049667,6.295854301213094e-05
1.91015625,-5.124260588693063e-05,5.66123397070268e-05,-0.00020751786227512012,5.905318713206685e-05
1.9140625,-2.634596215152207e-05,4.684895000686658e-05,-0.0002329026754955367,6.10058650720989e-05
1.91796875,-2.097609781643395e-05,3.890035326161609e-06,-0.00024950043798580907,6.247037352712293e-05
1.921875,-3.073948751659417e-05,-1.5320553902477717e-08,-0.00024364240416571296,5.905318713206685e-05
1.92578125,-3.757386030670632e-05,2.488132318150608e-05,-0.0002236274552803845,4.5872611036850557e-05
1.9296875,-2.2440606271457983e-05,4.196725515678646e-05,-0.00020214799794003203,3.8550068761730395e-05
1.93359375,-1.560623348134583e-05,5.5636000737010774e-05,-0.00017331548773174638,4.7825288976882595e-05
1.9375,-3.464484339665826e-05,3.4156543396658294e-05,-0.0001918659281620508,5.514783125200276e-05
1.94140625,-5.8076978677042786e-05,1.6582441936369896e-05,-0.00020410067588006408,5.758867867704282e-05
1.9453125,-5.124260588693063e-05,1.9999628331425975e-05,-0.0001484188439963378,5.66123397070268e-05
1.94921875,-1.609440296635384e-05,8.77173017624172e-06,-9.618470910048064e-05,4.1479085671778456e-05
1.953125,6.819052236209676e-06,4.7284893110553325e-07,-0.00011278247159075301,3.0251187516594204e-05
1.95703125,-6.819182751201631e-06,-1.8535250391393893e-05,-8.251596352025633e-05,4.0990916186770444e-05
1.9609375,-1.4141725026321795e-05,-1.8535250391393893e-05,-8.446864146028837e-05,4.538444155184254e-05
1.96484375,-2.3416945241474e-05,1.755878090638592e-05,-0.00012303403077592126,4.245542464179448e-05
1.96875,-2.9274979061570133e-05,3.0739357001602215e-05,-9.47202006454566e-05,3.220386545662624e-05
1.97265625,-1.5320553902477717e-08,2.9274848546578178e-05,-0.00010692443777065688,2.3904984211490058e-05
1.9765625,1.0236238631265752e-05,9.748069146257742e-06,-9.276752270542456e-05,2.7322170606546137e-05
1.98046875,3.890035326161609e-06,-8.283691206225664e-06,-0.00011180613262073699,4.34317636118105e-05
1.984375,-4.72979446097488e-07,1.1700747086289786e-05,-0.00016941013185168226,6.933525691004809e-05
1.98828125,-1.2189047086289752e-05,2.2440475756466028e-05,-0.0001249867087159533,7.51932907301442e-05
1.9921875,-3.464484339665826e-05,1.4629763996337851e-05,-8.788582785534446e-05,5.954135661707486e-05
1.99609375,-1.755891142137787e-05,3.890035326161609e-06,-5.710063970702676e-05,4.9289797431906635e-05
2.0,-1.44931841611351e-06,-1.4629894511329806e-05,-5.612430073701074e-05,2.7810340091554148e-05
2.00390625,-2.146426730144196e-05,-2.0487928331425938e-05,-0.00010253091240558478,3.890035326161609e-06
2.0078125,-2.9274979061570133e-05,-4.3783353261615755e-06,-0.00010692443777065688,1.7070611421377907e-05
2.01171875,-9.61148931105499e-07,-1.755891142137787e-05,-0.00013084474253604943,4.7337119491874584e-05
2.015625,-1.951158936140992e-05,-2.3416945241474e-05,-0.00012156952232089721,7.079976536507211e-05
2.01953125,-4.7825419491874556e-05,-8.283691206225664e-06,-9.130301425040053e-05,6.884708742504007e-05
2.0234375,-8.771860691233675e-06,-1.9023419876401904e-05,-8.398047197528036e-05,4.001457721675442e-05
2.02734375,3.4156543396658294e-05,-1.7070741936369862e-05,-8.935033631036849e-05,-7.795521721217652e-06
2.03125,2.3904984211490058e-05,-6.819182751201631e-06,-0.00010936528519569694,1.4491879011215552e-06
2.03515625,-1.4629894511329806e-05,-8.771860691233675e-06,-9.276752270542456e-05,6.5887559922179e-05
2.0390625,-2.425657386129532e-06,-1.5118063996337817e-05,-9.569653961547263e-05,8.446851094529643e-05
2.04296875,1.3165255541313818e-05,-2.3416945241474e-05,-0.00012791572562600135,6.835891794003205e-05
2.046875,1.0236238631265752e-05,-1.3165386056305774e-05,-0.0001254748782009613,5.319515331197072e-05
2.05078125,1.0236238631265752e-05,-9.748199661249696e-06,-0.0001074126072556649,4.7337119491874584e-05
2.0546875,6.819052236209676e-06,-1.0236369146257707e-05,-7.861060764019224e-05,4.001457721675442e-05
2.05859375,-1.2677216571297761e-05,-1.658257245136185e-05,-5.8076978677042786e-05,4.5872611036850557e-05
2.0625,-1.755891142137787e-05,-1.951158936140992e-05,-6.933538742504003e-05,6.0029526102082876e-05
2.06640625,4.378204811169621e-06,-1.5320553902477717e-08,-7.909877712520026e-05,4.294359412680248e-05
2.0703125,-9.748199661249696e-06,2.1464136786450005e-05,-7.275257382009612e-05,2.439315369649807e-05
2.07421875,-1.2189047086289752e-05,1.4629763996337851e-05,-8.007511609521628e-05,4.4896272066834534e-05
2.078125,8.77173017624172e-06,-2.146426730144196e-05,-9.86255565255207e-05,7.958681609521631e-05
2.08203125,2.0975967301441994e-05,-2.634596215152207e-05,-0.00011717599695582511,7.90986466102083e-05
2.0859375,1.2188916571297797e-05,-1.0236369146257707e-05,-7.421708227512015e-05,6.393488198214696e-05
2.08984375,-1.44931841611351e-06,-7.795521721217652e-06,-4.09910467017624e-05,4.977796691691464e-05
2.09375,1.2188916571297797e-05,3.890035326161609e-06,-2.8786809576562122e-05,4.5872611036850557e-05
2.09765625,1.902328936140995e-05,1.4491879011215552e-06,-6.884721794003202e-05,5.2218814341954696e-05
2.1015625,1.3165255541313818e-05,-1.4141725026321795e-05,-0.00011082979365072097,5.66123397070268e-05
2.10546875,1.2677086056305808e-05,-1.9023419876401904e-05,-0.00010399542086060881,6.5887559922179e-05
2.109375,1.0236238631265752e-05,-1.5320553902477717e-08,-8.349230249027235e-05,7.616962970016024e-05
2.11328125,9.748069146257742e-06,3.890035326161609e-06,-7.22644043350881e-05,7.861047712520029e-05
2.1171875,4.378204811169621e-06,-2.3416945241474e-05,-8.398047197528036e-05,8.007498558022432e-05
2.12109375,3.890035326161609e-06,-2.732230112153809e-05,-6.7870878970016e-05,5.124247537193867e-05
2.125,8.77173017624172e-06,2.4255268711375773e-06,-3.757386030670632e-05,1.5606102966353874e-05
2.12890625,-2.9138268711375426e-06,1.9999628331425975e-05,-1.170087760128174e-05,2.5369492666514095e-05
2.1328125,-5.842843781185608e-06,6.819052236209676e-06,-2.0487928331425938e-05,6.689440948500802e-05
2.13671875,1.4491879011215552e-06,-1.658257245136185e-05,-2.634596215152207e-05,9.520823961547266e-05
2.140625,1.5606102966353874e-05,-1.3653555541313785e-05,-1.5320553902477717e-08,9.423190064545664e-05
2.14453125,1.8046950391393927e-05,-7.795521721217652e-06,9.748069146257742e-06,7.51932907301442e-05
2.1484375,2.913696356145588e-06,9.748069146257742e-06,-1.609440296635384e-05,6.442305146715498e-05
2.15234375,-4.3783353261615755e-06,2.6834001121538125e-05,-3.562118236667428e-05,5.612417022201878e-05
2.15625,-4.866504811169587e-06,2.0975967301441994e-05,-4.392006361181047e-05,3.90382382467384e-05
2.16015625,-1.658257245136185e-05,-9.61148931105499e-07,-8.300413300526435e-05,5.66123397070268e-05
2.1640625,-2.8298640091554114e-05,-1.0236369146257707e-05,-7.372891279011213e-05,8.642118888532846e-05
2.16796875,-1.4629894511329806e-05,2.292864524147404e-05,-3.806202979171434e-05,6.491122095216298e-05
2.171875,1.937357386129566e-06,4.4896272066834534e-05,-3.65975213366903e-05,2.7810340091554148e-05
2.17578125,-1.8535250391393893e-05,4.9289797431906635e-05,-2.4393284211490024e-05,4.294359412680248e-05
2.1796875,-1.937487901121521e-06,4.050274670176243e-05,-2.8298640091554114e-05,4.001457721675442e-05
2.18359375,4.1479085671778456e-05,4.378204811169621e-06,-7.22644043350881e-05,3.1227526486610226e-05
2.1875,4.050274670176243e-05,-3.890165841153565e-06,-9.276752270542456e-05,7.42169517601282e-05
2.19140625,2.1952306271458016e-05,1.755878090638592e-05,-6.539952095216295e-05,0.00010253078189059284
2.1953125,1.2677086056305808e-05,1.3165255541313818e-05,-2.195243678644997e-05,8.83738668253605e-05
2.19921875,9.748069146257742e-06,-1.3653555541313785e-05,-2.8298640091554114e-05,6.884708742504007e-05
2.203125,4.378204811169621e-06,-1.3165386056305774e-05,-6.982355691004805e-05,6.689440948500802e-05
2.20703125,4.378204811169621e-06,1.4491879011215552e-06,-6.149416507209886e-05,5.5636000737010774e-05
2.2109375,7.795391206225697e-06,1.5606102966353874e-05,-3.757386030670632e-05,3.8550068761730395e-05
2.21484375,1.3165255541313818e-05,1.365342502632183e-05,-3.610935185168229e-05,5.1730644856946685e-05
2.21875,2.439315369649807e-05,-7.795521721217652e-06,-4.392006361181047e-05,1.755878090638592e-05
2.22265625,2.6834001121538125e-05,-3.890165841153565e-06,-6.1005995587090846e-05,-3.401996356145554e-06
2.2265625,4.7284893110553325e-07,2.0487797816433986e-05,-5.124260588693063e-05,6.933525691004809e-05
2.23046875,-1.560623348134583e-05,4.050274670176243e-05,-3.318033494163422e-05,0.00010887698519569697
2.234375,8.77173017624172e-06,2.2440475756466028e-05,-2.683413163653008e-05,9.423190064545664e-05
2.23828125,3.1227526486610226e-05,-1.3653555541313785e-05,-4.001470773174638e-05,6.5887559922179e-05
2.2421875,2.0975967301441994e-05,-8.771860691233675e-06,-5.758880919203477e-05,5.5636000737010774e-05
2.24609375,1.8046950391393927e-05,1.4629763996337851e-05,-4.7825419491874556e-05,3.952640773174641e-05
2.25,3.269203494163426e-05,1.902328936140995e-05,-1.8535250391393893e-05,1.4629763996337851e-05
2.25390625,3.1227526486610226e-05,7.307221721217687e-06,-2.3905114726482013e-05,9.259899661249731e-06
2.2578125,2.1464136786450005e-05,-1.3653555541313785e-05,-5.8076978677042786e-05,4.9289797431906635e-05
2.26171875,-3.401996356145554e-06,2.913696356145588e-06,-6.7870878970016e-05,9.423190064545664e-05
2.265625,-3.401996356145554e-06,1.5606102966353874e-05,-4.9289927946898583e-05,9.276739219043261e-05
2.26953125,2.829850957656216e-05,1.1212577601281776e-05,-4.050287721675439e-05,8.105132455024035e-05
2.2734375,2.7810340091554148e-05,1.0236238631265752e-05,-3.5133012881666264e-05,6.640624000000002e-05
2.27734375,1.2188916571297797e-05,-6.3310132661936195e-06,-3.9526538246738366e-05,5.270698382696271e-05
2.28125,1.5606102966353874e-05,-1.072453863126572e-05,-6.051782610208284e-05,4.391993309681851e-05
2.28515625,1.4629763996337851e-05,1.937357386129566e-06,-4.489640258182648e-05,6.051769558709088e-05
2.2890625,1.5117933481345863e-05,1.5606102966353874e-05,-1.755891142137787e-05,5.856501764705884e-05
2.29296875,1.8046950391393927e-05,1.5606102966353874e-05,-3.073948751659417e-05,3.0739357001602215e-05
2.296875,2.0487797816433986e-05,1.3165255541313818e-05,-3.65975213366903e-05,5.465966176699475e-05
2.30078125,2.292864524147404e-05,-4.72979446097488e-07,-4.392006361181047e-05,6.835891794003205e-05
2.3046875,1.365342502632183e-05,-6.819182751201631e-06,-6.491135146715494e-05,6.10058650720989e-05
2.30859375,-1.5320553902477717e-08,3.3668373911650276e-05,-3.025131803158616e-05,4.977796691691464e-05
2.3125,2.0487797816433986e-05,3.269203494163426e-05,-1.5320553902477717e-08,2.2440475756466028e-05
2.31640625,4.245542464179448e-05,-2.3416945241474e-05,-4.7825419491874556e-05,3.269203494163426e-05
2.3203125,3.4156543396658294e-05,-5.8076978677042786e-05,-8.935033631036849e-05,5.856501764705884e-05
2.32421875,1.4141594511329842e-05,-5.173077537193864e-05,-6.149416507209886e-05,7.812230764019227e-05
2.328125,1.365342502632183e-05,-3.610935185168229e-05,-4.684908052185853e-05,5.758867867704282e-05
2.33203125,3.3668373911650276e-05,-3.562118236667428e-05,-9.374386167544058e-05,2.439315369649807e-05
2.3359375,4.391993309681851e-05,-4.636091103685052e-05,-0.00010155457343556876,4.7337119491874584e-05
2.33984375,4.391993309681851e-05,-6.689453999999997e-05,-0.00011082979365072097,5.954135661707486e-05
2.34375,4.294359412680248e-05,-6.491135146715494e-05,-0.00011180613262073699,4.196725515678646e-05
2.34765625,2.9274848546578178e-05,-3.757386030670632e-05,-8.153962455024032e-05,4.001457721675442e-05
2.3515625,1.8046950391393927e-05,-2.634596215152207e-05,-7.763426867017622e-05,4.34317636118105e-05
2.35546875,1.951145884641796e-05,-2.488145369649804e-05,-9.227935322041655e-05,4.391993309681851e-05
2.359375,2.1464136786450005e-05,-3.366850442664224e-05,-9.227935322041655e-05,5.1730644856946685e-05
2.36328125,4.0990916186770444e-05,-3.610935185168229e-05,-9.960189549553672e-05,5.075430588693066e-05
2.3671875,4.977796691691464e-05,-2.536962318150605e-05,-9.130301425040053e-05,2.292864524147404e-05
2.37109375,4.391993309681851e-05,-1.8535250391393893e-05,-5.710063970702676e-05,2.829850957656216e-05
2.375,4.7337119491874584e-05,-9.260030176241686e-06,-3.9038368761730354e-05,7.128793485008013e-05
2.37890625,4.880162794689862e-05,-1.072453863126572e-05,-4.2943724641794444e-05,6.884708742504007e-05
2.3828125,3.318020442664227e-05,-1.072453863126572e-05,-5.514796176699472e-05,5.5636000737010774e-05
2.38671875,2.4255268711375773e-06,-1.937487901121521e-06,-3.562118236667428e-05,4.684895000686658e-05
2.390625,-3.890165841153565e-06,1.4141594511329842e-05,-7.795521721217652e-06,2.9274848546578178e-05
2.39453125,2.7322170606546137e-05,8.77173017624172e-06,-4.72979446097488e-07,3.806189927672238e-05
2.3984375,5.8076848162050824e-05,-1.3653555541313785e-05,-2.9763148546578148e-05,6.787074845502406e-05
2.40234375,5.905318713206685e-05,-1.3165386056305774e-05,-6.29586735271229e-05,9.569640910048068e-05
2.40625,2.1952306271458016e-05,6.819052236209676e-06,-5.85651481620508e-05,9.472007013046466e-05
2.41015625,6.330882751201665e-06,4.378204811169621e-06,-4.636091103685052e-05,7.275244330510416e-05
2.4140625,3.220386545662624e-05,-1.999975884641793e-05,-4.2455555156786426e-05,5.368332279697873e-05
2.41796875,5.417149228198674e-05,-3.1715826486610186e-05,-3.9526538246738366e-05,5.368332279697873e-05
2.421875,4.4896272066834534e-05,-2.8298640091554114e-05,-5.4171622796978696e-05,6.295854301213094e-05
2.42578125,2.5369492666514095e-05,-2.488145369649804e-05,-6.1005995587090846e-05,4.831345846189061e-05
2.4296875,3.0251187516594204e-05,-8.283691206225664e-06,-3.562118236667428e-05,1.2677086056305808e-05
2.43359375,4.7337119491874584e-05,-1.5320553902477717e-08,-3.5133012881666264e-05,2.3416814726482047e-05
2.4375,4.34317636118105e-05,-1.3653555541313785e-05,-5.0266266916914606e-05,6.491122095216298e-05
2.44140625,1.8535119876401938e-05,-1.2189047086289752e-05,-6.1005995587090846e-05,8.30040024902724e-05
2.4453125,1.4629763996337851e-05,-6.819182751201631e-06,-6.34468430121309e-05,8.78856973403525e-05
2.44921875,2.7322170606546137e-05,1.1212577601281776e-05,-4.3431894126802455e-05,7.226427382009615e-05
2.453125,4.1479085671778456e-05,1.4629763996337851e-05,-2.3416945241474e-05,5.71005091920348e-05
2.45703125,4.0990916186770444e-05,-1.560623348134583e-05,-3.464484339665826e-05,6.149403455710691e-05
2.4609375,3.7085560306706354e-05,-1.7070741936369862e-05,-5.6612470222018745e-05,5.465966176699475e-05
2.46484375,4.636078052185856e-05,-6.819182751201631e-06,-5.124260588693063e-05,4.0990916186770444e-05
2.46875,3.269203494163426e-05,1.951145884641796e-05,-3.073948751659417e-05,1.365342502632183e-05
2.47265625,1.2677086056305808e-05,4.831345846189061e-05,-1.7070741936369862e-05,-1.072453863126572e-05
2.4765625,3.318020442664227e-05,1.5117933481345863e-05,-2.4393284211490024e-05,4.34317636118105e-05
2.48046875,4.245542464179448e-05,-2.8786809576562122e-05,-4.489640258182648e-05,9.911359549553675e-05
2.484375,2.829850957656216e-05,-2.8298640091554114e-05,-2.9763148546578148e-05,9.081471425040057e-05
2.48828125,3.5132882366674316e-05,2.4255268711375773e-06,-1.9023419876401904e-05,8.105132455024035e-05
2.4921875,3.220386545662624e-05,9.748069146257742e-06,-3.708569082169831e-05,7.226427382009615e-05
2.49609375,1.755878090638592e-05,4.378204811169621e-06,-3.9526538246738366e-05,5.319515331197072e-05
2.5,2.2440475756466028e-05,-6.819182751201631e-06,-4.1479216186770404e-05,4.4896272066834534e-05
2.50390625,3.1227526486610226e-05,-7.795521721217652e-06,-4.392006361181047e-05,4.880162794689862e-05
2.5078125,2.1464136786450005e-05,1.365342502632183e-05,-3.22039959716182e-05,5.270698382696271e-05
2.51171875,1.951145884641796e-05,2.5369492666514095e-05,-1.951158936140992e-05,5.026613640192266e-05
2.515625,1.5117933481345863e-05,2.488132318150608e-05,-2.0487928331425938e-05,5.612417022201878e-05
2.51953125,6.819052236209676e-06,-1.5320553902477717e-08,-2.195243678644997e-05,5.612417022201878e-05
2.5234375,2.9274848546578178e-05,-1.2677216571297761e-05,-3.806202979171434e-05,4.001457721675442e-05
2.52734375,4.001457721675442e-05,9.610184161135442e-07,-4.97780974319066e-05,4.050274670176243e-05
2.53125,4.050274670176243e-05,7.307221721217687e-06,-2.3416945241474e-05,4.9289797431906635e-05
2.53515625,1.902328936140995e-05,4.866374296177632e-06,-1.658257245136185e-05,5.758867867704282e-05
2.5390625,1.1212577601281776e-05,-7.307352236209642e-06,-4.050287721675439e-05,6.295854301213094e-05
2.54296875,2.1464136786450005e-05,-4.866504811169587e-06,-5.173077537193864e-05,4.391993309681851e-05
2.546875,-4.866504811169587e-06,1.0724408116273763e-05,-4.2943724641794444e-05,3.562105185168232e-05
2.55078125,1.9999628331425975e-05,2.1464136786450005e-05,-2.4393284211490024e-05,5.1730644856946685e-05
2.5546875,4.977796691691464e-05,9.748069146257742e-06,-1.755891142137787e-05,5.417149228198674e-05
2.55859375,3.562105185168232e-05,-1.3653555541313785e-05,-3.65975213366903e-05,3.610922133669034e-05
2.5625,3.806189927672238e-05,8.283560691233709e-06,-3.9526538246738366e-05,4.196725515678646e-05
2.56640625,3.90382382467384e-05,2.0975967301441994e-05,-3.22039959716182e-05,5.71005091920348e-05
2.5703125,4.5872611036850557e-05,1.9999628331425975e-05,-2.8298640091554114e-05,5.612417022201878e-05
2.57421875,3.659739082169834e-05,8.77173017624172e-06,-2.3416945241474e-05,6.247037352712293e-05
2.578125,1.4141594511329842e-05,-8.771860691233675e-06,-3.464484339665826e-05,7.177610433508813e-05
2.58203125,2.1952306271458016e-05,-4.866504811169587e-06,-5.0266266916914606e-05,7.226427382009615e-05
2.5859375,3.220386545662624e-05,1.3165255541313818e-05,-5.4171622796978696e-05,6.10058650720989e-05
2.58984375,2.0975967301441994e-05,2.7322170606546137e-05,-3.318033494163422e-05,5.075430588693066e-05
2.59375,1.755878090638592e-05,8.283560691233709e-06,-1.658257245136185e-05,3.8550068761730395e-05
2.59765625,1.3165255541313818e-05,-1.170087760128174e-05,-3.22039959716182e-05,2.7322170606546137e-05
2.6015625,2.5369492666514095e-05,-1.8535250391393893e-05,-5.563613125200272e-05,2.5369492666514095e-05
2.60546875,3.659739082169834e-05,-3.401996356145554e-06,-4.196738567177842e-05,1.4141594511329842e-05
2.609375,2.913696356145588e-06,2.5369492666514095e-05,-2.146426730144196e-05,3.7085560306706354e-05
2.61328125,3.890035326161609e-06,7.307221721217687e-06,-1.658257245136185e-05,7.568146021515222e-05
2.6171875,3.659739082169834e-05,-1.7070741936369862e-05,-3.757386030670632e-05,6.982342639505609e-05
2.62109375,3.5132882366674316e-05,-2.146426730144196e-05,-5.85651481620508e-05,5.368332279697873e-05
2.625,1.7070611421377907e-05,-1.170087760128174e-05,-5.4171622796978696e-05,4.245542464179448e-05
2.62890625,1.7070611421377907e-05,7.307221721217687e-06,-3.1715826486610186e-05,4.831345846189061e-05
2.6328125,3.562105185168232e-05,1.7070611421377907e-05,-1.121270811627373e-05,5.905318713206685e-05
2.63671875,2.976301803158619e-05,1.5606102966353874e-05,-1.072453863126572e-05,3.269203494163426e-05
2.640625,1.4141594511329842e-05,-1.658257245136185e-05,-4.2455555156786426e-05,3.318020442664227e-05
2.64453125,2.3904984211490058e-05,-3.025131803158616e-05,-6.29586735271229e-05,6.787074845502406e-05
2.6484375,3.0739357001602215e-05,-1.072453863126572e-05,-3.757386030670632e-05,7.568146021515222e-05
2.65234375,2.5857662151522106e-05,4.866374296177632e-06,-1.8535250391393893e-05,5.8076848162050824e-05
2.65625,5.842713266193654e-06,9.259899661249731e-06,-1.7070741936369862e-05,5.2218814341954696e-05
2.66015625,-1.170087760128174e-05,2.913696356145588e-06,-2.683413163653008e-05,4.636078052185856e-05
2.6640625,2.913696356145588e-06,4.7284893110553325e-07,-3.464484339665826e-05,3.3668373911650276e-05
2.66796875,4.7825288976882595e-05,1.4141594511329842e-05,-1.999975884641793e-05,3.318020442664227e-05
2.671875,6.344671249713895e-05,1.2188916571297797e-05,-1.3165386056305774e-05,5.66123397070268e-05
2.67578125,5.026613640192266e-05,-8.771860691233675e-06,-3.22039959716182e-05,8.251583300526438e-05
2.6796875,3.220386545662624e-05,-1.4629894511329806e-05,-5.124260588693063e-05,9.227922270542459e-05
2.68359375,2.7322170606546137e-05,-1.658257245136185e-05,-5.563613125200272e-05,8.153949403524835e-05
2.6875,2.1952306271458016e-05,-1.44931841611351e-06,-4.3431894126802455e-05,6.442305146715498e-05
2.69140625,1.7070611421377907e-05,1.1700747086289786e-05,-3.025131803158616e-05,5.026613640192266e-05
2.6953125,3.220386545662624e-05,6.330882751201665e-06,-3.073948751659417e-05,3.659739082169834e-05
2.69921875,3.90382382467384e-05,-2.425657386129532e-06,-3.9526538246738366e-05,1.7070611421377907e-05
2.703125,3.4156543396658294e-05,1.1700747086289786e-05,-4.196738567177842e-05,1.2188916571297797e-05
2.70703125,1.365342502632183e-05,1.2677086056305808e-05,-3.9038368761730354e-05,3.90382382467384e-05
2.7109375,7.307221721217687e-06,1.1212577601281776e-05,-3.5133012881666264e-05,5.270698382696271e-05
2.71484375,2.7322170606546137e-05,1.0236238631265752e-05,-2.0487928331425938e-05,4.196725515678646e-05
2.71875,2.488132318150608e-05,4.378204811169621e-06,-3.610935185168229e-05,2.488132318150608e-05
2.72265625,-3.890165841153565e-06,1.4629763996337851e-05,-4.733725000686654e-05,3.659739082169834e-05
2.7265625,5.842713266193654e-06,1.9999628331425975e-05,-2.5857792666514058e-05,4.831345846189061e-05
2.73046875,4.294359412680248e-05,1.1700747086289786e-05,-3.2692165456626215e-05,3.171569597161824e-05
2.734375,6.738257897001604e-05,-1.7070741936369862e-05,-3.5133012881666264e-05,3.562105185168232e-05
2.73828125,6.344671249713895e-05,-4.440823309681848e-05,-4.831358897688256e-05,2.0975967301441994e-05
2.7421875,5.8076848162050824e-05,-4.7825419491874556e-05,-8.251596352025633e-05,-1.2677216571297761e-05
2.74609375,7.861047712520029e-05,-2.8786809576562122e-05,-8.98385057953765e-05,-1.8535250391393893e-05
2.75,7.51932907301442e-05,1.4629763996337851e-05,-6.933538742504003e-05,7.795391206225697e-06
2.75390625,6.393488198214696e-05,1.2188916571297797e-05,-4.489640258182648e-05,1.0236238631265752e-05
2.7578125,5.954135661707486e-05,-3.708569082169831e-05,-6.982355691004805e-05,5.354543781185643e-06
2.76171875,6.884708742504007e-05,-5.221894485694665e-05,-8.98385057953765e-05,3.171569597161824e-05
2.765625,6.393488198214696e-05,-1.5118063996337817e-05,-7.031172639505606e-05,4.7825288976882595e-05
2.76953125,6.5887559922179e-05,8.77173017624172e-06,-6.393501249713892e-05,3.952640773174641e-05
2.7734375,9.520823961547266e-05,-8.771860691233675e-06,-5.4171622796978696e-05,-1.560623348134583e-05
2.77734375,0.00010594796828564891,-6.819182751201631e-06,-6.539952095216295e-05,-6.982355691004805e-05
2.78125,0.00013035644253604946,-3.401996356145554e-06,-8.788582785534446e-05,-4.440823309681848e-05
2.78515625,0.0001459778660563058,-4.866504811169587e-06,-9.618470910048064e-05,-3.708569082169831e-05
2.7890625,0.00013084461202105745,1.1212577601281776e-05,-8.251596352025633e-05,-2.9763148546578148e-05
2.79296875,0.000110341493650721,2.1952306271458016e-05,-5.85651481620508e-05,1.7070611421377907e-05
2.796875,0.00010692430725566493,9.748069146257742e-06,-6.442318198214692e-05,3.269203494163426e-05
2.80078125,0.0001230339002609293,-2.2440606271457983e-05,-8.056328558022428e-05,1.5606102966353874e-05
2.8046875,0.00011864037489585719,-8.771860691233675e-06,-7.031172639505606e-05,-7.795521721217652e-06
2.80859375,0.00010741247674067293,4.294359412680248e-05,-3.025131803158616e-05,4.7284893110553325e-07
2.8125,9.764908704051272e-05,3.7085560306706354e-05,-2.536962318150605e-05,1.0724408116273763e-05
2.81640625,7.177610433508813e-05,9.259899661249731e-06,-4.050287721675439e-05,9.748069146257742e-06
2.8203125,6.539939043717099e-05,6.819052236209676e-06,-4.831358897688256e-05,9.748069146257742e-06
2.82421875,7.226427382009615e-05,1.755878090638592e-05,-5.563613125200272e-05,8.283560691233709e-06
2.828125,7.177610433508813e-05,3.90382382467384e-05,-4.196738567177842e-05,1.937357386129566e-06
2.83203125,9.032654476539255e-05,4.245542464179448e-05,-1.755891142137787e-05,1.3165255541313818e-05
2.8359375,0.00010008993446555277,6.819052236209676e-06,-1.609440296635384e-05,2.6834001121538125e-05
2.83984375,8.73975278553445e-05,-9.260030176241686e-06,-3.9526538246738366e-05,1.1700747086289786e-05
2.84375,6.149403455710691e-05,1.755878090638592e-05,-4.3431894126802455e-05,1.937357386129566e-06
2.84765625,6.491122095216298e-05,4.391993309681851e-05,-2.536962318150605e-05,1.1700747086289786e-05
2.8515625,8.007498558022432e-05,5.5636000737010774e-05,-6.3310132661936195e-06,1.4141594511329842e-05
2.85546875,4.831345846189061e-05,4.5872611036850557e-05,-5.354674296177598e-06,1.365342502632183e-05
2.859375,2.7810340091554148e-05,3.1227526486610226e-05,-2.9274979061570133e-05,1.5117933481345863e-05
2.86328125,4.9289797431906635e-05,2.3904984211490058e-05,-5.612430073701074e-05,3.562105185168232e-05
2.8671875,7.90986466102083e-05,2.488132318150608e-05,-4.196738567177842e-05,5.5636000737010774e-05
2.87109375,8.398034146028841e-05,4.245542464179448e-05,-1.7070741936369862e-05,5.270698382696271e-05
2.875,7.616962970016024e-05,2.976301803158619e-05,-2.195243678644997e-05,5.2218814341954696e-05
2.87890625,7.42169517601282e-05,-4.3783353261615755e-06,-3.855019927672234e-05,4.977796691691464e-05
2.8828125,4.9289797431906635e-05,-3.401996356145554e-06,-4.5872741551842505e-05,4.196725515678646e-05
2.88671875,5.075430588693066e-05,2.5369492666514095e-05,-3.464484339665826e-05,4.001457721675442e-05
2.890625,7.079976536507211e-05,4.880162794689862e-05,-2.3416945241474e-05,4.1479085671778456e-05
2.89453125,7.51932907301442e-05,2.5369492666514095e-05,-2.4393284211490024e-05,4.880162794689862e-05
2.8984375,8.056315506523234e-05,6.819052236209676e-06,-3.610935185168229e-05,3.562105185168232e-05
2.90234375,7.03115958800641e-05,1.902328936140995e-05,-4.001470773174638e-05,1.2188916571297797e-05
2.90625,1.9999628331425975e-05,4.0990916186770444e-05,-1.4629894511329806e-05,5.124247537193867e-05
2.91015625,1.4491879011215552e-06,3.610922133669034e-05,-1.2677216571297761e-05,7.958681609521631e-05
2.9140625,3.659739082169834e-05,-3.401996356145554e-06,-2.683413163653008e-05,5.71005091920348e-05
2.91796875,5.612417022201878e-05,-1.121270811627373e-05,-2.732230112153809e-05,3.4156543396658294e-05
2.921875,6.295854301213094e-05,-1.072453863126572e-05,-4.2943724641794444e-05,2.3904984211490058e-05
2.92578125,4.9289797431906635e-05,3.401865841153599e-06,-3.366850442664224e-05,3.659739082169834e-05
2.9296875,2.2440475756466028e-05,1.5606102966353874e-05,-1.2677216571297761e-05,4.5872611036850557e-05
2.93359375,3.952640773174641e-05,3.401865841153599e-06,4.866374296177632e-06,3.7573729791714366e-05
2.9375,7.616962970016024e-05,4.7284893110553325e-07,-1.121270811627373e-05,3.1227526486610226e-05
2.94140625,7.226427382009615e-05,4.7284893110553325e-07,-5.758880919203477e-05,4.391993309681851e-05
2.9453125,5.758867867704282e-05,5.354543781185643e-06,-6.198233455710688e-05,6.149403455710691e-05
2.94921875,5.954135661707486e-05,9.748069146257742e-06,-4.2943724641794444e-05,6.051769558709088e-05
2.953125,5.954135661707486e-05,9.610184161135442e-07,-3.5133012881666264e-05,5.514783125200276e-05
2.95703125,5.075430588693066e-05,-2.488145369649804e-05,-5.173077537193864e-05,4.391993309681851e-05
2.9609375,5.66123397070268e-05,-5.0266266916914606e-05,-6.982355691004805e-05,3.806189927672238e-05
2.96484375,6.198220404211491e-05,-5.758880919203477e-05,-8.10514550652323e-05,3.806189927672238e-05
2.96875,5.1730644856946685e-05,-5.710063970702676e-05,-9.03266752803845e-05,3.220386545662624e-05
2.97265625,5.8076848162050824e-05,-8.349230249027235e-05,-0.00010204274292057677,2.439315369649807e-05
2.9765625,7.861047712520029e-05,-0.000112294302105745,-0.00011912867489585715,1.4629763996337851e-05
2.98046875,5.5636000737010774e-05,-0.00011522331901579306,-0.00014011996275120161,2.1952306271458016e-05
2.984375,4.7337119491874584e-05,-0.00013670277635614557,-0.00018600789434195466,1.7070611421377907e-05
2.98828125,6.5887559922179e-05,-0.0001738036572167544,-0.0002236274552803845,2.4255268711375773e-06
2.9921875,6.051769558709088e-05,-0.00018600789434195466,-0.00022118660785534443,1.5117933481345863e-05
2.99609375,8.153949403524835e-05,-0.000201171658970016,-0.00023924887880064083,2.488132318150608e-05
3.0,0.00010253078189059284,-0.00023973704828564887,-0.00030515175927672237,1.7070611421377907e-05
3.00390625,0.00010643613777065691,-0.00025145311592584114,-0.0003413068117601281,7.795391206225697e-06
3.0078125,9.862542601052873e-05,-0.00026072833614099335,-0.00033837779485008007,1.755878090638592e-05
3.01171875,9.032654476539255e-05,-0.0002592638276859693,-0.0003178441658869306,3.269203494163426e-05
3.015625,9.61845785854887e-05,-0.0002690272173861296,-0.0003144269794918745,1.902328936140995e-05
3.01953125,7.226427382009615e-05,-0.00028513681039139387,-0.00033691328639505604,1.0236238631265752e-05
3.0234375,5.124247537193867e-05,-0.00026121650562600134,-0.00031882050485694665,1.1212577601281776e-05
3.02734375,3.7573729791714366e-05,-0.00023339084498054472,-0.0002773260986312657,1.6094272451361885e-05
3.03125,2.7810340091554148e-05,-0.00021581674352025632,-0.00025633481077592127,3.220386545662624e-05
3.03515625,4.7337119491874584e-05,-0.00021630491300526434,-0.000245595082105745,5.5636000737010774e-05
3.0390625,4.1479085671778456e-05,-0.00021386406558022427,-0.00024852409901579304,8.935020579537654e-05
3.04296875,3.269203494163426e-05,-0.00019577128404211488,-0.00024266606519569693,9.423190064545664e-05
3.046875,4.391993309681851e-05,-0.00016843379288166628,-0.0002060533538200961,9.130288373540858e-05
3.05078125,3.3668373911650276e-05,-0.0001303565730510414,-0.00015769406421149002,8.446851094529643e-05
3.0546875,1.4141594511329842e-05,-0.00010985345468070495,-0.00013279742047608145,6.0029526102082876e-05
3.05859375,-7.795521721217652e-06,-0.00011180613262073699,-0.00013719094584115356,2.0487797816433986e-05
3.0625,-2.3905114726482013e-05,-0.00010985345468070495,-0.00012645121717097733,3.269203494163426e-05
3.06640625,-1.9023419876401904e-05,-7.909877712520026e-05,-0.00010204274292057677,8.495668043030443e-05
3.0703125,-6.3310132661936195e-06,-3.415667391165024e-05,-7.763426867017622e-05,8.886203631036852e-05
3.07421875,-2.425657386129532e-06,-3.22039959716182e-05,-4.880175846189058e-05,6.884708742504007e-05
3.078125,-2.9138268711375426e-06,-3.9038368761730354e-05,-4.489640258182648e-05,7.42169517601282e-05
3.08203125,-1.755891142137787e-05,-3.025131803158616e-05,-5.8076978677042786e-05,8.983837528038453e-05
3.0859375,-3.806202979171434e-05,5.354543781185643e-06,-4.5872741551842505e-05,8.73975278553445e-05
3.08984375,-4.050287721675439e-05,6.149403455710691e-05,-4.866504811169587e-06,8.153949403524835e-05
3.09375,-3.9526538246738366e-05,5.5636000737010774e-05,2.0487797816433986e-05,7.226427382009615e-05
3.09765625,-5.221894485694665e-05,2.976301803158619e-05,1.365342502632183e-05,5.319515331197072e-05
3.1015625,-4.2943724641794444e-05,3.8550068761730395e-05,1.2677086056305808e-05,5.954135661707486e-05
3.10546875,-1.4629894511329806e-05,5.66123397070268e-05,1.9999628331425975e-05,7.42169517601282e-05
3.109375,7.307221721217687e-06,7.275244330510416e-05,3.4156543396658294e-05,7.958681609521631e-05
3.11328125,7.307221721217687e-06,8.153949403524835e-05,5.71005091920348e-05,5.8076848162050824e-05
3.1171875,-1.44931841611351e-06,5.270698382696271e-05,4.977796691691464e-05,3.171569597161824e-05
3.12109375,-6.819182751201631e-06,4.196725515678646e-05,3.4156543396658294e-05,4.5872611036850557e-05
3.125,-2.488145369649804e-05,7.47051212451362e-05,4.880162794689862e-05,5.71005091920348e-05
3.12890625,-2.9274979061570133e-05,9.130288373540858e-05,6.344671249713895e-05,5.71005091920348e-05
3.1328125,-1.560623348134583e-05,0.00010057810395056078,6.738257897001604e-05,5.319515331197072e-05
3.13671875,-9.61148931105499e-07,8.983837528038453e-05,6.051769558709088e-05,4.378204811169621e-06
3.140625,-1.0236369146257707e-05,7.51932907301442e-05,4.636078052185856e-05,4.7284893110553325e-07
3.14453125,-3.9526538246738366e-05,8.642118888532846e-05,3.562105185168232e-05,6.689440948500802e-05
3.1484375,-1.9023419876401904e-05,0.0001015544429205768,4.7337119491874584e-05,8.73975278553445e-05
3.15234375,-9.61148931105499e-07,0.00010253078189059284,7.03115958800641e-05,6.738257897001604e-05
3.15625,3.401865841153599e-06,7.861047712520029e-05,7.51932907301442e-05,5.856501764705884e-05
3.16015625,1.5606102966353874e-05,6.491122095216298e-05,5.954135661707486e-05,5.856501764705884e-05
3.1640625,-3.890165841153565e-06,6.884708742504007e-05,5.1730644856946685e-05,6.0029526102082876e-05
3.16796875,-1.3165386056305774e-05,8.642118888532846e-05,6.5887559922179e-05,6.344671249713895e-05
3.171875,6.330882751201665e-06,0.00010985332416571298,8.153949403524835e-05,6.0029526102082876e-05
3.17578125,2.4255268711375773e-06,8.105132455024035e-05,7.47051212451362e-05,4.7337119491874584e-05
3.1796875,9.748069146257742e-06,6.982342639505609e-05,4.4896272066834534e-05,3.8550068761730395e-05
3.18359375,2.5857662151522106e-05,8.30040024902724e-05,4.294359412680248e-05,4.5872611036850557e-05
3.1875,2.0975967301441994e-05,8.690935837033648e-05,7.665779918516825e-05,4.5872611036850557e-05
3.19140625,2.5857662151522106e-05,0.00010057810395056078,6.884708742504007e-05,3.90382382467384e-05
3.1953125,9.748069146257742e-06,7.812230764019227e-05,4.050274670176243e-05,4.7825288976882595e-05
3.19921875,-9.61148931105499e-07,6.198220404211491e-05,4.245542464179448e-05,5.2218814341954696e-05
3.203125,1.5117933481345863e-05,6.491122095216298e-05,4.0990916186770444e-05,3.7573729791714366e-05
3.20703125,-4.3783353261615755e-06,7.812230764019227e-05,4.7337119491874584e-05,2.488132318150608e-05
3.2109375,-1.3165386056305774e-05,9.374373116044863e-05,5.612417022201878e-05,4.001457721675442e-05
3.21484375,4.378204811169621e-06,7.372878227512018e-05,4.440810258182652e-05,6.247037352712293e-05
3.21875,3.806189927672238e-05,5.465966176699475e-05,3.318020442664227e-05,5.8076848162050824e-05
3.22265625,5.954135661707486e-05,3.7085560306706354e-05,2.0487797816433986e-05,3.7085560306706354e-05
3.2265625,5.026613640192266e-05,4.5872611036850557e-05,2.2440475756466028e-05,4.684895000686658e-05
3.23046875,3.5132882366674316e-05,6.982342639505609e-05,5.075430588693066e-05,7.714596867017625e-05
3.234375,3.7085560306706354e-05,6.982342639505609e-05,5.758867867704282e-05,7.861047712520029e-05
3.23828125,4.0990916186770444e-05,6.10058650720989e-05,2.878667906157017e-05,6.393488198214696e-05
3.2421875,3.3668373911650276e-05,6.247037352712293e-05,3.171569597161824e-05,5.856501764705884e-05
3.24609375,1.902328936140995e-05,9.472007013046466e-05,5.758867867704282e-05,5.1730644856946685e-05
3.25,2.878667906157017e-05,0.00013230912047608147,6.787074845502406e-05,3.8550068761730395e-05
3.25390625,5.5636000737010774e-05,0.00012596291717097735,9.081471425040057e-05,2.9274848546578178e-05
3.2578125,5.856501764705884e-05,0.00010643613777065691,9.130288373540858e-05,2.5369492666514095e-05
3.26171875,5.8076848162050824e-05,0.00011278234107576106,7.763413815518427e-05,2.2440475756466028e-05
3.265625,5.514783125200276e-05,0.0001367026458411536,7.714596867017625e-05,1.951145884641796e-05
3.26953125,5.417149228198674e-05,0.00015720576421149007,0.00010741247674067293,1.1700747086289786e-05
3.2734375,6.689440948500802e-05,0.0001679454928816663,0.0001284037645960174,-3.401996356145554e-06
3.27734375,5.758867867704282e-05,0.00017624437412680247,0.00011766403592584118,-4.866504811169587e-06
3.28125,2.7322170606546137e-05,0.00017673254361181052,0.00011131783262073704,1.755878090638592e-05
3.28515625,2.7322170606546137e-05,0.00017477986567177844,0.00011327051056076907,4.196725515678646e-05
3.2890625,6.787074845502406e-05,0.00017087450979171435,0.00010985332416571298,5.71005091920348e-05
3.29296875,9.764908704051272e-05,0.00016501647597161822,0.00012059305283588923,6.10058650720989e-05
3.296875,8.642118888532846e-05,0.00015525308627145802,0.0001240102392309453,5.319515331197072e-05
3.30078125,8.056315506523234e-05,0.00014890688296635387,0.000110341493650721,4.196725515678646e-05
3.3046875,8.30040024902724e-05,0.00016989817082169834,0.00011961671386587322,3.952640773174641e-05
3.30859375,8.446851094529643e-05,0.0001777088825818265,0.00013230912047608147,3.562105185168232e-05
3.3125,8.007498558022432e-05,0.0001772207130968185,0.00013523813738612958,3.220386545662624e-05
3.31640625,7.324061279011216e-05,0.0001635519675165942,0.00013426179841611355,3.610922133669034e-05
3.3203125,8.007498558022432e-05,0.00014304884914625773,0.00012352206974593728,3.562105185168232e-05
3.32421875,6.393488198214696e-05,0.00014744237451132981,0.00012596291717097735,3.0739357001602215e-05
3.328125,3.806189927672238e-05,0.00017966156052185857,0.00013474996790112154,3.610922133669034e-05
3.33203125,6.0029526102082876e-05,0.00018307874691691464,0.00013230912047608147,4.391993309681851e-05
3.3359375,9.813725652552073e-05,0.00014353701863126575,0.00012254573077592128,5.71005091920348e-05
3.33984375,9.862542601052873e-05,0.00013279728996108952,0.00011571135798580912,4.34317636118105e-05
3.34375,5.612417022201878e-05,0.00014646603554131383,0.00011327051056076907,-7.795521721217652e-06
3.34765625,3.952640773174641e-05,0.00016013478112153812,0.00011961671386587322,4.378204811169621e-06
3.3515625,7.226427382009615e-05,0.00015427674730144199,0.00011522318850080111,5.270698382696271e-05
3.35546875,9.764908704051272e-05,0.00011815220541084917,9.227922270542459e-05,6.295854301213094e-05
3.359375,7.128793485008013e-05,0.00010497162931563287,7.079976536507211e-05,5.368332279697873e-05
3.36328125,4.440810258182652e-05,9.423190064545664e-05,6.738257897001604e-05,4.001457721675442e-05
3.3671875,5.514783125200276e-05,0.00011082966313572902,8.153949403524835e-05,4.440810258182652e-05
3.37109375,7.616962970016024e-05,0.00013230912047608147,8.642118888532846e-05,4.5872611036850557e-05
3.375,8.983837528038453e-05,0.00010643613777065691,7.763413815518427e-05,5.075430588693066e-05
3.37890625,7.51932907301442e-05,8.056315506523234e-05,6.344671249713895e-05,6.0029526102082876e-05
3.3828125,6.393488198214696e-05,7.47051212451362e-05,3.90382382467384e-05,5.1730644856946685e-05
3.38671875,6.640624000000002e-05,8.983837528038453e-05,3.8550068761730395e-05,6.198220404211491e-05
3.390625,4.196725515678646e-05,0.00010594796828564891,7.079976536507211e-05,7.47051212451362e-05
3.39453125,3.8550068761730395e-05,8.78856973403525e-05,7.177610433508813e-05,6.198220404211491e-05
3.3984375,4.294359412680248e-05,6.149403455710691e-05,4.1479085671778456e-05,4.684895000686658e-05
3.40234375,3.46447128816663e-05,5.758867867704282e-05,2.5857662151522106e-05,4.4896272066834534e-05
3.40625,3.8550068761730395e-05,7.275244330510416e-05,3.806189927672238e-05,4.5872611036850557e-05
3.41015625,6.982342639505609e-05,8.251583300526438e-05,4.7825288976882595e-05,5.417149228198674e-05
3.4140625,9.61845785854887e-05,8.007498558022432e-05,3.7085560306706354e-05,5.124247537193867e-05
3.41796875,9.130288373540858e-05,6.442305146715498e-05,2.7810340091554148e-05,4.1479085671778456e-05
3.421875,7.275244330510416e-05,4.294359412680248e-05,1.951145884641796e-05,3.318020442664227e-05
3.42578125,4.636078052185856e-05,3.3668373911650276e-05,6.819052236209676e-06,3.659739082169834e-05
3.4296875,5.270698382696271e-05,4.4896272066834534e-05,8.283560691233709e-06,5.5636000737010774e-05
3.43359375,4.636078052185856e-05,5.612417022201878e-05,1.755878090638592e-05,5.905318713206685e-05
3.4375,4.7825288976882595e-05,3.269203494163426e-05,2.913696356145588e-06,3.8550068761730395e-05
3.44140625,6.491122095216298e-05,-2.9138268711375426e-06,-1.3653555541313785e-05,2.5857662151522106e-05
3.4453125,2.829850957656216e-05,-9.61148931105499e-07,-8.283691206225664e-06,3.90382382467384e-05
3.44921875,3.0739357001602215e-05,2.5857662151522106e-05,9.259899661249731e-06,4.636078052185856e-05
3.453125,4.050274670176243e-05,3.220386545662624e-05,1.6582441936369896e-05,4.5872611036850557e-05
3.45703125,4.538444155184254e-05,1.2677086056305808e-05,-1.5320553902477717e-08,4.0990916186770444e-05
3.4609375,7.665779918516825e-05,1.4491879011215552e-06,-2.5857792666514058e-05,3.562105185168232e-05
3.46484375,8.593301940032045e-05,6.330882751201665e-06,-2.195243678644997e-05,4.001457721675442e-05
3.46875,7.714596867017625e-05,2.5369492666514095e-05,-3.401996356145554e-06,3.46447128816663e-05
3.47265625,6.491122095216298e-05,4.001457721675442e-05,1.365342502632183e-05,2.7322170606546137e-05
3.4765625,6.051769558709088e-05,1.6582441936369896e-05,1.0724408116273763e-05,3.0739357001602215e-05
3.48046875,3.8550068761730395e-05,7.795391206225697e-06,-1.2189047086289752e-05,4.001457721675442e-05
3.484375,3.562105185168232e-05,3.562105185168232e-05,-9.748199661249696e-06,4.538444155184254e-05
3.48828125,5.71005091920348e-05,4.391993309681851e-05,4.378204811169621e-06,4.440810258182652e-05
3.4921875,5.465966176699475e-05,4.001457721675442e-05,2.2440475756466028e-05,3.4156543396658294e-05
3.49609375,6.5887559922179e-05,1.0724408116273763e-05,1.0236238631265752e-05,2.1952306271458016e-05
3.5,6.344671249713895e-05,-5.354674296177598e-06,-1.999975884641793e-05,6.819052236209676e-06
3.50390625,3.220386545662624e-05,1.365342502632183e-05,-1.804708090638588e-05,-1.44931841611351e-06
3.5078125,3.806189927672238e-05,2.829850957656216e-05,-1.2677216571297761e-05,2.6345831636530114e-05
3.51171875,5.66123397070268e-05,2.6834001121538125e-05,-9.748199661249696e-06,5.612417022201878e-05
3.515625,5.5636000737010774e-05,8.283560691233709e-06,-5.842843781185608e-06,6.539939043717099e-05
3.51953125,4.5872611036850557e-05,4.7284893110553325e-07,-1.804708090638588e-05,6.247037352712293e-05
3.5234375,3.659739082169834e-05,4.866374296177632e-06,-4.001470773174638e-05,5.2218814341954696e-05
3.52734375,5.2218814341954696e-05,1.7070611421377907e-05,-3.366850442664224e-05,3.952640773174641e-05
3.53125,7.177610433508813e-05,1.755878090638592e-05,-1.755891142137787e-05,3.7573729791714366e-05
3.53515625,7.079976536507211e-05,2.4255268711375773e-06,-1.658257245136185e-05,3.8550068761730395e-05
3.5390625,7.03115958800641e-05,-1.5320553902477717e-08,-1.999975884641793e-05,3.952640773174641e-05
3.54296875,6.738257897001604e-05,-4.3783353261615755e-06,-2.146426730144196e-05,4.391993309681851e-05
3.546875,5.905318713206685e-05,1.1700747086289786e-05,-2.634596215152207e-05,4.440810258182652e-05
3.55078125,5.612417022201878e-05,2.1952306271458016e-05,-1.560623348134583e-05,4.050274670176243e-05
3.5546875,4.977796691691464e-05,1.4141594511329842e-05,-1.44931841611351e-06,3.4156543396658294e-05
3.55859375,5.319515331197072e-05,-7.795521721217652e-06,-2.3905114726482013e-05,3.8550068761730395e-05
3.5625,5.66123397070268e-05,-5.8076978677042786e-05,-0.00010497175983062485,4.1479085671778456e-05
3.56640625,5.856501764705884e-05,-8.10514550652323e-05,-0.00014597799657129775,3.318020442664227e-05
3.5703125,7.079976536507211e-05,-9.47202006454566e-05,-0.00013084474253604943,3.46447128816663e-05
3.57421875,6.5887559922179e-05,-0.00014158447120622564,-0.00017673267412680245,3.8550068761730395e-05
3.578125,5.319515331197072e-05,-0.00021093504867017622,-0.00023387901446555274,2.7810340091554148e-05
3.58203125,4.977796691691464e-05,-0.000247059590560769,-0.000291971183181506,1.951145884641796e-05
3.5859375,6.10058650720989e-05,-0.00027000355635614556,-0.00034521216764019227,7.307221721217687e-06
3.58984375,8.349217197528039e-05,-0.0003071044372167544,-0.00035399921837033643,-1.4629894511329806e-05
3.59375,7.714596867017625e-05,-0.000334472438970016,-0.0003696206418905928,-3.401996356145554e-06
3.59765625,2.7322170606546137e-05,-0.0003710851503456168,-0.0003954936245960174,5.124247537193867e-05
3.6015625,2.878667906157017e-05,-0.00040281616687113753,-0.00043503535288166623,6.689440948500802e-05
3.60546875,8.446851094529643e-05,-0.00040232799738612954,-0.0004394288782467383,3.610922133669034e-05
3.609375,8.349217197528039e-05,-0.00039158826871595325,-0.0004125795565712977,3.171569597161824e-05
3.61328125,6.491122095216298e-05,-0.00037547867571068895,-0.0003925646076859693,4.1479085671778456e-05
3.6171875,5.417149228198674e-05,-0.00037206148931563285,-0.00039842264150606545,3.7573729791714366e-05
3.62109375,-3.401996356145554e-06,-0.0003662034554955367,-0.00039451728562600136,5.954135661707486e-05
3.625,-8.283691206225664e-06,-0.00033691328639505604,-0.00039061192974593727,0.00012059305283588923
3.62890625,4.440810258182652e-05,-0.0003202850133119707,-0.0003710851503456168,0.00013914349326619364
3.6328125,5.270698382696271e-05,-0.0003041754203067063,-0.0003197968438269627,0.00012498657820096134
3.63671875,3.171569597161824e-05,-0.0002817196239963378,-0.00031345064052185854,0.00011375868004577707
3.640625,2.1464136786450005e-05,-0.00027000355635614556,-0.00029831738648661017,9.569640910048068e-05
3.64453125,8.77173017624172e-06,-0.0002587756582009613,-0.0002524294548958571,8.886203631036852e-05
3.6484375,-9.748199661249696e-06,-0.00022558013322041657,-0.0002060533538200961,0.00012156939180590525
3.65234375,-1.804708090638588e-05,-0.00017575633515678641,-0.0001738036572167544,0.00014451335760128176
3.65625,-2.683413163653008e-05,-0.00016062308112153807,-0.0001664811149416342,0.00011571135798580912
3.66015625,-5.954148713206682e-05,-0.00014597799657129775,-0.00014939518296635385,4.7337119491874584e-05
3.6640625,-6.0029656617074824e-05,-9.03266752803845e-05,-0.00011131796313572899,3.8550068761730395e-05
3.66796875,-2.634596215152207e-05,-5.8076978677042786e-05,-7.177623485008008e-05,8.251583300526438e-05
3.671875,-2.2440606271457983e-05,-6.149416507209886e-05,-5.6612470222018745e-05,0.00012254573077592128
3.67578125,-3.1715826486610186e-05,-6.442318198214692e-05,-5.8076978677042786e-05,0.00013279728996108952
3.6796875,-2.3416945241474e-05,-5.319528382696267e-05,-5.4171622796978696e-05,9.374373116044863e-05
3.68359375,-2.425657386129532e-06,-2.9274979061570133e-05,-4.3431894126802455e-05,7.812230764019227e-05
3.6875,1.0724408116273763e-05,2.0975967301441994e-05,-2.3416945241474e-05,8.886203631036852e-05
3.69140625,1.4491879011215552e-06,4.196725515678646e-05,8.77173017624172e-06,4.880162794689862e-05
3.6953125,-6.3310132661936195e-06,1.3165255541313818e-05,3.610922133669034e-05,3.0251187516594204e-05
3.69921875,-6.819182751201631e-06,-6.3310132661936195e-06,2.2440475756466028e-05,6.10058650720989e-05
3.703125,-6.819182751201631e-06,7.307221721217687e-06,-5.842843781185608e-06,6.247037352712293e-05
3.70703125,-2.9274979061570133e-05,5.514783125200276e-05,3.890035326161609e-06,7.958681609521631e-05
3.7109375,-3.855019927672234e-05,6.491122095216298e-05,3.171569597161824e-05,9.423190064545664e-05
3.71484375,-1.937487901121521e-06,4.684895000686658e-05,4.1479085671778456e-05,7.42169517601282e-05
3.71875,2.488132318150608e-05,2.3904984211490058e-05,1.5606102966353874e-05,5.075430588693066e-05
3.72265625,5.842713266193654e-06,2.1952306271458016e-05,4.378204811169621e-06,4.636078052185856e-05
3.7265625,1.4491879011215552e-06,5.075430588693066e-05,1.7070611421377907e-05,4.196725515678646e-05
3.73046875,1.4141594511329842e-05,7.42169517601282e-05,3.3668373911650276e-05,3.562105185168232e-05
3.734375,9.748069146257742e-06,8.349217197528039e-05,5.026613640192266e-05,3.171569597161824e-05
3.73828125,-4.72979446097488e-07,7.03115958800641e-05,3.4156543396658294e-05,3.5132882366674316e-05
3.7421875,-8.771860691233675e-06,6.491122095216298e-05,2.5857662151522106e-05,1.951145884641796e-05
3.74609375,-3.890165841153565e-06,8.593301940032045e-05,6.787074845502406e-05,-1.4629894511329806e-05
3.75,-4.72979446097488e-07,0.00010497162931563287,9.520823961547266e-05,1.4141594511329842e-05
3.75390625,9.259899661249731e-06,8.593301940032045e-05,7.079976536507211e-05,1.6582441936369896e-05
3.7578125,2.1952306271458016e-05,5.612417022201878e-05,4.636078052185856e-05,-9.61148931105499e-07
3.76171875,1.8046950391393927e-05,5.270698382696271e-05,2.976301803158619e-05,4.0990916186770444e-05
3.765625,1.2677086056305808e-05,6.787074845502406e-05,3.562105185168232e-05,1.8535119876401938e-05
3.76953125,2.1464136786450005e-05,8.593301940032045e-05,5.856501764705884e-05,-2.9138268711375426e-06
3.7734375,2.1464136786450005e-05,8.105132455024035e-05,6.10058650720989e-05,4.880162794689862e-05
3.77734375,2.9274848546578178e-05,6.393488198214696e-05,4.4896272066834534e-05,7.372878227512018e-05
3.78125,3.610922133669034e-05,6.5887559922179e-05,3.318020442664227e-05,5.71005091920348e-05
3.78515625,2.7810340091554148e-05,7.079976536507211e-05,3.90382382467384e-05,3.5132882366674316e-05
3.7890625,2.3904984211490058e-05,7.128793485008013e-05,5.66123397070268e-05,3.0739357001602215e-05
3.79296875,3.1227526486610226e-05,7.616962970016024e-05,7.324061279011216e-05,6.330882751201665e-06
3.796875,3.952640773174641e-05,6.295854301213094e-05,6.442305146715498e-05,-1.8535250391393893e-05
3.80078125,2.488132318150608e-05,4.831345846189061e-05,4.831345846189061e-05,-7.307352236209642e-06
3.8046875,2.7322170606546137e-05,6.787074845502406e-05,4.001457721675442e-05,4.378204811169621e-06
3.80859375,2.488132318150608e-05,8.153949403524835e-05,4.001457721675442e-05,2.6834001121538125e-05
3.8125,1.951145884641796e-05,6.982342639505609e-05,4.5872611036850557e-05,5.1730644856946685e-05
3.81640625,3.562105185168232e-05,6.0029526102082876e-05,4.1479085671778456e-05,5.5636000737010774e-05
3.8203125,3.4156543396658294e-05,5.026613640192266e-05,2.829850957656216e-05,3.7085560306706354e-05
3.82421875,4.050274670176243e-05,6.10058650720989e-05,3.4156543396658294e-05,4.538444155184254e-05
3.828125,4.7825288976882595e-05,7.812230764019227e-05,4.050274670176243e-05,5.124247537193867e-05
3.83203125,1.951145884641796e-05,6.5887559922179e-05,3.952640773174641e-05,4.050274670176243e-05
3.8359375,-1.3653555541313785e-05,5.758867867704282e-05,5.2218814341954696e-05,2.0975967301441994e-05
3.83984375,7.307221721217687e-06,3.806189927672238e-05,3.220386545662624e-05,1.6094272451361885e-05
3.84375,4.636078052185856e-05,3.0251187516594204e-05,2.2440475756466028e-05,2.439315369649807e-05
3.84765625,3.8550068761730395e-05,5.8076848162050824e-05,3.7573729791714366e-05,2.0487797816433986e-05
3.8515625,3.269203494163426e-05,6.295854301213094e-05,5.1730644856946685e-05,3.0251187516594204e-05
3.85546875,5.465966176699475e-05,4.5872611036850557e-05,5.270698382696271e-05,5.417149228198674e-05
3.859375,4.636078052185856e-05,2.439315369649807e-05,3.7573729791714366e-05,5.66123397070268e-05
3.86328125,3.610922133669034e-05,2.7322170606546137e-05,2.0487797816433986e-05,4.636078052185856e-05
3.8671875,4.001457721675442e-05,5.1730644856946685e-05,2.9274848546578178e-05,3.610922133669034e-05
3.87109375,3.90382382467384e-05,6.442305146715498e-05,3.8550068761730395e-05,2.2440475756466028e-05
3.875,3.5132882366674316e-05,5.319515331197072e-05,3.1227526486610226e-05,-4.866504811169587e-06
3.87890625,2.6834001121538125e-05,3.269203494163426e-05,1.4141594511329842e-05,7.795391206225697e-06
3.8828125,2.7322170606546137e-05,1.951145884641796e-05,4.866374296177632e-06,4.7825288976882595e-05
3.88671875,4.391993309681851e-05,2.7322170606546137e-05,3.220386545662624e-05,5.124247537193867e-05
3.890625,4.538444155184254e-05,4.7825288976882595e-05,3.8550068761730395e-05,3.8550068761730395e-05
3.89453125,1.8535119876401938e-05,4.7337119491874584e-05,2.488132318150608e-05,2.878667906157017e-05
3.8984375,1.755878090638592e-05,3.0739357001602215e-05,8.77173017624172e-06,3.562105185168232e-05
3.90234375,5.758867867704282e-05,2.0487797816433986e-05,7.795391206225697e-06,8.77173017624172e-06
3.90625,7.177610433508813e-05,2.6345831636530114e-05,2.5369492666514095e-05,-1.44931841611351e-06
3.91015625,5.8076848162050824e-05,4.001457721675442e-05,8.77173017624172e-06,4.5872611036850557e-05
3.9140625,4.294359412680248e-05,4.294359412680248e-05,3.890035326161609e-06,6.835891794003205e-05
3.91796875,4.440810258182652e-05,3.610922133669034e-05,6.330882751201665e-06,4.0990916186770444e-05
3.921875,3.0739357001602215e-05,2.3904984211490058e-05,-9.61148931105499e-07,-2.9138268711375426e-06
3.92578125,5.354543781185643e-06,2.488132318150608e-05,3.401865841153599e-06,1.0724408116273763e-05
3.9296875,2.878667906157017e-05,3.3668373911650276e-05,8.77173017624172e-06,5.270698382696271e-05
3.93359375,5.758867867704282e-05,3.7085560306706354e-05,-4.72979446097488e-07,5.417149228198674e-05
3.9375,4.7825288976882595e-05,2.5369492666514095e-05,-2.425657386129532e-06,4.196725515678646e-05
3.94140625,4.831345846189061e-05,7.307221721217687e-06,-1.5118063996337817e-05,4.684895000686658e-05
3.9453125,4.4896272066834534e-05,3.890035326161609e-06,-2.4393284211490024e-05,1.951145884641796e-05
3.94921875,4.245542464179448e-05,2.7810340091554148e-05,-1.5320553902477717e-08,-1.8535250391393893e-05
3.953125,3.46447128816663e-05,2.6834001121538125e-05,1.365342502632183e-05,1.902328936140995e-05
3.95703125,2.7322170606546137e-05,4.378204811169621e-06,6.330882751201665e-06,6.051769558709088e-05
3.9609375,3.171569597161824e-05,-2.425657386129532e-06,-2.9138268711375426e-06,6.198220404211491e-05
3.96484375,2.6834001121538125e-05,4.378204811169621e-06,-1.2189047086289752e-05,5.319515331197072e-05
3.96875,2.6345831636530114e-05,3.318020442664227e-05,-1.170087760128174e-05,3.3668373911650276e-05
3.97265625,4.5872611036850557e-05,4.440810258182652e-05,9.610184161135442e-07,2.5369492666514095e-05
3.9765625,7.079976536507211e-05,1.7070611421377907e-05,-3.890165841153565e-06,1.9999628331425975e-05
3.98046875,6.198220404211491e-05,-8.283691206225664e-06,-1.658257245136185e-05,1.6094272451361885e-05
3.984375,4.294359412680248e-05,6.819052236209676e-06,-1.560623348134583e-05,1.3165255541313818e-05
3.98828125,4.9289797431906635e-05,2.878667906157017e-05,-3.890165841153565e-06,5.842713266193654e-06
3.9921875,5.124247537193867e-05,2.976301803158619e-05,1.4491879011215552e-06,1.4141594511329842e-05
3.99609375,4.636078052185856e-05,2.488132318150608e-05,-5.842843781185608e-06,2.5369492666514095e-05
4.0,4.5872611036850557e-05,1.1700747086289786e-05,-2.536962318150605e-05,3.1227526486610226e-05
4.00390625,4.391993309681851e-05,1.6094272451361885e-05,-3.073948751659417e-05,2.6834001121538125e-05
4.0078125,4.001457721675442e-05,4.636078052185856e-05,3.401865841153599e-06,1.951145884641796e-05
4.01171875,8.77173017624172e-06,6.787074845502406e-05,2.7322170606546137e-05,2.6345831636530114e-05
4.015625,7.307221721217687e-06,5.66123397070268e-05,1.5117933481345863e-05,-1.937487901121521e-06
4.01953125,4.5872611036850557e-05,1.2188916571297797e-05,-6.3310132661936195e-06,3.890035326161609e-06
4.0234375,6.051769558709088e-05,3.890035326161609e-06,-2.0487928331425938e-05,5.075430588693066e-05
4.02734375,6.5887559922179e-05,2.1464136786450005e-05,-1.4629894511329806e-05,5.319515331197072e-05
4.03125,6.640624000000002e-05,1.6582441936369896e-05,6.819052236209676e-06,5.075430588693066e-05
4.03515625,5.71005091920348e-05,4.866374296177632e-06,9.748069146257742e-06,4.7825288976882595e-05
4.0390625,4.684895000686658e-05,-3.890165841153565e-06,-1.0236369146257707e-05,3.806189927672238e-05
4.04296875,5.319515331197072e-05,7.307221721217687e-06,-1.560623348134583e-05,2.3904984211490058e-05
4.046875,4.0990916186770444e-05,1.951145884641796e-05,-3.401996356145554e-06,-4.72979446097488e-07
4.05078125,-2.097609781643395e-05,3.0251187516594204e-05,2.5857662151522106e-05,5.842713266193654e-06
4.0546875,2.4255268711375773e-06,2.292864524147404e-05,2.2440475756466028e-05,1.5606102966353874e-05
4.05859375,7.665779918516825e-05,4.378204811169621e-06,7.795391206225697e-06,1.365342502632183e-05
4.0625,8.30040024902724e-05,4.866374296177632e-06,-9.260030176241686e-06,2.2440475756466028e-05
4.06640625,5.954135661707486e-05,2.0487797816433986e-05,-2.2440606271457983e-05,3.46447128816663e-05
4.0703125,4.880162794689862e-05,4.1479085671778456e-05,-1.937487901121521e-06,3.562105185168232e-05
4.07421875,5.368332279697873e-05,3.659739082169834e-05,7.307221721217687e-06,3.8550068761730395e-05
4.078125,5.319515331197072e-05,1.4629763996337851e-05,-9.61148931105499e-07,4.7337119491874584e-05
4.08203125,4.7825288976882595e-05,1.1700747086289786e-05,-1.170087760128174e-05,4.636078052185856e-05
4.0859375,4.538444155184254e-05,1.5606102966353874e-05,-1.7070741936369862e-05,4.1479085671778456e-05
4.08984375,1.9999628331425975e-05,3.7085560306706354e-05,7.307221721217687e-06,4.196725515678646e-05
4.09375,1.8535119876401938e-05,3.659739082169834e-05,2.5857662151522106e-05,1.7070611421377907e-05
4.09765625,4.977796691691464e-05,4.378204811169621e-06,1.2188916571297797e-05,-1.3653555541313785e-05
4.1015625,5.368332279697873e-05,-9.61148931105499e-07,-6.3310132661936195e-06,5.354543781185643e-06
4.10546875,4.880162794689862e-05,2.6345831636530114e-05,-8.771860691233675e-06,3.4156543396658294e-05
4.109375,4.440810258182652e-05,5.270698382696271e-05,1.2677086056305808e-05,7.307221721217687e-06
4.11328125,5.026613640192266e-05,3.8550068761730395e-05,2.6345831636530114e-05,-1.7070741936369862e-05
4.1171875,7.079976536507211e-05,1.4629763996337851e-05,1.3165255541313818e-05,2.9274848546578178e-05
4.12109375,4.440810258182652e-05,1.3165255541313818e-05,-8.771860691233675e-06,7.03115958800641e-05
4.125,-1.0236369146257707e-05,2.1464136786450005e-05,-1.170087760128174e-05,6.051769558709088e-05
4.12890625,2.5369492666514095e-05,2.6834001121538125e-05,3.401865841153599e-06,4.245542464179448e-05
4.1328125,7.128793485008013e-05,2.488132318150608e-05,8.77173017624172e-06,3.562105185168232e-05
4.13671875,6.295854301213094e-05,9.748069146257742e-06,4.866374296177632e-06,3.46447128816663e-05
4.140625,6.344671249713895e-05,1.5606102966353874e-05,-1.170087760128174e-05,1.6094272451361885e-05
4.14453125,6.295854301213094e-05,2.488132318150608e-05,-1.560623348134583e-05,-4.050287721675439e-05
4.1484375,5.905318713206685e-05,2.9274848546578178e-05,9.610184161135442e-07,-1.9023419876401904e-05
4.15234375,5.5636000737010774e-05,2.6834001121538125e-05,2.4255268711375773e-06,6.149403455710691e-05
4.15625,5.1730644856946685e-05,1.7070611421377907e-05,3.401865841153599e-06,8.495668043030443e-05
4.16015625,3.806189927672238e-05,7.307221721217687e-06,-7.307352236209642e-06,6.0029526102082876e-05
4.1640625,1.4629763996337851e-05,1.365342502632183e-05,-2.195243678644997e-05,3.171569597161824e-05
4.16796875,2.3416814726482047e-05,2.292864524147404e-05,6.330882751201665e-06,2.976301803158619e-05
4.171875,4.196725515678646e-05,2.6834001121538125e-05,2.3904984211490058e-05,2.6834001121538125e-05
4.17578125,4.880162794689862e-05,2.0487797816433986e-05,4.7284893110553325e-07,1.4629763996337851e-05
4.1796875,5.124247537193867e-05,-7.795521721217652e-06,-2.5857792666514058e-05,3.171569597161824e-05
4.18359375,5.5636000737010774e-05,3.401865841153599e-06,-2.5857792666514058e-05,4.4896272066834534e-05
4.1875,4.294359412680248e-05,3.0251187516594204e-05,-1.804708090638588e-05,3.1227526486610226e-05
4.19140625,3.0739357001602215e-05,1.755878090638592e-05,-2.3416945241474e-05,1.3165255541313818e-05
4.1953125,5.075430588693066e-05,9.610184161135442e-07,-1.8535250391393893e-05,-1.804708090638588e-05
4.19921875,6.344671249713895e-05,1.4491879011215552e-06,-2.536962318150605e-05,-1.658257245136185e-05
4.203125,3.7573729791714366e-05,-1.44931841611351e-06,-3.562118236667428e-05,3.0251187516594204e-05
4.20703125,2.976301803158619e-05,-4.3783353261615755e-06,-3.22039959716182e-05,5.270698382696271e-05
4.2109375,6.787074845502406e-05,-4.72979446097488e-07,-1.609440296635384e-05,4.7337119491874584e-05
4.21484375,7.42169517601282e-05,8.283560691233709e-06,-9.748199661249696e-06,3.171569597161824e-05
4.21875,4.880162794689862e-05,2.4255268711375773e-06,-1.999975884641793e-05,2.6834001121538125e-05
4.22265625,4.245542464179448e-05,1.1700747086289786e-05,-2.488145369649804e-05,7.795391206225697e-06
4.2265625,6.0029526102082876e-05,2.439315369649807e-05,-6.3310132661936195e-06,-1.5118063996337817e-05
4.23046875,7.03115958800641e-05,2.6345831636530114e-05,8.77173017624172e-06,1.2188916571297797e-05
4.234375,6.295854301213094e-05,1.4141594511329842e-05,-9.748199661249696e-06,4.391993309681851e-05
4.23828125,4.9289797431906635e-05,-2.9138268711375426e-06,-2.4393284211490024e-05,5.075430588693066e-05
4.2421875,4.34317636118105e-05,-1.5320553902477717e-08,-2.7810470606546103e-05,5.1730644856946685e-05
4.24609375,4.196725515678646e-05,1.3165255541313818e-05,-1.4629894511329806e-05,1.8535119876401938e-05
4.25,3.8550068761730395e-05,2.1952306271458016e-05,4.378204811169621e-06,-1.9023419876401904e-05
4.25390625,4.196725515678646e-05,1.3165255541313818e-05,-3.401996356145554e-06,4.378204811169621e-06
4.2578125,4.9289797431906635e-05,-6.819182751201631e-06,-1.170087760128174e-05,4.001457721675442e-05
4.26171875,6.689440948500802e-05,-1.4629894511329806e-05,-1.999975884641793e-05,3.90382382467384e-05
4.265625,6.738257897001604e-05,3.401865841153599e-06,-3.2692165456626215e-05,2.7810340091554148e-05
4.26953125,4.440810258182652e-05,1.8046950391393927e-05,-1.951158936140992e-05,4.1479085671778456e-05
4.2734375,4.050274670176243e-05,2.1464136786450005e-05,3.890035326161609e-06,5.270698382696271e-05
4.27734375,4.34317636118105e-05,1.5117933481345863e-05,-1.609440296635384e-05,5.075430588693066e-05
4.28125,3.806189927672238e-05,-3.890165841153565e-06,-2.4393284211490024e-05,3.562105185168232e-05
4.28515625,3.3668373911650276e-05,1.0236238631265752e-05,-6.819182751201631e-06,-8.283691206225664e-06
4.2890625,5.075430588693066e-05,2.6345831636530114e-05,-2.425657386129532e-06,-1.9023419876401904e-05
4.29296875,6.933525691004809e-05,1.2677086056305808e-05,-9.748199661249696e-06,1.9999628331425975e-05
4.296875,6.738257897001604e-05,-1.0236369146257707e-05,-3.2692165456626215e-05,3.659739082169834e-05
4.30078125,5.8076848162050824e-05,-3.708569082169831e-05,-3.9038368761730354e-05,3.46447128816663e-05
4.3046875,3.90382382467384e-05,-1.999975884641793e-05,-2.488145369649804e-05,3.659739082169834e-05
4.30859375,2.6834001121538125e-05,2.878667906157017e-05,-4.866504811169587e-06,2.4255268711375773e-06
4.3125,4.0990916186770444e-05,2.7810340091554148e-05,-6.3310132661936195e-06,9.259899661249731e-06
4.31640625,5.075430588693066e-05,-1.3165386056305774e-05,-2.488145369649804e-05,6.640624000000002e-05
4.3203125,4.001457721675442e-05,-2.9274979061570133e-05,-3.757386030670632e-05,8.202766352025636e-05
4.32421875,3.4156543396658294e-05,-1.072453863126572e-05,-2.146426730144196e-05,7.51932907301442e-05
4.328125,4.5872611036850557e-05,1.4629763996337851e-05,-2.9138268711375426e-06,6.738257897001604e-05
4.33203125,5.2218814341954696e-05,2.439315369649807e-05,-3.401996356145554e-06,4.440810258182652e-05
4.3359375,4.7337119491874584e-05,1.937357386129566e-06,-1.3165386056305774e-05,1.3165255541313818e-05
4.33984375,4.391993309681851e-05,-2.732230112153809e-05,-2.9763148546578148e-05,1.9999628331425975e-05
4.34375,3.1227526486610226e-05,-1.121270811627373e-05,-1.8535250391393893e-05,5.612417022201878e-05
4.34765625,3.7085560306706354e-05,1.3165255541313818e-05,-1.937487901121521e-06,3.8550068761730395e-05
4.3515625,6.442305146715498e-05,1.8535119876401938e-05,4.866374296177632e-06,-1.609440296635384e-05
4.35546875,5.612417022201878e-05,7.307221721217687e-06,-1.4141725026321795e-05,2.6834001121538125e-05
4.359375,4.684895000686658e-05,-9.260030176241686e-06,-4.1479216186770404e-05,9.423190064545664e-05
4.36328125,6.344671249713895e-05,-1.4629894511329806e-05,-4.636091103685052e-05,9.61845785854887e-05
4.3671875,4.4896272066834534e-05,2.5857662151522106e-05,-2.2928775756465994e-05,6.198220404211491e-05
4.37109375,1.6094272451361885e-05,5.71005091920348e-05,2.4255268711375773e-06,2.829850957656216e-05
4.375,5.124247537193867e-05,1.951145884641796e-05,-4.866504811169587e-06,2.1952306271458016e-05
4.37890625,8.349217197528039e-05,-1.4629894511329806e-05,-4.09910467017624e-05,3.659739082169834e-05
4.3828125,7.128793485008013e-05,-1.072453863126572e-05,-5.0266266916914606e-05,5.5636000737010774e-05
4.38671875,6.10058650720989e-05,-4.72979446097488e-07,-3.855019927672234e-05,5.5636000737010774e-05
4.390625,6.198220404211491e-05,1.3165255541313818e-05,-1.609440296635384e-05,2.829850957656216e-05
4.39453125,6.295854301213094e-05,9.748069146257742e-06,5.842713266193654e-06,1.902328936140995e-05
4.3984375,4.538444155184254e-05,-1.560623348134583e-05,-1.2677216571297761e-05,4.5872611036850557e-05
4.40234375,1.0236238631265752e-05,-4.866504811169587e-06,-2.536962318150605e-05,5.368332279697873e-05
4.40625,1.902328936140995e-05,1.9999628331425975e-05,-1.9023419876401904e-05,3.90382382467384e-05
4.41015625,5.5636000737010774e-05,2.976301803158619e-05,-1.5118063996337817e-05,5.8076848162050824e-05
4.4140625,6.640624000000002e-05,1.2188916571297797e-05,-1.072453863126572e-05,7.42169517601282e-05
4.41796875,5.954135661707486e-05,8.283560691233709e-06,3.401865841153599e-06,6.738257897001604e-05
4.421875,6.344671249713895e-05,1.8046950391393927e-05,-2.425657386129532e-06,6.0029526102082876e-05
4.42578125,6.738257897001604e-05,1.8535119876401938e-05,-1.121270811627373e-05,4.538444155184254e-05
4.4296875,7.90986466102083e-05,2.3416814726482047e-05,-5.354674296177598e-06,-2.425657386129532e-06
4.43359375,8.78856973403525e-05,1.8046950391393927e-05,-7.795521721217652e-06,-1.9023419876401904e-05
4.4375,9.179105322041659e-05,1.3165255541313818e-05,-2.683413163653008e-05,1.5117933481345863e-05
4.44140625,8.935020579537654e-05,1.0724408116273763e-05,-3.806202979171434e-05,4.538444155184254e-05
4.4453125,7.665779918516825e-05,2.292864524147404e-05,-3.2692165456626215e-05,3.562105185168232e-05
4.44921875,9.130288373540858e-05,3.806189927672238e-05,-2.2440606271457983e-05,4.866374296177632e-06
4.453125,0.00010350712086060884,4.1479085671778456e-05,-1.7070741936369862e-05,1.0236238631265752e-05
4.45703125,9.520823961547266e-05,2.488132318150608e-05,-3.1715826486610186e-05,3.171569597161824e-05
4.4609375,0.00010887698519569697,7.307221721217687e-06,-3.9038368761730354e-05,8.283560691233709e-06
4.46484375,0.00012645108665598537,1.9999628331425975e-05,-3.610935185168229e-05,-1.609440296635384e-05
4.46875,0.00012352206974593728,4.050274670176243e-05,-1.8535250391393893e-05,1.937357386129566e-06
4.47265625,9.813725652552073e-05,4.4896272066834534e-05,1.4491879011215552e-06,3.890035326161609e-06
4.4765625,8.83738668253605e-05,2.7322170606546137e-05,-1.121270811627373e-05,1.937357386129566e-06
4.48046875,9.911359549553675e-05,1.4141594511329842e-05,-2.9274979061570133e-05,2.5369492666514095e-05
4.484375,0.00010399529034561686,1.951145884641796e-05,-1.5118063996337817e-05,3.4156543396658294e-05
4.48828125,0.00012986827305104144,2.7810340091554148e-05,-1.5320553902477717e-08,2.3904984211490058e-05
4.4921875,0.0001274274256260014,2.976301803158619e-05,-7.795521721217652e-06,1.2677086056305808e-05
4.49609375,0.00011522318850080111,2.9274848546578178e-05,-2.2928775756465994e-05,7.795391206225697e-06
4.5,0.00010497162931563287,2.0487797816433986e-05,-2.9763148546578148e-05,8.77173017624172e-06
4.50390625,7.958681609521631e-05,1.8535119876401938e-05,-1.804708090638588e-05,1.2677086056305808e-05
4.5078125,7.568146021515222e-05,3.4156543396658294e-05,-1.2677216571297761e-05,1.902328936140995e-05
4.51171875,0.00010253078189059284,4.391993309681851e-05,-9.260030176241686e-06,3.401865841153599e-06
4.515625,0.00010985332416571298,2.7322170606546137e-05,-6.3310132661936195e-06,-1.4141725026321795e-05
4.51953125,8.83738668253605e-05,1.6582441936369896e-05,-1.755891142137787e-05,1.5606102966353874e-05
4.5234375,8.446851094529643e-05,1.6094272451361885e-05,-2.5857792666514058e-05,2.3904984211490058e-05
4.52734375,9.374373116044863e-05,2.7810340091554148e-05,-1.4629894511329806e-05,1.6582441936369896e-05
4.53125,8.105132455024035e-05,4.391993309681851e-05,-2.425657386129532e-06,2.0975967301441994e-05
4.53515625,7.177610433508813e-05,3.90382382467384e-05,-2.425657386129532e-06,2.3904984211490058e-05
4.5390625,8.251583300526438e-05,1.3165255541313818e-05,-1.4141725026321795e-05,4.294359412680248e-05
4.54296875,7.079976536507211e-05,3.890035326161609e-06,-2.9763148546578148e-05,4.831345846189061e-05
4.546875,4.880162794689862e-05,2.7322170606546137e-05,-1.5118063996337817e-05,3.0739357001602215e-05
4.55078125,3.952640773174641e-05,4.636078052185856e-05,1.5606102966353874e-05,2.1952306271458016e-05
4.5546875,4.684895000686658e-05,1.902328936140995e-05,-2.9138268711375426e-06,3.220386545662624e-05
4.55859375,6.640624000000002e-05,-6.819182751201631e-06,-1.951158936140992e-05,2.976301803158619e-05
4.5625,7.861047712520029e-05,-5.354674296177598e-06,-1.8535250391393893e-05,2.1952306271458016e-05
4.56640625,8.251583300526438e-05,4.378204811169621e-06,-2.2928775756465994e-05,1.6094272451361885e-05
4.5703125,8.251583300526438e-05,2.0975967301441994e-05,-1.44931841611351e-06,1.5606102966353874e-05
4.57421875,7.275244330510416e-05,2.3904984211490058e-05,6.819052236209676e-06,2.7810340091554148e-05
4.578125,5.2218814341954696e-05,1.0236238631265752e-05,-4.866504811169587e-06,2.9274848546578178e-05
4.58203125,4.977796691691464e-05,3.890035326161609e-06,-4.72979446097488e-07,2.7810340091554148e-05
4.5859375,5.124247537193867e-05,1.8046950391393927e-05,-2.097609781643395e-05,4.684895000686658e-05
4.58984375,6.051769558709088e-05,3.7573729791714366e-05,-1.560623348134583e-05,6.051769558709088e-05
4.59375,8.007498558022432e-05,2.3416814726482047e-05,6.819052236209676e-06,5.319515331197072e-05
4.59765625,7.763413815518427e-05,2.4255268711375773e-06,3.401865841153599e-06,3.5132882366674316e-05
4.6015625,6.835891794003205e-05,-3.890165841153565e-06,-1.9023419876401904e-05,2.292864524147404e-05
4.60546875,6.0029526102082876e-05,9.748069146257742e-06,-3.073948751659417e-05,3.0251187516594204e-05
4.609375,4.9289797431906635e-05,2.488132318150608e-05,1.937357386129566e-06,4.1479085671778456e-05
4.61328125,6.10058650720989e-05,1.6582441936369896e-05,1.1700747086289786e-05,4.538444155184254e-05
4.6171875,8.153949403524835e-05,-7.795521721217652e-06,-1.170087760128174e-05,4.1479085671778456e-05
4.62109375,8.153949403524835e-05,-2.2928775756465994e-05,-3.464484339665826e-05,3.1227526486610226e-05
4.625,7.568146021515222e-05,-1.5118063996337817e-05,-5.124260588693063e-05,2.5369492666514095e-05
4.62890625,7.714596867017625e-05,-1.658257245136185e-05,-5.8076978677042786e-05,2.6834001121538125e-05
4.6328125,7.958681609521631e-05,-3.122765700160218e-05,-6.247050404211488e-05,2.829850957656216e-05
4.63671875,8.935020579537654e-05,-5.85651481620508e-05,-8.056328558022428e-05,2.6345831636530114e-05
4.640625,8.935020579537654e-05,-0.00010545992931563284,-0.00012205769180590522,3.1227526486610226e-05
4.64453125,7.372878227512018e-05,-0.00011424698004577704,-0.00014939518296635385,3.1227526486610226e-05
4.6484375,6.295854301213094e-05,-0.0001030190818905928,-0.0001435371491462577,2.0975967301441994e-05
4.65234375,7.714596867017625e-05,-0.00014109630172121765,-0.00016941013185168226,1.8046950391393927e-05
4.65625,8.349217197528039e-05,-0.00021825759094529638,-0.00023046182807049667,1.6582441936369896e-05
