TimeStamp,Delta_TP9,Delta_AF7,Delta_AF8,Delta_TP10,Theta_TP9,Theta_AF7,Theta_AF8,Theta_TP10,Alpha_TP9,Alpha_AF7,Alpha_AF8,Alpha_TP10,Beta_TP9,Beta_AF7,Beta_AF8,Beta_TP10,Gamma_TP9,Gamma_AF7,Gamma_AF8,Gamma_TP10,RAW_TP9,RAW_AF7,RAW_AF8,RAW_TP10,AUX_RIGHT,Accelerometer_X,Accelerometer_Y,Accelerometer_Z,Gyro_X,Gyro_Y,Gyro_Z,HeadBandOn,HSI_TP9,HSI_AF7,HSI_AF8,HSI_TP10,Battery,Elements
2023-09-09 14:15:24.869,0.0,1.0457221,0.90311366,0.8888042,0.0,0.22368205,0.27601954,0.37233007,0.0,0.23170148,0.19868043,0.4799082,0.0,0.111275055,0.10969812,0.58167344,0.0,-0.4770072,-0.40824872,0.13490808,804.2491,799.011,830.4396,807.8755,956.1539,0.36480712890625,0.0213623046875,0.92413330078125,4.673004150390625,-3.42437744140625,-0.530853271484375,1.0,1.0,1.0,1.0,1.0,20.0,
2023-09-09 14:15:24.907,0.0,1.0457221,0.90311366,0.8888042,0.0,0.22368205,0.27601954,0.37233007,0.0,0.23170148,0.19868043,0.4799082,0.0,0.111275055,0.10969812,0.58167344,0.0,-0.4770072,-0.40824872,0.13490808,781.685,782.8938,817.9487,802.23444,859.85345,0.36370849609375,0.0150146484375,0.92529296875,4.5758056640625,-3.401947021484375,-0.829925537109375,1.0,1.0,1.0,1.0,1.0,20.0,
2023-09-09 14:15:24.913,0.0,1.0377914,0.8812705,0.88004285,0.0,0.23412684,0.26178375,0.3126635,0.0,0.23170148,0.20231824,0.5140531,0.0,0.10742962,0.08028599,0.55492353,0.0,-0.49546012,-0.4272421,0.13062322,833.663,784.5055,815.9341,792.96704,857.4359,0.36370849609375,0.0150146484375,0.92529296875,4.5758056640625,-3.401947021484375,-0.829925537109375,1.0,1.0,1.0,1.0,1.0,20.0,
2023-09-09 14:15:24.916,0.0,1.0377914,0.8812705,0.88004285,0.0,0.23412684,0.26178375,0.3126635,0.0,0.23170148,0.20231824,0.5140531,0.0,0.10742962,0.08028599,0.55492353,0.0,-0.49546012,-0.4272421,0.13062322,828.4249,781.685,815.9341,792.96704,836.08057,0.36456298828125,0.016357421875,0.91595458984375,5.016937255859375,-2.37762451171875,-1.06170654296875,1.0,1.0,1.0,1.0,1.0,20.0,
2023-09-09 14:15:24.963,0.0,1.0377914,0.8812705,0.88004285,0.0,0.23412684,0.26178375,0.3126635,0.0,0.23170148,0.20231824,0.5140531,0.0,0.10742962,0.08028599,0.55492353,0.0,-0.49546012,-0.4272421,0.13062322,714.3956,785.31134,820.3663,782.8938,730.5128,0.367431640625,0.0203857421875,0.92266845703125,4.732818603515625,-3.940277099609375,-0.94207763671875,1.0,1.0,1.0,1.0,1.0,20.0,
2023-09-09 14:15:25.025,0.0,1.0377914,0.8812705,0.88004285,0.0,0.23412684,0.26178375,0.3126635,0.0,0.23170148,0.20231824,0.5140531,0.0,0.10742962,0.08028599,0.55492353,0.0,-0.49546012,-0.4272421,0.13062322,711.1722,773.22345,819.9634,785.7143,548.3883,0.368896484375,0.0211181640625,0.92083740234375,5.0543212890625,-2.691650390625,-0.560760498046875,1.0,1.0,1.0,1.0,1.0,20.0,
2023-09-09 14:15:25.026,0.0,1.0528988,0.8552394,0.8606098,0.0,0.24541132,0.2561104,0.25671846,0.0,0.23348977,0.20231824,0.542955,0.0,0.10052502,0.05707843,0.5427835,0.0,-0.5045925,-0.4403042,0.11985379,721.2454,780.4762,818.7546,793.36993,794.9817,0.368896484375,0.0211181640625,0.92083740234375,5.0543212890625,-2.691650390625,-0.560760498046875,1.0,1.0,1.0,1.0,1.0,20.0,
2023-09-09 14:15:25.109,0.0,1.0528988,0.8552394,0.8606098,0.0,0.24541132,0.2561104,0.25671846,0.0,0.23348977,0.20231824,0.542955,0.0,0.10052502,0.05707843,0.5427835,0.0,-0.5045925,-0.4403042,0.11985379,747.8388,782.49084,827.2161,792.5641,744.21246,0.36566162109375,0.01800537109375,0.92510986328125,4.605712890625,-3.1402587890625,-0.657958984375,1.0,1.0,1.0,1.0,1.0,20.0,
2023-09-09 14:15:25.111,0.0,1.0617378,0.82874763,0.83157563,0.0,0.2771612,0.26043254,0.21333303,0.0,0.23348977,0.20014793,0.5842707,0.0,0.086554855,0.03782621,0.54861224,0.0,-0.5151372,-0.44918856,0.10309872,792.5641,788.5348,819.9634,799.011,808.68134,0.36566162109375,0.01800537109375,0.92510986328125,4.605712890625,-3.1402587890625,-0.657958984375,1.0,1.0,1.0,1.0,1.0,20.0,
2023-09-09 14:15:25.145,0.0,1.0617378,0.82874763,0.83157563,0.0,0.2771612,0.26043254,0.21333303,0.0,0.23348977,0.20014793,0.5842707,0.0,0.086554855,0.03782621,0.54861224,0.0,-0.5151372,-0.44918856,0.10309872,816.337,785.7143,822.7839,791.75824,681.3553,0.36962890625,0.0194091796875,0.91864013671875,4.80010986328125,-2.811279296875,-0.605621337890625,1.0,1.0,1.0,1.0,1.0,20.0,
2023-09-09 14:15:25.177,0.0,1.0617378,0.82874763,0.83157563,0.0,0.2771612,0.26043254,0.21333303,0.0,0.23348977,0.20014793,0.5842707,0.0,0.086554855,0.03782621,0.54861224,0.0,-0.5151372,-0.44918856,0.10309872,834.4689,792.96704,815.9341,793.36993,902.1612,0.36676025390625,0.020263671875,0.9254150390625,5.001983642578125,-2.579498291015625,-0.16448974609375,1.0,1.0,1.0,1.0,1.0,20.0,
2023-09-09 14:15:25.179,0.0,1.059593,0.8074524,0.8017185,0.0,0.31876922,0.265596,0.18580955,0.0,0.23348977,0.18392783,0.6324749,0.0,0.067337565,0.019452956,0.56642395,0.0,-0.5281163,-0.45843324,0.08232657,860.2564,795.38464,821.1722,802.23444,981.9414,0.36676025390625,0.020263671875,0.9254150390625,5.001983642578125,-2.579498291015625,-0.16448974609375,1.0,1.0,1.0,1.0,1.0,20.0,
2023-09-09 14:15:25.242,0.0,1.059593,0.8074524,0.8017185,0.0,0.31876922,0.265596,0.18580955,0.0,0.23348977,0.18392783,0.6324749,0.0,0.067337565,0.019452956,0.56642395,0.0,-0.5281163,-0.45843324,0.08232657,830.4396,794.17584,828.022,809.4872,668.46155,0.36505126953125,0.02154541015625,0.9244384765625,4.687957763671875,-3.42437744140625,-0.49346923828125,1.0,1.0,1.0,1.0,1.0,20.0,
2023-09-09 14:15:25.312,0.0,1.059593,0.8074524,0.8017185,0.0,0.31876922,0.265596,0.18580955,0.0,0.23348977,0.18392783,0.6324749,0.0,0.067337565,0.019452956,0.56642395,0.0,-0.5281163,-0.45843324,0.08232657,792.96704,787.326,820.3663,805.4579,763.95605,0.368408203125,0.0206298828125,0.91729736328125,4.6954345703125,-3.1103515625,-0.64300537109375,1.0,1.0,1.0,1.0,1.0,20.0,
2023-09-09 14:15:25.316,0.0,1.0526589,0.784937,0.78459007,0.0,0.34976634,0.25887227,0.17097552,0.0,0.23690079,0.15284707,0.6446893,0.0,0.048554156,0.00087101484,0.58344996,0.0,-0.5399278,-0.46775988,0.06119717,882.8205,791.75824,825.6044,791.3553,1164.4689,0.368408203125,0.0206298828125,0.91729736328125,4.6954345703125,-3.1103515625,-0.64300537109375,1.0,1.0,1.0,1.0,1.0,20.0,
2023-09-09 14:15:25.413,0.0,1.0526589,0.784937,0.78459007,0.0,0.34976634,0.25887227,0.17097552,0.0,0.23690079,0.15284707,0.6446893,0.0,0.048554156,0.00087101484,0.58344996,0.0,-0.5399278,-0.46775988,0.06119717,848.97437,799.011,821.5751,792.1612,668.86444,0.36456298828125,0.0213623046875,0.9208984375,5.091705322265625,-2.99072265625,-0.321502685546875,1.0,1.0,1.0,1.0,1.0,20.0,
2023-09-09 14:15:25.418,0.0,1.0467703,0.7564956,0.77495396,0.0,0.36009318,0.22934002,0.16728212,0.0,0.23993842,0.12680614,0.6446893,0.0,0.034106016,-0.013826201,0.58960164,0.0,-0.5481197,-0.47467744,0.0463694,841.31866,792.1612,821.5751,801.02563,927.9487,0.36456298828125,0.0213623046875,0.9208984375,5.091705322265625,-2.99072265625,-0.321502685546875,1.0,1.0,1.0,1.0,1.0,20.0,
2023-09-09 14:15:25.474,0.0,1.0467703,0.7564956,0.77495396,0.0,0.36009318,0.22934002,0.16728212,0.0,0.23993842,0.12680614,0.6446893,0.0,0.034106016,-0.013826201,0.58960164,0.0,-0.5481197,-0.47467744,0.0463694,828.4249,792.1612,818.7546,787.326,637.4359,0.36932373046875,0.0162353515625,0.92010498046875,4.957122802734375,-2.983245849609375,-0.456085205078125,1.0,1.0,1.0,1.0,1.0,20.0,
2023-09-09 14:15:25.524,0.0,1.0467703,0.7564956,0.77495396,0.0,0.36009318,0.22934002,0.16728212,0.0,0.23993842,0.12680614,0.6446893,0.0,0.034106016,-0.013826201,0.58960164,0.0,-0.5481197,-0.47467744,0.0463694,714.3956,786.1172,820.3663,792.5641,871.53845,0.36859130859375,0.01617431640625,0.9259033203125,4.553375244140625,-3.267364501953125,-0.6878662109375,1.0,1.0,1.0,1.0,1.0,20.0,
2023-09-09 14:15:25.530,0.0,1.0417376,0.7153791,0.765317,0.0,0.3561126,0.17782985,0.18475036,0.0,0.23993842,0.12680614,0.6446893,0.0,0.023186749,-0.020646209,0.582731,0.0,-0.5556019,-0.47890776,0.04316493,727.28937,794.17584,811.50183,792.5641,755.89746,0.36859130859375,0.01617431640625,0.9259033203125,4.553375244140625,-3.267364501953125,-0.6878662109375,1.0,1.0,1.0,1.0,1.0,20.0,
2023-09-09 14:15:25.585,0.0,1.0417376,0.7153791,0.765317,0.0,0.3561126,0.17782985,0.18475036,0.0,0.23993842,0.12680614,0.6446893,0.0,0.023186749,-0.020646209,0.582731,0.0,-0.5556019,-0.47890776,0.04316493,723.2601,790.9524,811.0989,780.87915,713.1868,0.36761474609375,0.01934814453125,0.91925048828125,4.613189697265625,-2.75146484375,-0.538330078125,1.0,1.0,1.0,1.0,1.0,20.0,
2023-09-09 14:15:25.626,0.0,1.0417376,0.7153791,0.765317,0.0,0.3561126,0.17782985,0.18475036,0.0,0.23993842,0.12680614,0.6446893,0.0,0.023186749,-0.020646209,0.582731,0.0,-0.5556019,-0.47890776,0.04316493,701.9048,785.31134,799.81683,785.31134,877.5824,0.36846923828125,0.0189208984375,0.92254638671875,4.306640625,-2.624359130859375,-1.15142822265625,1.0,1.0,1.0,1.0,1.0,20.0,
2023-09-09 14:15:25.628,0.0,1.0387964,0.6638673,0.7556201,0.0,0.35133237,0.12108067,0.22969274,0.0,0.1511906,0.12680614,0.6446893,0.0,0.0044721444,-0.022000492,0.5679881,0.0,-0.57832104,-0.48109958,0.048798416,697.0696,780.07324,800.6227,780.07324,659.59705,0.36846923828125,0.0189208984375,0.92254638671875,4.306640625,-2.624359130859375,-1.15142822265625,1.0,1.0,1.0,1.0,1.0,20.0,
2023-09-09 14:15:25.678,0.0,1.0387964,0.6638673,0.7556201,0.0,0.35133237,0.12108067,0.22969274,0.0,0.1511906,0.12680614,0.6446893,0.0,0.0044721444,-0.022000492,0.5679881,0.0,-0.57832104,-0.48109958,0.048798416,560.07324,785.31134,814.3223,791.75824,657.98535,0.3734130859375,0.02166748046875,0.919921875,4.344024658203125,-2.938385009765625,-0.91217041015625,1.0,1.0,1.0,1.0,1.0,20.0,
2023-09-09 14:15:25.750,0.0,1.0387964,0.6638673,0.7556201,0.0,0.35133237,0.12108067,0.22969274,0.0,0.1511906,0.12680614,0.6446893,0.0,0.0044721444,-0.022000492,0.5679881,0.0,-0.57832104,-0.48109958,0.048798416,624.94507,785.31134,822.381,800.6227,710.7692,0.3680419921875,0.015869140625,0.9156494140625,4.53094482421875,-2.52716064453125,-0.91217041015625,1.0,1.0,1.0,1.0,1.0,20.0,
2023-09-09 14:15:25.753,0.0,1.012311,0.6189324,0.750363,0.0,0.36669663,0.08137188,0.2877488,0.0,0.13381507,0.12680614,0.6798788,0.0,-0.014078472,-0.025529642,0.552181,0.0,-0.61209315,-0.48103213,0.053967588,638.24176,789.7436,826.8132,805.4579,691.8315,0.3680419921875,0.015869140625,0.9156494140625,4.53094482421875,-2.52716064453125,-0.91217041015625,1.0,1.0,1.0,1.0,1.0,20.0,
2023-09-09 14:15:25.791,0.0,1.012311,0.6189324,0.750363,0.0,0.36669663,0.08137188,0.2877488,0.0,0.13381507,0.12680614,0.6798788,0.0,-0.014078472,-0.025529642,0.552181,0.0,-0.61209315,-0.48103213,0.053967588,660.40295,791.75824,828.4249,803.0403,795.38464,0.369873046875,0.01495361328125,0.91998291015625,4.85992431640625,-2.930908203125,-1.009368896484375,1.0,1.0,1.0,1.0,1.0,20.0,
2023-09-09 14:15:25.833,0.0,1.012311,0.6189324,0.750363,0.0,0.36669663,0.08137188,0.2877488,0.0,0.13381507,0.12680614,0.6798788,0.0,-0.014078472,-0.025529642,0.552181,0.0,-0.61209315,-0.48103213,0.053967588,652.3443,802.23444,837.28937,805.4579,547.98535,0.37506103515625,0.0233154296875,0.9166259765625,5.0244140625,-3.327178955078125,-0.37384033203125,1.0,1.0,1.0,1.0,1.0,20.0,
2023-09-09 14:15:25.837,0.0,1.0016766,0.61426854,0.74874973,0.0,0.36376134,0.06749313,0.33768803,0.0,0.13800885,0.12680614,0.7503919,0.0,-0.020106532,-0.03574698,0.5389593,0.0,-0.6004945,-0.4808898,0.052673202,658.3883,799.81683,826.8132,800.2198,796.1905,0.37506103515625,0.0233154296875,0.9166259765625,5.0244140625,-3.327178955078125,-0.37384033203125,1.0,1.0,1.0,1.0,1.0,20.0,
2023-09-09 14:15:25.924,0.0,1.0016766,0.61426854,0.74874973,0.0,0.36376134,0.06749313,0.33768803,0.0,0.13800885,0.12680614,0.7503919,0.0,-0.020106532,-0.03574698,0.5389593,0.0,-0.6004945,-0.4808898,0.052673202,646.30035,812.3077,815.5311,823.1868,933.1868,0.3656005859375,0.0211181640625,0.9232177734375,5.0244140625,-2.953338623046875,-0.5084228515625,1.0,1.0,1.0,1.0,1.0,20.0,
2023-09-09 14:15:25.927,0.0,0.98682314,0.6603408,0.7592813,0.0,0.35860032,0.0740404,0.35432062,0.0,0.13924867,0.11211264,0.76981944,0.0,-0.026604965,-0.049418233,0.5186635,0.0,-0.5757223,-0.4849491,0.03444042,655.9707,817.9487,816.337,807.8755,681.3553,0.3656005859375,0.0211181640625,0.9232177734375,5.0244140625,-2.953338623046875,-0.5084228515625,1.0,1.0,1.0,1.0,1.0,20.0,
2023-09-09 14:15:25.974,0.0,0.98682314,0.6603408,0.7592813,0.0,0.35860032,0.0740404,0.35432062,0.0,0.13924867,0.11211264,0.76981944,0.0,-0.026604965,-0.049418233,0.5186635,0.0,-0.5757223,-0.4849491,0.03444042,637.03296,803.44324,811.0989,771.6117,745.42126,0.37322998046875,0.0169677734375,0.925537109375,4.568328857421875,-2.97576904296875,-0.88226318359375,1.0,1.0,1.0,1.0,1.0,20.0,
2023-09-09 14:15:26.012,0.0,0.98682314,0.6603408,0.7592813,0.0,0.35860032,0.0740404,0.35432062,0.0,0.13924867,0.11211264,0.76981944,0.0,-0.026604965,-0.049418233,0.5186635,0.0,-0.5757223,-0.4849491,0.03444042,705.9341,804.2491,814.7253,803.0403,937.619,0.36920166015625,0.02056884765625,0.91815185546875,4.822540283203125,-2.40753173828125,-0.4486083984375,1.0,1.0,1.0,1.0,1.0,20.0,
2023-09-09 14:15:26.025,0.0,0.98169136,0.7243222,0.7754872,0.0,0.34706184,0.08490183,0.36018947,0.0,0.13924867,0.046519384,0.7736319,0.0,-0.03497653,-0.059128113,0.49831942,0.0,-0.5509635,-0.49540627,0.02124674,732.1245,788.5348,820.3663,800.2198,653.5531,0.36920166015625,0.02056884765625,0.91815185546875,4.822540283203125,-2.40753173828125,-0.4486083984375,1.0,1.0,1.0,1.0,1.0,20.0,
2023-09-09 14:15:26.057,0.0,0.98169136,0.7243222,0.7754872,0.0,0.34706184,0.08490183,0.36018947,0.0,0.13924867,0.046519384,0.7736319,0.0,-0.03497653,-0.059128113,0.49831942,0.0,-0.5509635,-0.49540627,0.02124674,737.76556,780.07324,810.293,793.36993,860.2564,0.37066650390625,0.0162353515625,0.9197998046875,4.66552734375,-2.848663330078125,-0.665435791015625,1.0,1.0,1.0,1.0,1.0,20.0,
2023-09-09 14:15:26.108,0.0,0.9928758,0.7700145,0.79192257,0.0,0.32877013,0.093843706,0.36447525,0.0,0.13924867,-0.0715641,0.7736319,0.0,-0.043933973,-0.058215164,0.48193526,0.0,-0.5368821,-0.50628185,0.01612928,784.90845,809.89014,819.15753,814.7253,1074.2124,0.37066650390625,0.0162353515625,0.9197998046875,4.66552734375,-2.848663330078125,-0.665435791015625,1.0,1.0,1.0,1.0,1.0,20.0,
2023-09-09 14:15:26.137,0.0,0.9928758,0.7700145,0.79192257,0.0,0.32877013,0.093843706,0.36447525,0.0,0.13924867,-0.0715641,0.7736319,0.0,-0.043933973,-0.058215164,0.48193526,0.0,-0.5368821,-0.50628185,0.01612928,785.7143,803.8461,815.9341,800.2198,789.7436,0.3719482421875,0.0174560546875,0.9183349609375,4.844970703125,-2.998199462890625,-0.8673095703125,1.0,1.0,1.0,1.0,1.0,20.0,
2023-09-09 14:15:26.169,0.0,0.9928758,0.7700145,0.79192257,0.0,0.32877013,0.093843706,0.36447525,0.0,0.13924867,-0.0715641,0.7736319,0.0,-0.043933973,-0.058215164,0.48193526,0.0,-0.5368821,-0.50628185,0.01612928,792.1612,807.8755,812.71063,805.8608,657.98535,0.37640380859375,0.01861572265625,0.92315673828125,4.127197265625,-3.170166015625,-0.538330078125,1.0,1.0,1.0,1.0,1.0,20.0,
2023-09-09 14:15:26.242,0.0,0.9928758,0.7700145,0.79192257,0.0,0.32877013,0.093843706,0.36447525,0.0,0.13924867,-0.0715641,0.7736319,0.0,-0.043933973,-0.058215164,0.48193526,0.0,-0.5368821,-0.50628185,0.01612928,751.06226,799.81683,813.1135,801.4286,650.32965,0.37158203125,0.0162353515625,0.9200439453125,4.972076416015625,-3.050537109375,-0.76263427734375,1.0,1.0,1.0,1.0,1.0,20.0,
2023-09-09 14:15:26.243,0.0,1.0126784,0.7897588,0.8041977,0.0,0.31711978,0.10086032,0.3810118,0.0,0.12504512,-0.14908187,0.7817371,0.0,-0.063689254,-0.04613141,0.47662517,0.0,-0.53257936,-0.5078311,0.019817526,756.30035,805.05493,813.5165,811.0989,1106.4469,0.37158203125,0.0162353515625,0.9200439453125,4.972076416015625,-3.050537109375,-0.76263427734375,1.0,1.0,1.0,1.0,1.0,20.0,
2023-09-09 14:15:26.287,0.0,1.0126784,0.7897588,0.8041977,0.0,0.31711978,0.10086032,0.3810118,0.0,0.12504512,-0.14908187,0.7817371,0.0,-0.063689254,-0.04613141,0.47662517,0.0,-0.53257936,-0.5078311,0.019817526,759.12085,802.23444,802.6374,795.38464,882.01465,0.3751220703125,0.0194091796875,0.922607421875,5.121612548828125,-2.4224853515625,-0.88226318359375,1.0,1.0,1.0,1.0,1.0,20.0,
2023-09-09 14:15:26.330,0.0,1.0126784,0.7897588,0.8041977,0.0,0.31711978,0.10086032,0.3810118,0.0,0.12504512,-0.14908187,0.7817371,0.0,-0.063689254,-0.04613141,0.47662517,0.0,-0.53257936,-0.5078311,0.019817526,808.68134,798.60803,799.81683,773.22345,754.68866,0.37548828125,0.02081298828125,0.92010498046875,4.50103759765625,-2.938385009765625,-0.605621337890625,1.0,1.0,1.0,1.0,1.0,20.0,
2023-09-09 14:15:26.332,0.0,1.0399464,0.7908122,0.80991423,0.0,0.31713784,0.09978155,0.41106367,0.0,0.14168489,-0.12891626,0.8236589,0.0,-0.07813295,-0.030112717,0.48482573,0.0,-0.5309757,-0.49794236,0.031742107,807.8755,782.8938,791.75824,779.2674,867.1062,0.37548828125,0.02081298828125,0.92010498046875,4.50103759765625,-2.938385009765625,-0.605621337890625,1.0,1.0,1.0,1.0,1.0,20.0,
2023-09-09 14:15:26.409,0.0,1.0399464,0.7908122,0.80991423,0.0,0.31713784,0.09978155,0.41106367,0.0,0.14168489,-0.12891626,0.8236589,0.0,-0.07813295,-0.030112717,0.48482573,0.0,-0.5309757,-0.49794236,0.031742107,646.30035,784.10254,812.71063,808.68134,933.5897,0.37445068359375,0.01904296875,0.91998291015625,5.0244140625,-2.88604736328125,-0.2691650390625,1.0,1.0,1.0,1.0,1.0,20.0,
2023-09-09 14:15:26.413,0.0,1.0551723,0.7858163,0.8116574,0.0,0.34296826,0.08607896,0.44796866,0.0,0.16574544,-0.094890125,0.84101754,0.0,-0.08627004,-0.018402774,0.49866286,0.0,-0.5292749,-0.48456982,0.04870223,666.04395,796.1905,813.1135,801.4286,817.9487,0.37445068359375,0.01904296875,0.91998291015625,5.0244140625,-2.88604736328125,-0.2691650390625,1.0,1.0,1.0,1.0,1.0,20.0,
2023-09-09 14:15:26.452,0.0,1.0551723,0.7858163,0.8116574,0.0,0.34296826,0.08607896,0.44796866,0.0,0.16574544,-0.094890125,0.84101754,0.0,-0.08627004,-0.018402774,0.49866286,0.0,-0.5292749,-0.48456982,0.04870223,642.674,799.81683,811.50183,799.41394,682.1612,0.36993408203125,0.01861572265625,0.9189453125,4.583282470703125,-3.18511962890625,-0.43365478515625,1.0,1.0,1.0,1.0,1.0,20.0,
2023-09-09 14:15:26.508,0.0,1.0551723,0.7858163,0.8116574,0.0,0.34296826,0.08607896,0.44796866,0.0,0.16574544,-0.094890125,0.84101754,0.0,-0.08627004,-0.018402774,0.49866286,0.0,-0.5292749,-0.48456982,0.04870223,677.326,809.0842,813.1135,788.5348,608.4249,0.3753662109375,0.0223388671875,0.91656494140625,4.687957763671875,-3.57391357421875,-1.0467529296875,1.0,1.0,1.0,1.0,1.0,20.0,
2023-09-09 14:15:26.513,0.0,1.0540739,0.78489995,0.8190417,0.0,0.38280168,0.061615802,0.48469204,0.0,0.21358757,-0.039869327,0.84361416,0.0,-0.088835195,-0.016190186,0.5055587,0.0,-0.5223245,-0.47691602,0.06488996,694.65204,810.696,822.7839,802.23444,887.25275,0.3753662109375,0.0223388671875,0.91656494140625,4.687957763671875,-3.57391357421875,-1.0467529296875,1.0,1.0,1.0,1.0,1.0,20.0,
2023-09-09 14:15:26.548,0.0,1.0540739,0.78489995,0.8190417,0.0,0.38280168,0.061615802,0.48469204,0.0,0.21358757,-0.039869327,0.84361416,0.0,-0.088835195,-0.016190186,0.5055587,0.0,-0.5223245,-0.47691602,0.06488996,713.9927,811.50183,813.91943,807.0696,811.0989,0.36968994140625,0.01983642578125,0.92266845703125,4.643096923828125,-3.2000732421875,-0.426177978515625,1.0,1.0,1.0,1.0,1.0,20.0,
2023-09-09 14:15:26.608,0.0,1.0540739,0.78489995,0.8190417,0.0,0.38280168,0.061615802,0.48469204,0.0,0.21358757,-0.039869327,0.84361416,0.0,-0.088835195,-0.016190186,0.5055587,0.0,-0.5223245,-0.47691602,0.06488996,697.47253,818.7546,819.15753,803.0403,682.96704,0.3780517578125,0.01531982421875,0.91424560546875,4.314117431640625,-3.5589599609375,-0.11962890625,1.0,1.0,1.0,1.0,1.0,20.0,
2023-09-09 14:15:26.613,0.0,1.0502297,0.7981682,0.84249914,0.0,0.40690503,0.043125365,0.5274114,0.0,0.22357228,0.047024332,0.84361416,0.0,-0.08196286,-0.022747729,0.497597,0.0,-0.50599295,-0.47671184,0.077863716,736.9597,815.12823,817.1429,811.0989,1035.9341,0.3780517578125,0.01531982421875,0.91424560546875,4.314117431640625,-3.5589599609375,-0.11962890625,1.0,1.0,1.0,1.0,1.0,20.0,
2023-09-09 14:15:26.710,0.0,1.0502297,0.7981682,0.84249914,0.0,0.40690503,0.043125365,0.5274114,0.0,0.22357228,0.047024332,0.84361416,0.0,-0.08196286,-0.022747729,0.497597,0.0,-0.50599295,-0.47671184,0.077863716,749.0476,817.9487,811.50183,808.68134,1133.0403,0.3760986328125,0.01788330078125,0.9154052734375,4.844970703125,-2.930908203125,-0.59814453125,1.0,1.0,1.0,1.0,1.0,20.0,
2023-09-09 14:15:26.717,0.0,1.0578549,0.8239023,0.87777704,0.0,0.4076682,0.044780474,0.5830796,0.0,0.22192338,0.11540742,0.84361416,0.0,-0.06530731,-0.03278807,0.47644553,0.0,-0.48286965,-0.47777644,0.0888271,762.74725,815.12823,813.1135,803.8461,886.8498,0.3760986328125,0.01788330078125,0.9154052734375,4.844970703125,-2.930908203125,-0.59814453125,1.0,1.0,1.0,1.0,1.0,20.0,
2023-09-09 14:15:26.752,0.0,1.0578549,0.8239023,0.87777704,0.0,0.4076682,0.044780474,0.5830796,0.0,0.22192338,0.11540742,0.84361416,0.0,-0.06530731,-0.03278807,0.47644553,0.0,-0.48286965,-0.47777644,0.0888271,756.30035,816.7399,810.696,796.99634,890.4762,0.37542724609375,0.01934814453125,0.9146728515625,4.658050537109375,-3.12530517578125,-0.478515625,1.0,1.0,1.0,1.0,1.0,20.0,
2023-09-09 14:15:26.786,0.0,1.0578549,0.8239023,0.87777704,0.0,0.4076682,0.044780474,0.5830796,0.0,0.22192338,0.11540742,0.84361416,0.0,-0.06530731,-0.03278807,0.47644553,0.0,-0.48286965,-0.47777644,0.0888271,762.74725,815.12823,806.6667,804.65204,1178.1685,0.38067626953125,0.02313232421875,0.91424560546875,4.90478515625,-3.1402587890625,-0.530853271484375,1.0,1.0,1.0,1.0,1.0,20.0,
2023-09-09 14:15:26.855,0.0,1.0578549,0.8239023,0.87777704,0.0,0.4076682,0.044780474,0.5830796,0.0,0.22192338,0.11540742,0.84361416,0.0,-0.06530731,-0.03278807,0.47644553,0.0,-0.48286965,-0.47777644,0.0888271,784.90845,805.4579,809.89014,819.5604,801.4286,0.375244140625,0.0205078125,0.91473388671875,4.777679443359375,-3.611297607421875,-0.35888671875,1.0,1.0,1.0,1.0,1.0,20.0,
2023-09-09 14:15:26.856,0.0,1.0801848,0.84806335,0.90504634,0.0,0.3929572,0.061333004,0.6439152,0.0,0.20790642,0.18719041,0.8262081,0.0,-0.045027293,-0.038670722,0.4507607,0.0,-0.46166334,-0.47400168,0.0985314,783.69965,804.65204,815.12823,809.0842,689.011,0.375244140625,0.0205078125,0.91473388671875,4.777679443359375,-3.611297607421875,-0.35888671875,1.0,1.0,1.0,1.0,1.0,20.0,
2023-09-09 14:15:26.978,0.0,1.0801848,0.84806335,0.90504634,0.0,0.3929572,0.061333004,0.6439152,0.0,0.20790642,0.18719041,0.8262081,0.0,-0.045027293,-0.038670722,0.4507607,0.0,-0.46166334,-0.47400168,0.0985314,772.8205,803.44324,811.50183,803.0403,786.9231,0.3790283203125,0.0167236328125,0.921630859375,4.38140869140625,-3.132781982421875,-0.725250244140625,1.0,1.0,1.0,1.0,1.0,20.0,
2023-09-09 14:15:26.981,0.0,1.1049995,0.865793,0.9174022,0.0,0.37961623,0.07561871,0.69274926,0.0,0.20790642,0.2539032,0.80698967,0.0,-0.028473463,-0.036722966,0.42853087,0.0,-0.44850263,-0.46366474,0.1036786,749.0476,805.4579,813.5165,799.41394,628.5714,0.3790283203125,0.0167236328125,0.921630859375,4.38140869140625,-3.132781982421875,-0.725250244140625,1.0,1.0,1.0,1.0,1.0,20.0,
2023-09-09 14:15:27.019,0.0,1.1049995,0.865793,0.9174022,0.0,0.37961623,0.07561871,0.69274926,0.0,0.20790642,0.2539032,0.80698967,0.0,-0.028473463,-0.036722966,0.42853087,0.0,-0.44850263,-0.46366474,0.1036786,738.1685,799.81683,807.47253,796.5934,780.4762,0.3846435546875,0.01373291015625,0.9127197265625,4.628143310546875,-2.85614013671875,-0.695343017578125,1.0,1.0,1.0,1.0,1.0,20.0,
2023-09-09 14:15:27.036,0.0,1.1049995,0.865793,0.9174022,0.0,0.37961623,0.07561871,0.69274926,0.0,0.20790642,0.2539032,0.80698967,0.0,-0.028473463,-0.036722966,0.42853087,0.0,-0.44850263,-0.46366474,0.1036786,844.1392,793.36993,802.6374,793.36993,603.5897,0.3768310546875,0.02056884765625,0.92230224609375,4.65057373046875,-3.416900634765625,-0.299072265625,1.0,1.0,1.0,1.0,1.0,20.0,
2023-09-09 14:15:27.040,0.0,1.1267807,0.87684655,0.9183532,0.0,0.37086487,0.07916688,0.7188595,0.0,0.20790642,0.278556,0.80698967,0.0,-0.017796315,-0.028835649,0.41293457,0.0,-0.4424087,-0.44917384,0.101630054,844.94507,789.7436,809.89014,802.6374,656.77655,0.3768310546875,0.02056884765625,0.92230224609375,4.65057373046875,-3.416900634765625,-0.299072265625,1.0,1.0,1.0,1.0,1.0,20.0,
2023-09-09 14:15:27.071,0.0,1.1267807,0.87684655,0.9183532,0.0,0.37086487,0.07916688,0.7188595,0.0,0.20790642,0.278556,0.80698967,0.0,-0.017796315,-0.028835649,0.41293457,0.0,-0.4424087,-0.44917384,0.101630054,865.4945,786.52014,811.50183,813.5165,1131.4286,0.38177490234375,0.017822265625,0.9132080078125,4.777679443359375,-3.170166015625,-0.844879150390625,1.0,1.0,1.0,1.0,1.0,20.0,
2023-09-09 14:15:27.143,0.0,1.1267807,0.87684655,0.9183532,0.0,0.37086487,0.07916688,0.7188595,0.0,0.20790642,0.278556,0.80698967,0.0,-0.017796315,-0.028835649,0.41293457,0.0,-0.4424087,-0.44917384,0.101630054,861.06226,798.20514,814.7253,803.0403,734.5421,0.3775634765625,0.0140380859375,0.91644287109375,4.77020263671875,-2.788848876953125,-0.8074951171875,1.0,1.0,1.0,1.0,1.0,20.0,
2023-09-09 14:15:27.151,0.0,1.14445,0.8802863,0.9129808,0.0,0.3617932,0.077437036,0.72377545,0.0,0.20790642,0.28518215,0.80698967,0.0,-0.011402091,-0.01953399,0.4019552,0.0,-0.4397666,-0.4357652,0.09548939,863.0769,792.1612,817.1429,805.05493,892.8938,0.3775634765625,0.0140380859375,0.91644287109375,4.77020263671875,-2.788848876953125,-0.8074951171875,1.0,1.0,1.0,1.0,1.0,20.0,
2023-09-09 14:15:27.223,0.0,1.14445,0.8802863,0.9129808,0.0,0.3617932,0.077437036,0.72377545,0.0,0.20790642,0.28518215,0.80698967,0.0,-0.011402091,-0.01953399,0.4019552,0.0,-0.4397666,-0.4357652,0.09548939,827.2161,800.2198,813.91943,806.6667,799.81683,0.37982177734375,0.017333984375,0.9151611328125,5.21881103515625,-3.940277099609375,-0.471038818359375,1.0,1.0,1.0,1.0,1.0,20.0,
2023-09-09 14:15:27.229,0.0,1.1616325,0.8756881,0.90512866,0.0,0.34865722,0.07795998,0.7162615,0.0,0.20790642,0.290043,0.80698967,0.0,-0.0064693214,-0.011528592,0.39206493,0.0,-0.44158402,-0.42927372,0.09180179,726.4835,802.6374,813.1135,804.2491,680.14655,0.37982177734375,0.017333984375,0.9151611328125,5.21881103515625,-3.940277099609375,-0.471038818359375,1.0,1.0,1.0,1.0,1.0,20.0,
2023-09-09 14:15:27.293,0.0,1.1616325,0.8756881,0.90512866,0.0,0.34865722,0.07795998,0.7162615,0.0,0.20790642,0.290043,0.80698967,0.0,-0.0064693214,-0.011528592,0.39206493,0.0,-0.44158402,-0.42927372,0.09180179,738.5714,806.26373,812.3077,796.1905,662.01465,0.3798828125,0.02105712890625,0.91864013671875,5.57769775390625,-3.3197021484375,0.1495361328125,1.0,1.0,1.0,1.0,1.0,20.0,
2023-09-09 14:15:27.332,0.0,1.1616325,0.8756881,0.90512866,0.0,0.34865722,0.07795998,0.7162615,0.0,0.20790642,0.290043,0.80698967,0.0,-0.0064693214,-0.011528592,0.39206493,0.0,-0.44158402,-0.42927372,0.09180179,816.7399,807.8755,794.17584,796.1905,553.22345,0.3831787109375,0.01556396484375,0.9171142578125,4.628143310546875,-3.910369873046875,-0.650482177734375,1.0,1.0,1.0,1.0,1.0,20.0,
2023-09-09 14:15:27.339,0.0,1.1767756,0.8604323,0.89586955,0.0,0.3499534,0.08055059,0.7045265,0.0,0.20790642,0.3005669,0.80698967,0.0,-0.00092400314,-0.0041492,0.38141415,0.0,-0.43832743,-0.43230465,0.09329962,774.0293,806.6667,807.8755,807.8755,755.09155,0.3831787109375,0.01556396484375,0.9171142578125,4.628143310546875,-3.910369873046875,-0.650482177734375,1.0,1.0,1.0,1.0,1.0,20.0,
2023-09-09 14:15:27.367,0.0,1.1767756,0.8604323,0.89586955,0.0,0.3499534,0.08055059,0.7045265,0.0,0.20790642,0.3005669,0.80698967,0.0,-0.00092400314,-0.0041492,0.38141415,0.0,-0.43832743,-0.43230465,0.09329962,774.0293,809.4872,809.4872,814.3223,916.6667,0.3841552734375,0.01690673828125,0.91363525390625,4.44122314453125,-2.684173583984375,-1.413116455078125,1.0,1.0,1.0,1.0,1.0,20.0,
2023-09-09 14:15:27.436,0.0,1.1767756,0.8604323,0.89586955,0.0,0.3499534,0.08055059,0.7045265,0.0,0.20790642,0.3005669,0.80698967,0.0,-0.00092400314,-0.0041492,0.38141415,0.0,-0.43832743,-0.43230465,0.09329962,722.0513,806.6667,813.1135,804.65204,803.8461,0.38616943359375,0.0164794921875,0.909912109375,4.957122802734375,-3.06549072265625,-0.934600830078125,1.0,1.0,1.0,1.0,1.0,20.0,
2023-09-09 14:15:27.439,0.0,1.197133,0.8277427,0.8811583,0.0,0.3541501,0.080012545,0.6935587,0.0,0.20790642,0.312384,0.79070884,0.0,0.0066248365,0.0027717296,0.36950144,0.0,-0.44552523,-0.44174734,0.09637527,746.2271,807.8755,816.7399,812.71063,855.82416,0.38616943359375,0.0164794921875,0.909912109375,4.957122802734375,-3.06549072265625,-0.934600830078125,1.0,1.0,1.0,1.0,1.0,20.0,
2023-09-09 14:15:27.479,0.0,1.197133,0.8277427,0.8811583,0.0,0.3541501,0.080012545,0.6935587,0.0,0.20790642,0.312384,0.79070884,0.0,0.0066248365,0.0027717296,0.36950144,0.0,-0.44552523,-0.44174734,0.09637527,960.58606,794.17584,815.9341,799.011,769.59705,0.38177490234375,0.01507568359375,0.91326904296875,4.8150634765625,-3.207550048828125,-0.4486083984375,1.0,1.0,1.0,1.0,1.0,20.0,
2023-09-09 14:15:27.543,0.0,1.197133,0.8277427,0.8811583,0.0,0.3541501,0.080012545,0.6935587,0.0,0.20790642,0.312384,0.79070884,0.0,0.0066248365,0.0027717296,0.36950144,0.0,-0.44552523,-0.44174734,0.09637527,960.989,806.26373,818.7546,804.2491,791.75824,0.38970947265625,0.01629638671875,0.9136962890625,4.85992431640625,-3.5589599609375,-0.500946044921875,1.0,1.0,1.0,1.0,1.0,20.0,
2023-09-09 14:15:27.545,0.0,1.2034754,0.7755273,0.852682,0.0,0.34511918,0.07834036,0.68350285,0.0,0.21739064,0.3266278,0.7840011,0.0,0.029282352,0.0075079114,0.3587682,0.0,-0.46848738,-0.4507408,0.09511749,972.27106,809.4872,809.89014,800.2198,904.57874,0.38970947265625,0.01629638671875,0.9136962890625,4.85992431640625,-3.5589599609375,-0.500946044921875,1.0,1.0,1.0,1.0,1.0,20.0,
2023-09-09 14:15:27.587,0.0,1.2034754,0.7755273,0.852682,0.0,0.34511918,0.07834036,0.68350285,0.0,0.21739064,0.3266278,0.7840011,0.0,0.029282352,0.0075079114,0.3587682,0.0,-0.46848738,-0.4507408,0.09511749,926.337,803.8461,810.293,768.3883,685.38464,0.38812255859375,0.01702880859375,0.91021728515625,4.6356201171875,-3.69354248046875,0.261688232421875,1.0,1.0,1.0,1.0,1.0,20.0,
2023-09-09 14:15:27.618,0.0,1.2034754,0.7755273,0.852682,0.0,0.34511918,0.07834036,0.68350285,0.0,0.21739064,0.3266278,0.7840011,0.0,0.029282352,0.0075079114,0.3587682,0.0,-0.46848738,-0.4507408,0.09511749,919.89014,803.8461,801.4286,790.9524,771.6117,0.38238525390625,0.01959228515625,0.90576171875,5.48797607421875,-3.51409912109375,-0.157012939453125,1.0,1.0,1.0,1.0,1.0,20.0,
2023-09-09 14:15:27.621,0.0,1.1904637,0.7150648,0.8103286,0.0,0.34121233,0.08042403,0.672113,0.0,0.21739064,0.34660497,0.7840011,0.0,0.06033926,0.00676453,0.35096097,0.0,-0.4749925,-0.45686603,0.08646447,913.8461,800.6227,804.65204,792.1612,888.46155,0.38238525390625,0.01959228515625,0.90576171875,5.48797607421875,-3.51409912109375,-0.157012939453125,1.0,1.0,1.0,1.0,1.0,20.0,
2023-09-09 14:15:27.765,0.0,1.1904637,0.7150648,0.8103286,0.0,0.34121233,0.08042403,0.672113,0.0,0.21739064,0.34660497,0.7840011,0.0,0.06033926,0.00676453,0.35096097,0.0,-0.4749925,-0.45686603,0.08646447,906.1905,796.99634,802.23444,793.7729,769.59705,0.39154052734375,0.02032470703125,0.920166015625,5.375823974609375,-3.63372802734375,-0.007476806640625,1.0,1.0,1.0,1.0,1.0,20.0,
2023-09-09 14:15:27.770,0.0,1.1595798,0.6627308,0.77038515,0.0,0.3359235,0.08643811,0.656532,0.0,0.21856505,0.36561316,0.7908715,0.0,0.08930416,-0.0019367551,0.34425768,0.0,-0.46203533,-0.4638358,0.07130965,884.83514,794.17584,801.02563,784.10254,813.5165,0.39154052734375,0.02032470703125,0.920166015625,5.375823974609375,-3.63372802734375,-0.007476806640625,1.0,1.0,1.0,1.0,1.0,20.0,
2023-09-09 14:15:27.813,0.0,1.1595798,0.6627308,0.77038515,0.0,0.3359235,0.08643811,0.656532,0.0,0.21856505,0.36561316,0.7908715,0.0,0.08930416,-0.0019367551,0.34425768,0.0,-0.46203533,-0.4638358,0.07130965,882.4176,801.02563,805.4579,805.4579,963.8095,0.39385986328125,0.01959228515625,0.91204833984375,4.762725830078125,-3.476715087890625,0.231781005859375,1.0,1.0,1.0,1.0,1.0,20.0,
2023-09-09 14:15:27.823,0.0,1.1595798,0.6627308,0.77038515,0.0,0.3359235,0.08643811,0.656532,0.0,0.21856505,0.36561316,0.7908715,0.0,0.08930416,-0.0019367551,0.34425768,0.0,-0.46203533,-0.4638358,0.07130965,859.85345,808.68134,804.65204,801.4286,739.3773,0.39508056640625,0.01763916015625,0.9088134765625,5.60760498046875,-3.0804443359375,-0.022430419921875,1.0,1.0,1.0,1.0,1.0,20.0,
2023-09-09 14:15:27.829,0.0,1.1226476,0.6313098,0.7497691,0.0,0.3133168,0.09148364,0.6622335,0.0,0.22710583,0.3773592,0.7855849,0.0,0.10646315,-0.017853733,0.32565695,0.0,-0.44210827,-0.47287476,0.054871723,842.9304,811.0989,809.0842,796.5934,750.2564,0.39508056640625,0.01763916015625,0.9088134765625,5.60760498046875,-3.0804443359375,-0.022430419921875,1.0,1.0,1.0,1.0,1.0,20.0,
2023-09-09 14:15:27.865,0.0,1.1226476,0.6313098,0.7497691,0.0,0.3133168,0.09148364,0.6622335,0.0,0.22710583,0.3773592,0.7855849,0.0,0.10646315,-0.017853733,0.32565695,0.0,-0.44210827,-0.47287476,0.054871723,848.97437,811.50183,810.293,807.0696,825.2015,0.39056396484375,0.0206298828125,0.91448974609375,5.001983642578125,-3.36456298828125,-0.201873779296875,1.0,1.0,1.0,1.0,1.0,20.0,
2023-09-09 14:15:27.934,0.0,1.0845618,0.62810427,0.7402593,0.0,0.25850418,0.08794423,0.6667535,0.0,0.23037495,0.37845665,0.7283693,0.0,0.10885564,-0.036916774,0.29602456,0.0,-0.42949557,-0.47903994,0.03090671,830.0366,811.9048,809.0842,800.6227,629.7802,0.39056396484375,0.0206298828125,0.91448974609375,5.001983642578125,-3.36456298828125,-0.201873779296875,1.0,1.0,1.0,1.0,1.0,20.0,
2023-09-09 14:15:27.970,0.0,1.0845618,0.62810427,0.7402593,0.0,0.25850418,0.08794423,0.6667535,0.0,0.23037495,0.37845665,0.7283693,0.0,0.10885564,-0.036916774,0.29602456,0.0,-0.42949557,-0.47903994,0.03090671,838.49817,814.7253,805.8608,805.4579,565.7143,0.3887939453125,0.021484375,0.910400390625,4.912261962890625,-3.117828369140625,-0.61309814453125,1.0,1.0,1.0,1.0,1.0,20.0,
2023-09-09 14:15:28.007,0.0,1.0845618,0.62810427,0.7402593,0.0,0.25850418,0.08794423,0.6667535,0.0,0.23037495,0.37845665,0.7283693,0.0,0.10885564,-0.036916774,0.29602456,0.0,-0.42949557,-0.47903994,0.03090671,856.63007,814.3223,809.89014,799.81683,774.43225,0.392333984375,0.01788330078125,0.91644287109375,4.66552734375,-3.81317138671875,-0.179443359375,1.0,1.0,1.0,1.0,1.0,20.0,
2023-09-09 14:15:28.067,0.0,1.0845618,0.62810427,0.7402593,0.0,0.25850418,0.08794423,0.6667535,0.0,0.23037495,0.37845665,0.7283693,0.0,0.10885564,-0.036916774,0.29602456,0.0,-0.42949557,-0.47903994,0.03090671,829.2308,828.4249,815.5311,802.23444,679.7436,0.391845703125,0.0189208984375,0.90863037109375,4.403839111328125,-3.15521240234375,-0.40374755859375,1.0,1.0,1.0,1.0,1.0,20.0,
2023-09-09 14:15:28.068,0.0,1.057064,0.64795727,0.7307367,0.0,0.17011823,0.07434847,0.6715093,0.0,0.21320395,0.37845665,0.632624,0.0,0.100972354,-0.053906105,0.26420942,0.0,-0.43075716,-0.47619894,0.0072610476,817.9487,823.1868,811.0989,801.4286,633.00366,0.391845703125,0.0189208984375,0.90863037109375,4.403839111328125,-3.15521240234375,-0.40374755859375,1.0,1.0,1.0,1.0,1.0,20.0,
2023-09-09 14:15:28.124,0.0,1.057064,0.64795727,0.7307367,0.0,0.17011823,0.07434847,0.6715093,0.0,0.21320395,0.37845665,0.632624,0.0,0.100972354,-0.053906105,0.26420942,0.0,-0.43075716,-0.47619894,0.0072610476,793.7729,822.381,813.1135,801.02563,663.6264,0.3968505859375,0.017333984375,0.90850830078125,4.553375244140625,-2.87109375,-0.829925537109375,1.0,1.0,1.0,1.0,1.0,20.0,
2023-09-09 14:15:28.164,0.0,1.057064,0.64795727,0.7307367,0.0,0.17011823,0.07434847,0.6715093,0.0,0.21320395,0.37845665,0.632624,0.0,0.100972354,-0.053906105,0.26420942,0.0,-0.43075716,-0.47619894,0.0072610476,799.81683,820.3663,817.1429,807.8755,872.3443,0.39483642578125,0.0174560546875,0.91131591796875,4.673004150390625,-3.289794921875,-0.186920166015625,1.0,1.0,1.0,1.0,1.0,20.0,
2023-09-09 14:15:28.167,0.0,1.0475188,0.6660942,0.70339936,0.0,0.07569423,0.047052275,0.6675205,0.0,0.1947747,0.37845665,0.57943875,0.0,0.08744229,-0.06533483,0.23861597,0.0,-0.445058,-0.46544102,-0.009769062,809.0842,824.7985,811.9048,814.7253,572.5641,0.39483642578125,0.0174560546875,0.91131591796875,4.673004150390625,-3.289794921875,-0.186920166015625,1.0,1.0,1.0,1.0,1.0,20.0,
2023-09-09 14:15:28.262,0.0,1.0475188,0.6660942,0.70339936,0.0,0.07569423,0.047052275,0.6675205,0.0,0.1947747,0.37845665,0.57943875,0.0,0.08744229,-0.06533483,0.23861597,0.0,-0.445058,-0.46544102,-0.009769062,789.34064,796.5934,812.3077,805.8608,597.5458,0.39337158203125,0.02001953125,0.90582275390625,4.344024658203125,-3.22998046875,-0.904693603515625,1.0,1.0,1.0,1.0,1.0,20.0,
2023-09-09 14:15:28.267,0.0,1.0418845,0.6671102,0.64348793,0.0,0.008818731,0.0070781484,0.6386614,0.0,0.18325354,0.37845665,0.5367563,0.0,0.06979095,-0.072655685,0.2155827,0.0,-0.46546924,-0.4536206,-0.019471174,780.87915,792.96704,822.381,801.4286,721.2454,0.39337158203125,0.02001953125,0.90582275390625,4.344024658203125,-3.22998046875,-0.904693603515625,1.0,1.0,1.0,1.0,1.0,20.0,
2023-09-09 14:15:28.301,0.0,1.0418845,0.6671102,0.64348793,0.0,0.008818731,0.0070781484,0.6386614,0.0,0.18325354,0.37845665,0.5367563,0.0,0.06979095,-0.072655685,0.2155827,0.0,-0.46546924,-0.4536206,-0.019471174,789.34064,786.52014,813.1135,802.6374,872.3443,0.39544677734375,0.017333984375,0.91229248046875,4.5758056640625,-3.45428466796875,-0.8673095703125,1.0,1.0,1.0,1.0,1.0,20.0,
2023-09-09 14:15:28.357,0.0,1.0418845,0.6671102,0.64348793,0.0,0.008818731,0.0070781484,0.6386614,0.0,0.18325354,0.37845665,0.5367563,0.0,0.06979095,-0.072655685,0.2155827,0.0,-0.46546924,-0.4536206,-0.019471174,794.57874,786.52014,813.1135,800.6227,693.0403,0.3955078125,0.01605224609375,0.90850830078125,4.299163818359375,-3.252410888671875,-0.336456298828125,1.0,1.0,1.0,1.0,1.0,20.0,
2023-09-09 14:15:28.362,0.0,1.0328252,0.65802956,0.5614012,0.0,-0.013961888,-0.034117922,0.575474,0.0,0.20423354,0.35741252,0.49177235,0.0,0.048246887,-0.08197972,0.18720466,0.0,-0.48054227,-0.445561,-0.024263877,770.40295,770.80585,800.6227,796.5934,1109.6703,0.3955078125,0.01605224609375,0.90850830078125,4.299163818359375,-3.252410888671875,-0.336456298828125,1.0,1.0,1.0,1.0,1.0,20.0,
2023-09-09 14:15:28.392,0.0,1.0328252,0.65802956,0.5614012,0.0,-0.013961888,-0.034117922,0.575474,0.0,0.20423354,0.35741252,0.49177235,0.0,0.048246887,-0.08197972,0.18720466,0.0,-0.48054227,-0.445561,-0.024263877,785.7143,785.7143,814.3223,799.81683,728.49817,0.38995361328125,0.01776123046875,0.9091796875,4.373931884765625,-3.0804443359375,-0.695343017578125,1.0,1.0,1.0,1.0,1.0,20.0,
2023-09-09 14:15:28.447,0.0,1.0328252,0.65802956,0.5614012,0.0,-0.013961888,-0.034117922,0.575474,0.0,0.20423354,0.35741252,0.49177235,0.0,0.048246887,-0.08197972,0.18720466,0.0,-0.48054227,-0.445561,-0.024263877,810.696,804.2491,801.02563,793.36993,779.67035,0.40155029296875,0.02105712890625,0.91107177734375,5.15899658203125,-3.93280029296875,-0.426177978515625,1.0,1.0,1.0,1.0,1.0,20.0,
2023-09-09 14:15:28.454,0.0,1.0363475,0.64519054,0.4893288,0.0,-0.012514039,-0.059098464,0.48881343,0.0,0.24230888,0.36664423,0.46018207,0.0,0.025917988,-0.09830441,0.15872124,0.0,-0.4841806,-0.44264963,-0.02454777,819.9634,790.9524,799.41394,792.1612,839.304,0.40155029296875,0.02105712890625,0.91107177734375,5.15899658203125,-3.93280029296875,-0.426177978515625,1.0,1.0,1.0,1.0,1.0,20.0,
2023-09-09 14:15:28.561,0.0,1.0363475,0.64519054,0.4893288,0.0,-0.012514039,-0.059098464,0.48881343,0.0,0.24230888,0.36664423,0.46018207,0.0,0.025917988,-0.09830441,0.15872124,0.0,-0.4841806,-0.44264963,-0.02454777,855.0183,790.54944,805.05493,791.3553,709.15753,0.40216064453125,0.0140380859375,0.90643310546875,4.41131591796875,-3.22998046875,-0.76263427734375,1.0,1.0,1.0,1.0,1.0,20.0,
2023-09-09 14:15:28.576,0.0,1.0639527,0.64018387,0.45647067,0.0,0.0045933407,-0.06255884,0.40726513,0.0,0.30421922,0.390379,0.43873546,0.0,0.008908109,-0.12069246,0.1458647,0.0,-0.47937074,-0.4439628,-0.02322732,834.0659,809.4872,811.9048,796.99634,867.9121,0.40216064453125,0.0140380859375,0.90643310546875,4.41131591796875,-3.22998046875,-0.76263427734375,1.0,1.0,1.0,1.0,1.0,20.0,
2023-09-09 14:15:28.606,0.0,1.0639527,0.64018387,0.45647067,0.0,0.0045933407,-0.06255884,0.40726513,0.0,0.30421922,0.390379,0.43873546,0.0,0.008908109,-0.12069246,0.1458647,0.0,-0.47937074,-0.4439628,-0.02322732,831.6484,810.293,814.7253,798.60803,929.9634,0.39862060546875,0.01556396484375,0.91009521484375,4.822540283203125,-3.282318115234375,-0.4486083984375,1.0,1.0,1.0,1.0,1.0,20.0,
2023-09-09 14:15:28.621,0.0,1.0639527,0.64018387,0.45647067,0.0,0.0045933407,-0.06255884,0.40726513,0.0,0.30421922,0.390379,0.43873546,0.0,0.008908109,-0.12069246,0.1458647,0.0,-0.47937074,-0.4439628,-0.02322732,827.2161,814.7253,818.3516,799.81683,687.8022,0.39910888671875,0.0146484375,0.90802001953125,4.643096923828125,-3.15521240234375,-0.186920166015625,1.0,1.0,1.0,1.0,1.0,20.0,
2023-09-09 14:15:28.668,0.0,1.0639527,0.64018387,0.45647067,0.0,0.0045933407,-0.06255884,0.40726513,0.0,0.30421922,0.390379,0.43873546,0.0,0.008908109,-0.12069246,0.1458647,0.0,-0.47937074,-0.4439628,-0.02322732,815.9341,815.5311,807.8755,802.23444,871.9414,0.3956298828125,0.0164794921875,0.9090576171875,5.031890869140625,-2.452392578125,-0.19439697265625,1.0,1.0,1.0,1.0,1.0,20.0,
2023-09-09 14:15:28.669,0.0,1.1057086,0.64272994,0.46239132,0.0,0.05278346,-0.05851406,0.34527487,0.0,0.3697756,0.40690196,0.41763458,0.0,0.0007661488,-0.14048953,0.15620966,0.0,-0.4728388,-0.44412214,-0.029218031,814.7253,813.5165,805.05493,795.38464,812.71063,0.3956298828125,0.0164794921875,0.9090576171875,5.031890869140625,-2.452392578125,-0.19439697265625,1.0,1.0,1.0,1.0,1.0,20.0,
2023-09-09 14:15:28.773,0.0,1.1057086,0.64272994,0.46239132,0.0,0.05278346,-0.05851406,0.34527487,0.0,0.3697756,0.40690196,0.41763458,0.0,0.0007661488,-0.14048953,0.15620966,0.0,-0.4728388,-0.44412214,-0.029218031,807.0696,809.4872,810.293,796.5934,553.22345,0.40167236328125,0.01708984375,0.9085693359375,4.6954345703125,-3.028106689453125,-0.112152099609375,1.0,1.0,1.0,1.0,1.0,20.0,
2023-09-09 14:15:28.775,0.0,1.1498233,0.6492418,0.48651776,0.0,0.1470923,-0.058403026,0.22177917,0.0,0.43033385,0.411673,0.47470054,0.0,0.00062772754,-0.15062548,0.18312791,0.0,-0.4675475,-0.43494362,-0.012656794,815.5311,812.3077,814.3223,809.4872,857.03296,0.40167236328125,0.01708984375,0.9085693359375,4.6954345703125,-3.028106689453125,-0.112152099609375,1.0,1.0,1.0,1.0,1.0,20.0,
2023-09-09 14:15:28.818,0.0,1.1498233,0.6492418,0.48651776,0.0,0.1470923,-0.058403026,0.22177917,0.0,0.43033385,0.411673,0.47470054,0.0,0.00062772754,-0.15062548,0.18312791,0.0,-0.4675475,-0.43494362,-0.012656794,828.022,801.02563,805.05493,810.293,689.41394,0.3974609375,0.01531982421875,0.90740966796875,5.263671875,-2.7215576171875,-0.067291259765625,1.0,1.0,1.0,1.0,1.0,20.0,
2023-09-09 14:15:28.863,0.0,1.1498233,0.6492418,0.48651776,0.0,0.1470923,-0.058403026,0.22177917,0.0,0.43033385,0.411673,0.47470054,0.0,0.00062772754,-0.15062548,0.18312791,0.0,-0.4675475,-0.43494362,-0.012656794,820.7692,809.0842,810.696,804.65204,839.304,0.39764404296875,0.016357421875,0.90570068359375,4.867401123046875,-2.64678955078125,-0.55328369140625,1.0,1.0,1.0,1.0,1.0,20.0,
2023-09-09 14:15:28.866,0.0,1.1834809,0.65441865,0.49986583,0.0,0.24861403,-0.0618568,0.08027395,0.0,0.45596227,0.406118,0.5038001,0.0,0.005668252,-0.15226866,0.21161042,0.0,-0.4779965,-0.41382354,0.007929558,807.8755,803.44324,812.3077,801.4286,854.61536,0.39764404296875,0.016357421875,0.90570068359375,4.867401123046875,-2.64678955078125,-0.55328369140625,1.0,1.0,1.0,1.0,1.0,20.0,
2023-09-09 14:15:28.907,0.0,1.1834809,0.65441865,0.49986583,0.0,0.24861403,-0.0618568,0.08027395,0.0,0.45596227,0.406118,0.5038001,0.0,0.005668252,-0.15226866,0.21161042,0.0,-0.4779965,-0.41382354,0.007929558,790.54944,803.0403,801.8315,801.8315,715.2015,0.40008544921875,0.01763916015625,0.9066162109375,4.508514404296875,-2.73651123046875,-0.49346923828125,1.0,1.0,1.0,1.0,1.0,20.0,
2023-09-09 14:15:28.954,0.0,1.1834809,0.65441865,0.49986583,0.0,0.24861403,-0.0618568,0.08027395,0.0,0.45596227,0.406118,0.5038001,0.0,0.005668252,-0.15226866,0.21161042,0.0,-0.4779965,-0.41382354,0.007929558,795.78754,806.6667,799.011,802.6374,966.2271,0.39971923828125,0.0179443359375,0.91082763671875,4.418792724609375,-3.087921142578125,-0.291595458984375,1.0,1.0,1.0,1.0,1.0,20.0,
2023-09-09 14:15:28.960,0.0,1.1957059,0.6519993,0.49339125,0.0,0.32499206,-0.060729597,-0.041881207,0.0,0.47586247,0.40382504,0.5229366,0.0,0.01298034,-0.15136269,0.2449145,0.0,-0.4884858,-0.38850114,0.03920407,792.96704,800.2198,803.8461,792.96704,900.14655,0.39971923828125,0.0179443359375,0.91082763671875,4.418792724609375,-3.087921142578125,-0.291595458984375,1.0,1.0,1.0,1.0,1.0,20.0,
2023-09-09 14:15:29.047,0.0,1.1957059,0.6519993,0.49339125,0.0,0.32499206,-0.060729597,-0.041881207,0.0,0.47586247,0.40382504,0.5229366,0.0,0.01298034,-0.15136269,0.2449145,0.0,-0.4884858,-0.38850114,0.03920407,799.81683,803.44324,805.8608,810.696,992.8205,0.3990478515625,0.01861572265625,0.90557861328125,4.553375244140625,-2.654266357421875,-0.216827392578125,1.0,1.0,1.0,1.0,1.0,20.0,
2023-09-09 14:15:29.058,0.0,1.2069459,0.6432043,0.4757565,0.0,0.38128248,-0.05718477,-0.06777795,0.0,0.4672132,0.40016606,0.54013,0.0,0.009332226,-0.15312348,0.28118593,0.0,-0.48543295,-0.3687878,0.08109956,790.14655,800.2198,801.8315,787.326,630.58606,0.3990478515625,0.01861572265625,0.90557861328125,4.553375244140625,-2.654266357421875,-0.216827392578125,1.0,1.0,1.0,1.0,1.0,20.0,
2023-09-09 14:15:29.110,0.0,1.2069459,0.6432043,0.4757565,0.0,0.38128248,-0.05718477,-0.06777795,0.0,0.4672132,0.40016606,0.54013,0.0,0.009332226,-0.15312348,0.28118593,0.0,-0.48543295,-0.3687878,0.08109956,794.57874,799.81683,797.3993,794.17584,759.5238,0.39605712890625,0.0128173828125,0.9063720703125,4.448699951171875,-2.639312744140625,-1.1663818359375,1.0,1.0,1.0,1.0,1.0,20.0,
2023-09-09 14:15:29.142,0.0,1.2069459,0.6432043,0.4757565,0.0,0.38128248,-0.05718477,-0.06777795,0.0,0.4672132,0.40016606,0.54013,0.0,0.009332226,-0.15312348,0.28118593,0.0,-0.48543295,-0.3687878,0.08109956,778.86444,794.57874,799.41394,791.3553,724.0659,0.40252685546875,0.0145263671875,0.91015625,4.71038818359375,-2.85614013671875,-0.7476806640625,1.0,1.0,1.0,1.0,1.0,20.0,
2023-09-09 14:15:29.149,0.0,1.2220787,0.63155967,0.4657616,0.0,0.4077928,-0.06287721,0.0006772898,0.0,0.44726676,0.38938993,0.55409217,0.0,-0.0029385001,-0.15761718,0.308998,0.0,-0.47718412,-0.3567903,0.12507522,780.87915,792.96704,796.99634,790.14655,588.2784,0.40252685546875,0.0145263671875,0.91015625,4.71038818359375,-2.85614013671875,-0.7476806640625,1.0,1.0,1.0,1.0,1.0,20.0,
2023-09-09 14:15:29.211,0.0,1.2220787,0.63155967,0.4657616,0.0,0.4077928,-0.06287721,0.0006772898,0.0,0.44726676,0.38938993,0.55409217,0.0,-0.0029385001,-0.15761718,0.308998,0.0,-0.47718412,-0.3567903,0.12507522,785.31134,791.75824,798.60803,787.72894,582.23444,0.40106201171875,0.01361083984375,0.89678955078125,4.643096923828125,-2.878570556640625,-0.478515625,1.0,1.0,1.0,1.0,1.0,20.0,
2023-09-09 14:15:29.291,0.0,1.2220787,0.63155967,0.4657616,0.0,0.4077928,-0.06287721,0.0006772898,0.0,0.44726676,0.38938993,0.55409217,0.0,-0.0029385001,-0.15761718,0.308998,0.0,-0.47718412,-0.3567903,0.12507522,807.8755,806.26373,818.7546,819.9634,742.1978,0.39593505859375,0.01177978515625,0.90643310546875,4.927215576171875,-2.385101318359375,-0.456085205078125,1.0,1.0,1.0,1.0,1.0,20.0,
2023-09-09 14:15:29.292,0.0,1.2344629,0.61678964,0.44032177,0.0,0.41789153,-0.08388072,0.09023085,0.0,0.4359914,0.36962524,0.5240709,0.0,-0.0154534625,-0.16181353,0.31287283,0.0,-0.45919847,-0.34821153,0.16127773,805.05493,807.47253,815.9341,817.5458,628.1685,0.39593505859375,0.01177978515625,0.90643310546875,4.927215576171875,-2.385101318359375,-0.456085205078125,1.0,1.0,1.0,1.0,1.0,20.0,
2023-09-09 14:15:29.333,0.0,1.2344629,0.61678964,0.44032177,0.0,0.41789153,-0.08388072,0.09023085,0.0,0.4359914,0.36962524,0.5240709,0.0,-0.0154534625,-0.16181353,0.31287283,0.0,-0.45919847,-0.34821153,0.16127773,818.7546,794.9817,811.9048,823.1868,919.4872,0.39959716796875,0.01348876953125,0.90985107421875,4.8748779296875,-3.237457275390625,-0.964508056640625,1.0,1.0,1.0,1.0,1.0,20.0,
2023-09-09 14:15:29.393,0.0,1.2344629,0.61678964,0.44032177,0.0,0.41789153,-0.08388072,0.09023085,0.0,0.4359914,0.36962524,0.5240709,0.0,-0.0154534625,-0.16181353,0.31287283,0.0,-0.45919847,-0.34821153,0.16127773,825.6044,796.5934,809.0842,816.7399,832.0513,0.39984130859375,0.014892578125,0.907958984375,4.8150634765625,-2.863616943359375,0.07476806640625,1.0,1.0,1.0,1.0,1.0,20.0,
2023-09-09 14:15:29.395,0.0,1.2401445,0.5990937,0.46368194,0.0,0.42049107,-0.11093212,0.14225316,0.0,0.43522394,0.3691928,0.524095,0.0,-0.017105866,-0.16103344,0.31427315,0.0,-0.43352488,-0.34157795,0.16536021,816.337,798.20514,807.8755,802.23444,589.89014,0.39984130859375,0.014892578125,0.907958984375,4.8150634765625,-2.863616943359375,0.07476806640625,1.0,1.0,1.0,1.0,1.0,20.0,
2023-09-09 14:15:29.430,0.0,1.2401445,0.5990937,0.46368194,0.0,0.42049107,-0.11093212,0.14225316,0.0,0.43522394,0.3691928,0.524095,0.0,-0.017105866,-0.16103344,0.31427315,0.0,-0.43352488,-0.34157795,0.16536021,811.0989,791.75824,807.0696,808.2784,714.3956,0.40118408203125,0.01385498046875,0.909423828125,4.6954345703125,-3.431854248046875,-0.55328369140625,1.0,1.0,1.0,1.0,1.0,20.0,
2023-09-09 14:15:29.487,0.0,1.2401445,0.5990937,0.46368194,0.0,0.42049107,-0.11093212,0.14225316,0.0,0.43522394,0.3691928,0.524095,0.0,-0.017105866,-0.16103344,0.31427315,0.0,-0.43352488,-0.34157795,0.16536021,814.7253,813.5165,808.68134,801.02563,641.4652,0.40191650390625,0.01690673828125,0.90606689453125,5.06927490234375,-2.88604736328125,-0.55328369140625,1.0,1.0,1.0,1.0,1.0,20.0,
2023-09-09 14:15:29.491,0.0,1.2430148,0.58237606,0.54590946,0.0,0.42162812,-0.12213107,0.1995857,0.0,0.43415406,0.36476365,0.524095,0.0,-0.0050580013,-0.1537693,0.3115073,0.0,-0.40857923,-0.3407056,0.1663371,800.6227,803.0403,811.9048,793.7729,727.28937,0.40191650390625,0.01690673828125,0.90606689453125,5.06927490234375,-2.88604736328125,-0.55328369140625,1.0,1.0,1.0,1.0,1.0,20.0,
2023-09-09 14:15:29.591,0.0,1.2430148,0.58237606,0.54590946,0.0,0.42162812,-0.12213107,0.1995857,0.0,0.43415406,0.36476365,0.524095,0.0,-0.0050580013,-0.1537693,0.3115073,0.0,-0.40857923,-0.3407056,0.1663371,790.9524,810.293,807.8755,792.5641,646.7033,0.40338134765625,0.0172119140625,0.90362548828125,4.6954345703125,-3.117828369140625,-0.299072265625,1.0,1.0,1.0,1.0,1.0,20.0,
2023-09-09 14:15:29.599,0.0,1.242465,0.5680774,0.6713738,0.0,0.42401263,-0.10553541,0.25665238,0.0,0.42928833,0.36476365,0.524095,0.0,0.012050341,-0.14354771,0.3064482,0.0,-0.39192563,-0.3488168,0.15954787,801.4286,811.50183,803.0403,794.57874,786.9231,0.40338134765625,0.0172119140625,0.90362548828125,4.6954345703125,-3.117828369140625,-0.299072265625,1.0,1.0,1.0,1.0,1.0,20.0,
2023-09-09 14:15:29.607,0.0,1.242465,0.5680774,0.6713738,0.0,0.42401263,-0.10553541,0.25665238,0.0,0.42928833,0.36476365,0.524095,0.0,0.012050341,-0.14354771,0.3064482,0.0,-0.39192563,-0.3488168,0.15954787,784.10254,807.47253,803.44324,791.3553,694.65204,0.40655517578125,0.01629638671875,0.90338134765625,5.00946044921875,-3.013153076171875,-0.411224365234375,1.0,1.0,1.0,1.0,1.0,20.0,
2023-09-09 14:15:29.646,0.0,1.242465,0.5680774,0.6713738,0.0,0.42401263,-0.10553541,0.25665238,0.0,0.42928833,0.36476365,0.524095,0.0,0.012050341,-0.14354771,0.3064482,0.0,-0.39192563,-0.3488168,0.15954787,779.67035,809.0842,818.7546,802.23444,830.84247,0.4080810546875,0.01806640625,0.90771484375,4.80010986328125,-3.22998046875,-0.186920166015625,1.0,1.0,1.0,1.0,1.0,20.0,
2023-09-09 14:15:29.652,0.0,1.2330358,0.5529738,0.6713738,0.0,0.42779115,-0.0722972,0.25665238,0.0,0.4204061,0.36476365,0.524095,0.0,0.02616707,-0.13516434,0.3064482,0.0,-0.38491443,-0.36352256,0.15954787,811.0989,808.2784,812.71063,811.50183,1006.1172,0.4080810546875,0.01806640625,0.90771484375,4.80010986328125,-3.22998046875,-0.186920166015625,1.0,1.0,1.0,1.0,1.0,20.0,
2023-09-09 14:15:29.716,0.0,1.2330358,0.5529738,0.6713738,0.0,0.42779115,-0.0722972,0.25665238,0.0,0.4204061,0.36476365,0.524095,0.0,0.02616707,-0.13516434,0.3064482,0.0,-0.38491443,-0.36352256,0.15954787,786.1172,807.8755,811.9048,807.0696,955.34796,0.4053955078125,0.01214599609375,0.90875244140625,4.583282470703125,-3.043060302734375,-0.351409912109375,1.0,1.0,1.0,1.0,1.0,20.0,
2023-09-09 14:15:29.763,0.0,1.216769,0.53794503,0.6713738,0.0,0.42865568,-0.03825943,0.25665238,0.0,0.42388013,0.36476365,0.524095,0.0,0.0351108,-0.12893257,0.3064482,0.0,-0.38404864,-0.37897408,0.15954787,783.2967,806.26373,800.6227,808.2784,1145.9341,0.4053955078125,0.01214599609375,0.90875244140625,4.583282470703125,-3.043060302734375,-0.351409912109375,1.0,1.0,1.0,1.0,1.0,20.0,
2023-09-09 14:15:29.810,0.0,1.216769,0.53794503,0.6713738,0.0,0.42865568,-0.03825943,0.25665238,0.0,0.42388013,0.36476365,0.524095,0.0,0.0351108,-0.12893257,0.3064482,0.0,-0.38404864,-0.37897408,0.15954787,772.4176,801.8315,795.38464,806.26373,1154.3956,0.40399169921875,0.01690673828125,0.90142822265625,4.538421630859375,-2.61688232421875,-0.725250244140625,1.0,1.0,1.0,1.0,1.0,20.0,
2023-09-09 14:15:29.866,0.0,1.216769,0.53794503,0.6713738,0.0,0.42865568,-0.03825943,0.25665238,0.0,0.42388013,0.36476365,0.524095,0.0,0.0351108,-0.12893257,0.3064482,0.0,-0.38404864,-0.37897408,0.15954787,780.07324,808.68134,803.0403,803.0403,634.21246,0.40435791015625,0.01605224609375,0.91180419921875,4.867401123046875,-2.998199462890625,-0.418701171875,1.0,1.0,1.0,1.0,1.0,20.0,
2023-09-09 14:15:29.912,0.0,1.216769,0.53794503,0.6713738,0.0,0.42865568,-0.03825943,0.25665238,0.0,0.42388013,0.36476365,0.524095,0.0,0.0351108,-0.12893257,0.3064482,0.0,-0.38404864,-0.37897408,0.15954787,805.4579,792.5641,807.0696,799.81683,713.5897,0.40765380859375,0.01629638671875,0.90240478515625,4.687957763671875,-2.923431396484375,-0.396270751953125,1.0,1.0,1.0,1.0,1.0,20.0,
2023-09-09 14:15:29.913,0.0,1.1942025,0.52409655,0.6713738,0.0,0.4240386,-0.010490181,0.25665238,0.0,0.42892838,0.36476365,0.524095,0.0,0.041255597,-0.11796168,0.3064482,0.0,-0.38276517,-0.3919495,0.15954787,811.0989,797.3993,806.26373,802.6374,822.381,0.40765380859375,0.01629638671875,0.90240478515625,4.687957763671875,-2.923431396484375,-0.396270751953125,1.0,1.0,1.0,1.0,1.0,20.0,
2023-09-09 14:15:29.952,0.0,1.1942025,0.52409655,0.6713738,0.0,0.4240386,-0.010490181,0.25665238,0.0,0.42892838,0.36476365,0.524095,0.0,0.041255597,-0.11796168,0.3064482,0.0,-0.38276517,-0.3919495,0.15954787,799.81683,803.44324,817.9487,802.6374,724.4689,0.40570068359375,0.0150146484375,0.90863037109375,4.358978271484375,-2.609405517578125,-0.58319091796875,1.0,1.0,1.0,1.0,1.0,20.0,
2023-09-09 14:15:29.985,0.0,1.1942025,0.52409655,0.6713738,0.0,0.4240386,-0.010490181,0.25665238,0.0,0.42892838,0.36476365,0.524095,0.0,0.041255597,-0.11796168,0.3064482,0.0,-0.38276517,-0.3919495,0.15954787,772.8205,813.91943,813.1135,801.4286,629.7802,0.403076171875,0.012451171875,0.9033203125,4.702911376953125,-2.85614013671875,-0.306549072265625,1.0,1.0,1.0,1.0,1.0,20.0,
2023-09-09 14:15:29.987,1.5130341,1.1607946,0.50787246,0.6713738,0.39613128,0.41515473,0.011775295,0.25665238,0.35891756,0.43213242,0.36390397,0.524095,0.2374844,0.047219977,-0.09591806,0.3064482,-0.13628203,-0.3754936,-0.40074006,0.15954787,781.28204,815.12823,811.0989,802.23444,830.84247,0.403076171875,0.012451171875,0.9033203125,4.702911376953125,-2.85614013671875,-0.306549072265625,1.0,1.0,1.0,1.0,1.0,20.0,
2023-09-09 14:15:30.066,1.5130341,1.1607946,0.50787246,0.6713738,0.39613128,0.41515473,0.011775295,0.25665238,0.35891756,0.43213242,0.36390397,0.524095,0.2374844,0.047219977,-0.09591806,0.3064482,-0.13628203,-0.3754936,-0.40074006,0.15954787,786.9231,815.9341,808.68134,803.44324,879.19415,0.40570068359375,0.01300048828125,0.90447998046875,5.031890869140625,-3.409423828125,-0.097198486328125,1.0,1.0,1.0,1.0,1.0,20.0,
2023-09-09 14:15:30.070,1.4859397,1.1081122,0.49002892,0.6872439,0.45817107,0.404595,0.036110654,0.25194335,0.45060807,0.4401601,0.35145065,0.524095,0.297241,0.054231327,-0.06645797,0.3298023,-0.081042506,-0.3627,-0.40393984,0.13634975,796.5934,803.8461,806.6667,801.4286,855.0183,0.40570068359375,0.01300048828125,0.90447998046875,5.031890869140625,-3.409423828125,-0.097198486328125,1.0,1.0,1.0,1.0,1.0,20.0,
2023-09-09 14:15:30.112,1.4859397,1.1081122,0.49002892,0.6872439,0.45817107,0.404595,0.036110654,0.25194335,0.45060807,0.4401601,0.35145065,0.524095,0.297241,0.054231327,-0.06645797,0.3298023,-0.081042506,-0.3627,-0.40393984,0.13634975,803.44324,803.44324,803.0403,788.93774,644.2857,0.40478515625,0.01116943359375,0.90625,4.403839111328125,-3.282318115234375,-0.46356201171875,1.0,1.0,1.0,1.0,1.0,20.0,
2023-09-09 14:15:30.146,1.4859397,1.1081122,0.49002892,0.6872439,0.45817107,0.404595,0.036110654,0.25194335,0.45060807,0.4401601,0.35145065,0.524095,0.297241,0.054231327,-0.06645797,0.3298023,-0.081042506,-0.3627,-0.40393984,0.13634975,794.17584,800.6227,805.05493,808.2784,996.04395,0.405517578125,0.0106201171875,0.9053955078125,4.807586669921875,-2.863616943359375,-0.59814453125,1.0,1.0,1.0,1.0,1.0,20.0,
2023-09-09 14:15:30.151,1.4457568,1.0360286,0.48216546,0.674425,0.54689616,0.3867661,0.066791415,0.24653782,0.55695224,0.45933175,0.33566073,0.524095,0.35932982,0.06153574,-0.042789772,0.35375315,-0.05375087,-0.34955755,-0.40424776,0.115226574,771.2088,797.8022,801.4286,804.2491,1007.72894,0.405517578125,0.0106201171875,0.9053955078125,4.807586669921875,-2.863616943359375,-0.59814453125,1.0,1.0,1.0,1.0,1.0,20.0,
2023-09-09 14:15:30.214,1.4457568,1.0360286,0.48216546,0.674425,0.54689616,0.3867661,0.066791415,0.24653782,0.55695224,0.45933175,0.33566073,0.524095,0.35932982,0.06153574,-0.042789772,0.35375315,-0.05375087,-0.34955755,-0.40424776,0.115226574,795.78754,807.0696,801.4286,816.337,724.4689,0.40924072265625,0.01092529296875,0.9031982421875,4.5758056640625,-3.013153076171875,-0.381317138671875,1.0,1.0,1.0,1.0,1.0,20.0,
2023-09-09 14:15:30.252,1.4457568,1.0360286,0.48216546,0.674425,0.54689616,0.3867661,0.066791415,0.24653782,0.55695224,0.45933175,0.33566073,0.524095,0.35932982,0.06153574,-0.042789772,0.35375315,-0.05375087,-0.34955755,-0.40424776,0.115226574,795.78754,806.6667,800.6227,797.3993,589.89014,0.4044189453125,0.0111083984375,0.900634765625,4.762725830078125,-2.97576904296875,-0.13458251953125,1.0,1.0,1.0,1.0,1.0,20.0,
2023-09-09 14:15:30.257,1.397683,0.9458327,0.483268,0.6586272,0.64961034,0.34728983,0.09855982,0.26771176,0.6616091,0.48458976,0.3263375,0.524095,0.4035581,0.066381164,-0.034080535,0.3810128,-0.046868037,-0.34066972,-0.408431,0.093701944,821.1722,810.293,808.68134,799.81683,758.315,0.4044189453125,0.0111083984375,0.900634765625,4.762725830078125,-2.97576904296875,-0.13458251953125,1.0,1.0,1.0,1.0,1.0,20.0,
2023-09-09 14:15:30.381,1.397683,0.9458327,0.483268,0.6586272,0.64961034,0.34728983,0.09855982,0.26771176,0.6616091,0.48458976,0.3263375,0.524095,0.4035581,0.066381164,-0.034080535,0.3810128,-0.046868037,-0.34066972,-0.408431,0.093701944,817.9487,810.293,811.9048,796.1905,692.6374,0.41046142578125,0.015869140625,0.90509033203125,4.74029541015625,-3.00567626953125,-0.560760498046875,1.0,1.0,1.0,1.0,1.0,20.0,
2023-09-09 14:15:30.389,1.3502902,0.854894,0.49015012,0.64256525,0.74609,0.27572942,0.12145317,0.283351,0.7831513,0.46398205,0.30162024,0.502053,0.42543808,0.06580883,-0.038949344,0.39302623,-0.04746015,-0.33639348,-0.42150566,0.072454706,811.9048,823.1868,804.65204,792.1612,557.25275,0.41046142578125,0.015869140625,0.90509033203125,4.74029541015625,-3.00567626953125,-0.560760498046875,1.0,1.0,1.0,1.0,1.0,20.0,
2023-09-09 14:15:30.400,1.3502902,0.854894,0.49015012,0.64256525,0.74609,0.27572942,0.12145317,0.283351,0.7831513,0.46398205,0.30162024,0.502053,0.42543808,0.06580883,-0.038949344,0.39302623,-0.04746015,-0.33639348,-0.42150566,0.072454706,811.9048,818.7546,805.8608,790.9524,783.69965,0.40704345703125,0.01263427734375,0.90960693359375,4.65057373046875,-3.162689208984375,-0.560760498046875,1.0,1.0,1.0,1.0,1.0,20.0,
2023-09-09 14:15:30.507,1.3502902,0.854894,0.49015012,0.64256525,0.74609,0.27572942,0.12145317,0.283351,0.7831513,0.46398205,0.30162024,0.502053,0.42543808,0.06580883,-0.038949344,0.39302623,-0.04746015,-0.33639348,-0.42150566,0.072454706,799.41394,820.3663,797.8022,788.93774,1106.044,0.40887451171875,0.0052490234375,0.9072265625,4.74029541015625,-3.00567626953125,-0.785064697265625,1.0,1.0,1.0,1.0,1.0,20.0,
2023-09-09 14:15:30.524,1.3502902,0.854894,0.49015012,0.64256525,0.74609,0.27572942,0.12145317,0.283351,0.7831513,0.46398205,0.30162024,0.502053,0.42543808,0.06580883,-0.038949344,0.39302623,-0.04746015,-0.33639348,-0.42150566,0.072454706,788.93774,815.12823,805.4579,801.02563,657.5824,0.4102783203125,0.0123291015625,0.90234375,4.762725830078125,-2.43743896484375,-0.545806884765625,1.0,1.0,1.0,1.0,1.0,20.0,
2023-09-09 14:15:30.525,1.3118025,0.78463703,0.50142246,0.6360476,0.820376,0.18165767,0.12807839,0.29760873,0.87944424,0.3643293,0.27343127,0.3927214,0.43676555,0.060577057,-0.048028626,0.39116126,-0.0467822,-0.3347643,-0.4420765,0.053091403,790.54944,811.0989,809.0842,797.3993,589.4872,0.4102783203125,0.0123291015625,0.90234375,4.762725830078125,-2.43743896484375,-0.545806884765625,1.0,1.0,1.0,1.0,1.0,20.0,
2023-09-09 14:15:30.603,1.3118025,0.78463703,0.50142246,0.6360476,0.820376,0.18165767,0.12807839,0.29760873,0.87944424,0.3643293,0.27343127,0.3927214,0.43676555,0.060577057,-0.048028626,0.39116126,-0.0467822,-0.3347643,-0.4420765,0.053091403,778.86444,778.86444,803.8461,794.9817,771.2088,0.40850830078125,0.01251220703125,0.90594482421875,4.912261962890625,-2.878570556640625,-0.351409912109375,1.0,1.0,1.0,1.0,1.0,20.0,
2023-09-09 14:15:30.608,1.2985808,0.72653025,0.5079537,0.6395413,0.8660852,0.091415524,0.12208256,0.3129213,0.9199033,0.2972514,0.23337027,0.30896214,0.44989446,0.054457743,-0.052685212,0.3823022,-0.045049377,-0.3376018,-0.4650582,0.033459354,771.2088,784.5055,807.0696,799.011,643.47986,0.40850830078125,0.01251220703125,0.90594482421875,4.912261962890625,-2.878570556640625,-0.351409912109375,1.0,1.0,1.0,1.0,1.0,20.0,
2023-09-09 14:15:30.653,1.2985808,0.72653025,0.5079537,0.6395413,0.8660852,0.091415524,0.12208256,0.3129213,0.9199033,0.2972514,0.23337027,0.30896214,0.44989446,0.054457743,-0.052685212,0.3823022,-0.045049377,-0.3376018,-0.4650582,0.033459354,767.1795,793.36993,812.3077,814.7253,624.5421,0.4093017578125,0.012451171875,0.900146484375,4.97955322265625,-2.3028564453125,-0.59814453125,1.0,1.0,1.0,1.0,1.0,20.0,
2023-09-09 14:15:30.716,1.2985808,0.72653025,0.5079537,0.6395413,0.8660852,0.091415524,0.12208256,0.3129213,0.9199033,0.2972514,0.23337027,0.30896214,0.44989446,0.054457743,-0.052685212,0.3823022,-0.045049377,-0.3376018,-0.4650582,0.033459354,788.5348,804.65204,818.7546,813.1135,676.1172,0.4100341796875,0.0098876953125,0.90313720703125,4.852447509765625,-2.504730224609375,-0.61309814453125,1.0,1.0,1.0,1.0,1.0,20.0,
2023-09-09 14:15:30.720,1.3209473,0.6764446,0.5047516,0.64688385,0.8864587,0.037249804,0.115006045,0.33006763,0.9289089,0.2803832,0.18425213,0.33777648,0.46985826,0.047749333,-0.052838475,0.37277222,-0.042314645,-0.35072955,-0.48925686,0.011032701,781.685,810.696,812.71063,801.4286,774.0293,0.4100341796875,0.0098876953125,0.90313720703125,4.852447509765625,-2.504730224609375,-0.61309814453125,1.0,1.0,1.0,1.0,1.0,20.0,
2023-09-09 14:15:30.754,1.3209473,0.6764446,0.5047516,0.64688385,0.8864587,0.037249804,0.115006045,0.33006763,0.9289089,0.2803832,0.18425213,0.33777648,0.46985826,0.047749333,-0.052838475,0.37277222,-0.042314645,-0.35072955,-0.48925686,0.011032701,768.7912,811.9048,801.8315,806.6667,833.2601,0.40509033203125,0.014892578125,0.90228271484375,4.972076416015625,-2.73651123046875,-0.2392578125,1.0,1.0,1.0,1.0,1.0,20.0,
2023-09-09 14:15:30.796,1.3209473,0.6764446,0.5047516,0.64688385,0.8864587,0.037249804,0.115006045,0.33006763,0.9289089,0.2803832,0.18425213,0.33777648,0.46985826,0.047749333,-0.052838475,0.37277222,-0.042314645,-0.35072955,-0.48925686,0.011032701,765.9707,817.9487,802.6374,790.9524,638.6447,0.4041748046875,0.01336669921875,0.903564453125,5.084228515625,-2.392578125,-0.34393310546875,1.0,1.0,1.0,1.0,1.0,20.0,
2023-09-09 14:15:30.800,1.3729206,0.6777926,0.49894926,0.6615158,0.88801473,0.03311177,0.115612864,0.35354057,0.93182963,0.28267145,0.1577599,0.4023355,0.4927988,0.0360877,-0.052432045,0.36594373,-0.035952285,-0.37792405,-0.51705235,-0.017737089,799.81683,830.84247,798.60803,813.1135,766.3736,0.4041748046875,0.01336669921875,0.903564453125,5.084228515625,-2.392578125,-0.34393310546875,1.0,1.0,1.0,1.0,1.0,20.0,
2023-09-09 14:15:30.875,1.3729206,0.6777926,0.49894926,0.6615158,0.88801473,0.03311177,0.115612864,0.35354057,0.93182963,0.28267145,0.1577599,0.4023355,0.4927988,0.0360877,-0.052432045,0.36594373,-0.035952285,-0.37792405,-0.51705235,-0.017737089,780.07324,818.7546,805.8608,809.89014,1218.8645,0.40960693359375,0.0159912109375,0.901611328125,4.3365478515625,-3.491668701171875,-0.500946044921875,1.0,1.0,1.0,1.0,1.0,20.0,
2023-09-09 14:15:30.881,1.4277762,0.74934477,0.49876434,0.68766695,0.88184947,0.07775604,0.124934256,0.38615167,0.93240654,0.2831255,0.1393724,0.4302936,0.5157039,0.016303578,-0.05501114,0.36172783,-0.026787737,-0.41734603,-0.54776096,-0.05569276,819.5604,822.381,814.7253,816.7399,853.00366,0.40960693359375,0.0159912109375,0.901611328125,4.3365478515625,-3.491668701171875,-0.500946044921875,1.0,1.0,1.0,1.0,1.0,20.0,
2023-09-09 14:15:30.921,1.4277762,0.74934477,0.49876434,0.68766695,0.88184947,0.07775604,0.124934256,0.38615167,0.93240654,0.2831255,0.1393724,0.4302936,0.5157039,0.016303578,-0.05501114,0.36172783,-0.026787737,-0.41734603,-0.54776096,-0.05569276,800.2198,819.15753,811.0989,801.4286,658.7912,0.40960693359375,0.01348876953125,0.9029541015625,4.88983154296875,-2.76641845703125,-0.620574951171875,1.0,1.0,1.0,1.0,1.0,20.0,
2023-09-09 14:15:30.973,1.4277762,0.74934477,0.49876434,0.68766695,0.88184947,0.07775604,0.124934256,0.38615167,0.93240654,0.2831255,0.1393724,0.4302936,0.5157039,0.016303578,-0.05501114,0.36172783,-0.026787737,-0.41734603,-0.54776096,-0.05569276,794.57874,813.91943,806.6667,802.6374,745.0183,0.40887451171875,0.01287841796875,0.90081787109375,4.837493896484375,-2.82623291015625,-0.35888671875,1.0,1.0,1.0,1.0,1.0,20.0,
2023-09-09 14:15:30.980,1.4637153,0.86057425,0.50127846,0.702035,0.8816821,0.14290297,0.13996184,0.42265573,0.94864553,0.28501663,0.07643947,0.439042,0.5359929,-0.009442241,-0.060760297,0.3604122,-0.01969704,-0.4587064,-0.57336676,-0.09752279,771.2088,823.5897,819.5604,775.64105,827.2161,0.40887451171875,0.01287841796875,0.90081787109375,4.837493896484375,-2.82623291015625,-0.35888671875,1.0,1.0,1.0,1.0,1.0,20.0,
2023-09-09 14:15:31.008,1.4637153,0.86057425,0.50127846,0.702035,0.8816821,0.14290297,0.13996184,0.42265573,0.94864553,0.28501663,0.07643947,0.439042,0.5359929,-0.009442241,-0.060760297,0.3604122,-0.01969704,-0.4587064,-0.57336676,-0.09752279,772.4176,825.6044,825.2015,778.0586,743.8095,0.40972900390625,0.01361083984375,0.90570068359375,4.927215576171875,-2.609405517578125,-0.3289794921875,1.0,1.0,1.0,1.0,1.0,20.0,
2023-09-09 14:15:31.103,1.4637153,0.86057425,0.50127846,0.702035,0.8816821,0.14290297,0.13996184,0.42265573,0.94864553,0.28501663,0.07643947,0.439042,0.5359929,-0.009442241,-0.060760297,0.3604122,-0.01969704,-0.4587064,-0.57336676,-0.09752279,817.5458,819.9634,806.6667,813.1135,791.75824,0.4102783203125,0.015380859375,0.90167236328125,4.792633056640625,-2.91595458984375,-0.530853271484375,1.0,1.0,1.0,1.0,1.0,20.0,
2023-09-09 14:15:31.104,1.4754922,0.9681445,0.5008921,0.68181175,0.8956414,0.19627436,0.15584214,0.4604966,1.0120026,0.29041484,-0.016639095,0.45376274,0.5519868,-0.03492412,-0.06572138,0.36540952,-0.016814042,-0.48676535,-0.58406264,-0.12392984,809.0842,820.3663,802.6374,807.0696,880.40295,0.4102783203125,0.015380859375,0.90167236328125,4.792633056640625,-2.91595458984375,-0.530853271484375,1.0,1.0,1.0,1.0,1.0,20.0,
2023-09-09 14:15:31.154,1.4754922,0.9681445,0.5008921,0.68181175,0.8956414,0.19627436,0.15584214,0.4604966,1.0120026,0.29041484,-0.016639095,0.45376274,0.5519868,-0.03492412,-0.06572138,0.36540952,-0.016814042,-0.48676535,-0.58406264,-0.12392984,837.28937,820.7692,813.5165,827.619,844.94507,0.4095458984375,0.015625,0.90594482421875,4.42626953125,-2.811279296875,-0.665435791015625,1.0,1.0,1.0,1.0,1.0,20.0,
2023-09-09 14:15:31.235,1.4754922,0.9681445,0.5008921,0.68181175,0.8956414,0.19627436,0.15584214,0.4604966,1.0120026,0.29041484,-0.016639095,0.45376274,0.5519868,-0.03492412,-0.06572138,0.36540952,-0.016814042,-0.48676535,-0.58406264,-0.12392984,819.15753,813.91943,803.0403,821.1722,742.1978,0.408447265625,0.01318359375,0.903076171875,4.80010986328125,-2.743988037109375,-0.964508056640625,1.0,1.0,1.0,1.0,1.0,20.0,
2023-09-09 14:15:31.238,1.4781883,1.0497764,0.5010917,0.68181175,0.94048166,0.22506624,0.1667212,0.4604966,1.0895718,0.31209013,0.037189517,0.45376274,0.57692194,-0.054108676,-0.06355847,0.36540952,0.0024306665,-0.49384165,-0.57735693,-0.12392984,822.7839,813.1135,808.68134,819.15753,771.2088,0.408447265625,0.01318359375,0.903076171875,4.80010986328125,-2.743988037109375,-0.964508056640625,1.0,1.0,1.0,1.0,1.0,20.0,
2023-09-09 14:15:31.255,1.4781883,1.0497764,0.5010917,0.68181175,0.94048166,0.22506624,0.1667212,0.4604966,1.0895718,0.31209013,0.037189517,0.45376274,0.57692194,-0.054108676,-0.06355847,0.36540952,0.0024306665,-0.49384165,-0.57735693,-0.12392984,834.4689,811.50183,801.02563,819.9634,904.57874,0.40997314453125,0.01422119140625,0.90753173828125,5.286102294921875,-2.788848876953125,-0.859832763671875,1.0,1.0,1.0,1.0,1.0,20.0,
2023-09-09 14:15:31.292,1.4781883,1.0497764,0.5010917,0.68181175,0.94048166,0.22506624,0.1667212,0.4604966,1.0895718,0.31209013,0.037189517,0.45376274,0.57692194,-0.054108676,-0.06355847,0.36540952,0.0024306665,-0.49384165,-0.57735693,-0.12392984,803.8461,819.5604,805.4579,820.7692,960.18317,0.4129638671875,0.01190185546875,0.90509033203125,4.5758056640625,-3.00567626953125,-0.680389404296875,1.0,1.0,1.0,1.0,1.0,20.0,
2023-09-09 14:15:31.295,1.4713892,1.0948042,0.5062602,0.68181175,0.9954528,0.23523024,0.16792282,0.4604966,1.0997037,0.34466085,0.17444253,0.45376274,0.5957352,-0.060308896,-0.049959276,0.36540952,0.022165308,-0.48842707,-0.5620763,-0.12392984,799.81683,815.5311,797.8022,797.3993,734.1392,0.4129638671875,0.01190185546875,0.90509033203125,4.5758056640625,-3.00567626953125,-0.680389404296875,1.0,1.0,1.0,1.0,1.0,20.0,
2023-09-09 14:15:31.367,1.4713892,1.0948042,0.5062602,0.68181175,0.9954528,0.23523024,0.16792282,0.4604966,1.0997037,0.34466085,0.17444253,0.45376274,0.5957352,-0.060308896,-0.049959276,0.36540952,0.022165308,-0.48842707,-0.5620763,-0.12392984,787.72894,815.9341,805.8608,802.23444,788.1319,0.4111328125,0.011474609375,0.901123046875,5.14404296875,-2.40753173828125,-0.336456298828125,1.0,1.0,1.0,1.0,1.0,20.0,
2023-09-09 14:15:31.373,1.4624957,1.1110713,0.5208403,0.76231253,1.0194706,0.2385202,0.16164327,0.59694606,1.0997037,0.3647016,0.2591459,0.51034814,0.6140914,-0.05019992,-0.029576773,0.37080792,0.028654054,-0.48759,-0.5504084,-0.07572362,785.31134,821.978,811.50183,801.02563,809.89014,0.4111328125,0.011474609375,0.901123046875,5.14404296875,-2.40753173828125,-0.336456298828125,1.0,1.0,1.0,1.0,1.0,20.0,
2023-09-09 14:15:31.432,1.4624957,1.1110713,0.5208403,0.76231253,1.0194706,0.2385202,0.16164327,0.59694606,1.0997037,0.3647016,0.2591459,0.51034814,0.6140914,-0.05019992,-0.029576773,0.37080792,0.028654054,-0.48759,-0.5504084,-0.07572362,787.326,828.022,812.71063,817.5458,645.09155,0.41094970703125,0.0126953125,0.90191650390625,4.90478515625,-2.160797119140625,-0.40374755859375,1.0,1.0,1.0,1.0,1.0,20.0,
2023-09-09 14:15:31.469,1.4624957,1.1110713,0.5208403,0.76231253,1.0194706,0.2385202,0.16164327,0.59694606,1.0997037,0.3647016,0.2591459,0.51034814,0.6140914,-0.05019992,-0.029576773,0.37080792,0.028654054,-0.48759,-0.5504084,-0.07572362,795.78754,825.6044,808.2784,799.011,653.1502,0.40948486328125,0.01385498046875,0.89959716796875,4.77020263671875,-2.624359130859375,-0.52337646484375,1.0,1.0,1.0,1.0,1.0,20.0,
2023-09-09 14:15:31.476,1.4592476,1.1097624,0.5465747,0.8504496,1.0428245,0.24221413,0.15528744,0.6928044,1.0997037,0.3698774,0.2836575,0.55541253,0.6304636,-0.030855339,-0.01178647,0.3745847,0.02804415,-0.50115585,-0.5517379,-0.044303775,799.41394,826.8132,808.2784,810.293,900.54944,0.40948486328125,0.01385498046875,0.89959716796875,4.77020263671875,-2.624359130859375,-0.52337646484375,1.0,1.0,1.0,1.0,1.0,20.0,
2023-09-09 14:15:31.535,1.4592476,1.1097624,0.5465747,0.8504496,1.0428245,0.24221413,0.15528744,0.6928044,1.0997037,0.3698774,0.2836575,0.55541253,0.6304636,-0.030855339,-0.01178647,0.3745847,0.02804415,-0.50115585,-0.5517379,-0.044303775,813.91943,826.4103,803.8461,802.6374,904.17584,0.4061279296875,0.0135498046875,0.9080810546875,4.85992431640625,-2.848663330078125,-0.0897216796875,1.0,1.0,1.0,1.0,1.0,20.0,
2023-09-09 14:15:31.609,1.4667974,1.1037824,0.57175195,0.923439,1.0640558,0.24898706,0.14898406,0.76382214,1.0997037,0.36614004,0.28545445,0.5666293,0.64108133,-0.016790204,-0.00021952027,0.3682948,0.022599127,-0.5259901,-0.56911194,-0.023522975,808.2784,817.5458,813.1135,807.0696,723.2601,0.4061279296875,0.0135498046875,0.9080810546875,4.85992431640625,-2.848663330078125,-0.0897216796875,1.0,1.0,1.0,1.0,1.0,20.0,
2023-09-09 14:15:31.647,1.4667974,1.1037824,0.57175195,0.923439,1.0640558,0.24898706,0.14898406,0.76382214,1.0997037,0.36614004,0.28545445,0.5666293,0.64108133,-0.016790204,-0.00021952027,0.3682948,0.022599127,-0.5259901,-0.56911194,-0.023522975,811.0989,815.12823,813.5165,813.5165,884.0293,0.41070556640625,0.015869140625,0.9033203125,4.605712890625,-3.147735595703125,-0.590667724609375,1.0,1.0,1.0,1.0,1.0,20.0,
2023-09-09 14:15:31.655,1.4667974,1.1037824,0.57175195,0.923439,1.0640558,0.24898706,0.14898406,0.76382214,1.0997037,0.36614004,0.28545445,0.5666293,0.64108133,-0.016790204,-0.00021952027,0.3682948,0.022599127,-0.5259901,-0.56911194,-0.023522975,815.5311,818.3516,811.50183,840.10986,1146.7399,0.412841796875,0.01580810546875,0.897216796875,4.373931884765625,-3.087921142578125,-1.532745361328125,1.0,1.0,1.0,1.0,1.0,20.0,
2023-09-09 14:15:31.723,1.4667974,1.1037824,0.57175195,0.923439,1.0640558,0.24898706,0.14898406,0.76382214,1.0997037,0.36614004,0.28545445,0.5666293,0.64108133,-0.016790204,-0.00021952027,0.3682948,0.022599127,-0.5259901,-0.56911194,-0.023522975,805.4579,814.3223,810.293,815.12823,624.5421,0.41192626953125,0.01800537109375,0.90289306640625,4.3963623046875,-3.30474853515625,-0.605621337890625,1.0,1.0,1.0,1.0,1.0,20.0,
2023-09-09 14:15:31.724,1.486445,1.1014432,0.58735555,0.9741897,1.0801458,0.2610642,0.13804057,0.7983251,1.0997037,0.35861576,0.28545445,0.5682272,0.64615065,-0.017789336,0.008959275,0.35887322,0.01886298,-0.5524198,-0.59726775,-0.015951516,809.0842,816.7399,809.4872,817.9487,600.3663,0.41192626953125,0.01800537109375,0.90289306640625,4.3963623046875,-3.30474853515625,-0.605621337890625,1.0,1.0,1.0,1.0,1.0,20.0,
2023-09-09 14:15:31.773,1.486445,1.1014432,0.58735555,0.9741897,1.0801458,0.2610642,0.13804057,0.7983251,1.0997037,0.35861576,0.28545445,0.5682272,0.64615065,-0.017789336,0.008959275,0.35887322,0.01886298,-0.5524198,-0.59726775,-0.015951516,799.41394,816.337,803.0403,809.0842,747.4359,0.41131591796875,0.0096435546875,0.89764404296875,4.628143310546875,-3.102874755859375,-1.099090576171875,1.0,1.0,1.0,1.0,1.0,20.0,
2023-09-09 14:15:31.845,1.486445,1.1014432,0.58735555,0.9741897,1.0801458,0.2610642,0.13804057,0.7983251,1.0997037,0.35861576,0.28545445,0.5682272,0.64615065,-0.017789336,0.008959275,0.35887322,0.01886298,-0.5524198,-0.59726775,-0.015951516,800.6227,807.47253,806.6667,816.7399,803.0403,0.41571044921875,0.015869140625,0.9000244140625,4.673004150390625,-2.624359130859375,-1.07666015625,1.0,1.0,1.0,1.0,1.0,20.0,
2023-09-09 14:15:31.847,1.51815,1.101153,0.59338146,0.99865717,1.0870388,0.27470097,0.12332046,0.8143543,1.0997037,0.35089317,0.28545445,0.5682272,0.65028584,-0.031300113,0.0202064,0.35234362,0.021433523,-0.57100236,-0.6262458,-0.017779227,795.78754,808.2784,802.6374,809.0842,614.87177,0.41571044921875,0.015869140625,0.9000244140625,4.673004150390625,-2.624359130859375,-1.07666015625,1.0,1.0,1.0,1.0,1.0,20.0,
2023-09-09 14:15:31.901,1.51815,1.101153,0.59338146,0.99865717,1.0870388,0.27470097,0.12332046,0.8143543,1.0997037,0.35089317,0.28545445,0.5682272,0.65028584,-0.031300113,0.0202064,0.35234362,0.021433523,-0.57100236,-0.6262458,-0.017779227,788.5348,800.2198,801.4286,806.6667,857.03296,0.415771484375,0.01190185546875,0.9014892578125,4.35150146484375,-2.908477783203125,-0.725250244140625,1.0,1.0,1.0,1.0,1.0,20.0,
2023-09-09 14:15:31.906,1.5581785,1.1028999,0.59108716,1.0092818,1.0825723,0.28300303,0.11240933,0.82602406,1.0997037,0.3337809,0.28545445,0.5682272,0.6597931,-0.048567146,0.03161868,0.35138798,0.028841786,-0.57817405,-0.64818347,-0.025568984,790.9524,797.8022,789.7436,804.2491,755.89746,0.415771484375,0.01190185546875,0.9014892578125,4.35150146484375,-2.908477783203125,-0.725250244140625,1.0,1.0,1.0,1.0,1.0,20.0,
2023-09-09 14:15:31.937,1.5581785,1.1028999,0.59108716,1.0092818,1.0825723,0.28300303,0.11240933,0.82602406,1.0997037,0.3337809,0.28545445,0.5682272,0.6597931,-0.048567146,0.03161868,0.35138798,0.028841786,-0.57817405,-0.64818347,-0.025568984,803.8461,806.6667,799.011,817.1429,1011.3553,0.40789794921875,0.00762939453125,0.9010009765625,4.844970703125,-2.385101318359375,-1.084136962890625,1.0,1.0,1.0,1.0,1.0,20.0,
2023-09-09 14:15:31.974,1.5581785,1.1028999,0.59108716,1.0092818,1.0825723,0.28300303,0.11240933,0.82602406,1.0997037,0.3337809,0.28545445,0.5682272,0.6597931,-0.048567146,0.03161868,0.35138798,0.028841786,-0.57817405,-0.64818347,-0.025568984,807.0696,807.8755,796.1905,789.34064,655.16486,0.4161376953125,0.014404296875,0.9031982421875,4.972076416015625,-3.27484130859375,-1.114044189453125,1.0,1.0,1.0,1.0,1.0,20.0,
2023-09-09 14:15:31.978,1.5783927,1.1072483,0.593732,1.0179472,1.0258765,0.2823138,0.11071325,0.8353681,1.0960761,0.28224894,0.28545445,0.56760013,0.6431422,-0.0629258,0.03768315,0.3541182,0.0242055,-0.5752107,-0.6608491,-0.033344306,808.68134,806.26373,803.0403,810.696,1022.23444,0.4161376953125,0.014404296875,0.9031982421875,4.972076416015625,-3.27484130859375,-1.114044189453125,1.0,1.0,1.0,1.0,1.0,20.0,
2023-09-09 14:15:32.036,1.5783927,1.1072483,0.593732,1.0179472,1.0258765,0.2823138,0.11071325,0.8353681,1.0960761,0.28224894,0.28545445,0.56760013,0.6431422,-0.0629258,0.03768315,0.3541182,0.0242055,-0.5752107,-0.6608491,-0.033344306,814.3223,798.20514,801.8315,818.7546,896.9231,0.41534423828125,0.01312255859375,0.90252685546875,5.046844482421875,-2.73651123046875,-0.545806884765625,1.0,1.0,1.0,1.0,1.0,20.0,
2023-09-09 14:15:32.098,1.5783927,1.1072483,0.593732,1.0179472,1.0258765,0.2823138,0.11071325,0.8353681,1.0960761,0.28224894,0.28545445,0.56760013,0.6431422,-0.0629258,0.03768315,0.3541182,0.0242055,-0.5752107,-0.6608491,-0.033344306,828.4249,801.8315,805.4579,820.3663,788.1319,0.41552734375,0.01153564453125,0.89892578125,5.046844482421875,-2.22808837890625,-0.336456298828125,1.0,1.0,1.0,1.0,1.0,20.0,
2023-09-09 14:15:32.106,1.5782771,1.1139591,0.6086878,1.0264795,0.9627773,0.2789679,0.112932615,0.83942986,1.0757049,0.23661576,0.28545445,0.56231433,0.62902033,-0.0750625,0.038324498,0.35704285,0.018069819,-0.56549287,-0.6655936,-0.03340294,841.7216,809.89014,804.2491,819.9634,760.32965,0.41552734375,0.01153564453125,0.89892578125,5.046844482421875,-2.22808837890625,-0.336456298828125,1.0,1.0,1.0,1.0,1.0,20.0,
2023-09-09 14:15:32.218,1.5782771,1.1139591,0.6086878,1.0264795,0.9627773,0.2789679,0.112932615,0.83942986,1.0757049,0.23661576,0.28545445,0.56231433,0.62902033,-0.0750625,0.038324498,0.35704285,0.018069819,-0.56549287,-0.6655936,-0.03340294,845.7509,812.3077,805.05493,826.8132,778.46155,0.4093017578125,0.00872802734375,0.90185546875,5.196380615234375,-3.170166015625,-0.351409912109375,1.0,1.0,1.0,1.0,1.0,20.0,
2023-09-09 14:15:32.227,1.5553993,1.118023,0.63363945,1.0342662,0.90711266,0.27828282,0.112353615,0.83857554,1.0503794,0.22237802,0.29335988,0.55985224,0.60953474,-0.08485711,0.03974655,0.36147082,0.006846463,-0.5538067,-0.6652176,-0.02272918,830.4396,818.7546,805.8608,826.8132,908.20514,0.4093017578125,0.00872802734375,0.90185546875,5.196380615234375,-3.170166015625,-0.351409912109375,1.0,1.0,1.0,1.0,1.0,20.0,
2023-09-09 14:15:32.261,1.5553993,1.118023,0.63363945,1.0342662,0.90711266,0.27828282,0.112353615,0.83857554,1.0503794,0.22237802,0.29335988,0.55985224,0.60953474,-0.08485711,0.03974655,0.36147082,0.006846463,-0.5538067,-0.6652176,-0.02272918,827.619,820.7692,809.4872,823.1868,794.17584,0.4095458984375,0.015869140625,0.90106201171875,5.151519775390625,-2.27294921875,-0.64300537109375,1.0,1.0,1.0,1.0,1.0,20.0,
2023-09-09 14:15:32.278,1.5553993,1.118023,0.63363945,1.0342662,0.90711266,0.27828282,0.112353615,0.83857554,1.0503794,0.22237802,0.29335988,0.55985224,0.60953474,-0.08485711,0.03974655,0.36147082,0.006846463,-0.5538067,-0.6652176,-0.02272918,834.87177,798.20514,817.5458,830.4396,764.7619,0.41387939453125,0.0157470703125,0.90338134765625,5.031890869140625,-3.087921142578125,-0.46356201171875,1.0,1.0,1.0,1.0,1.0,20.0,
2023-09-09 14:15:32.314,1.5553993,1.118023,0.63363945,1.0342662,0.90711266,0.27828282,0.112353615,0.83857554,1.0503794,0.22237802,0.29335988,0.55985224,0.60953474,-0.08485711,0.03974655,0.36147082,0.006846463,-0.5538067,-0.6652176,-0.02272918,821.978,805.05493,807.47253,822.381,1010.9524,0.4139404296875,0.01434326171875,0.8985595703125,4.807586669921875,-2.67669677734375,-0.725250244140625,1.0,1.0,1.0,1.0,1.0,20.0,
2023-09-09 14:15:32.315,1.5122668,1.1126888,0.6629843,1.0417018,0.86801374,0.27898934,0.10852301,0.83452237,1.0371795,0.2179654,0.29940054,0.55985224,0.58088076,-0.08839457,0.04774116,0.3698358,-0.015306359,-0.544612,-0.6632943,-0.003415198,817.1429,801.4286,807.0696,817.9487,932.381,0.4139404296875,0.01434326171875,0.8985595703125,4.807586669921875,-2.67669677734375,-0.725250244140625,1.0,1.0,1.0,1.0,1.0,20.0,
2023-09-09 14:15:32.420,1.5122668,1.1126888,0.6629843,1.0417018,0.86801374,0.27898934,0.10852301,0.83452237,1.0371795,0.2179654,0.29940054,0.55985224,0.58088076,-0.08839457,0.04774116,0.3698358,-0.015306359,-0.544612,-0.6632943,-0.003415198,820.3663,805.05493,803.8461,811.50183,728.49817,0.41412353515625,0.01226806640625,0.89837646484375,5.256195068359375,-2.250518798828125,-0.7177734375,1.0,1.0,1.0,1.0,1.0,20.0,
2023-09-09 14:15:32.422,1.4693832,1.088084,0.686015,1.0497918,0.838897,0.27583626,0.102932334,0.8268027,1.025171,0.2179654,0.30081216,0.5539978,0.54164946,-0.08102449,0.062154196,0.3802688,-0.0472866,-0.5389913,-0.6650669,0.020187525,823.5897,804.65204,799.41394,805.05493,810.696,0.41412353515625,0.01226806640625,0.89837646484375,5.256195068359375,-2.250518798828125,-0.7177734375,1.0,1.0,1.0,1.0,1.0,20.0,
2023-09-09 14:15:32.463,1.4693832,1.088084,0.686015,1.0497918,0.838897,0.27583626,0.102932334,0.8268027,1.025171,0.2179654,0.30081216,0.5539978,0.54164946,-0.08102449,0.062154196,0.3802688,-0.0472866,-0.5389913,-0.6650669,0.020187525,821.1722,812.71063,803.8461,821.5751,786.52014,0.41375732421875,0.01409912109375,0.89794921875,5.03936767578125,-2.6019287109375,-0.5682373046875,1.0,1.0,1.0,1.0,1.0,20.0,
2023-09-09 14:15:32.503,1.4693832,1.088084,0.686015,1.0497918,0.838897,0.27583626,0.102932334,0.8268027,1.025171,0.2179654,0.30081216,0.5539978,0.54164946,-0.08102449,0.062154196,0.3802688,-0.0472866,-0.5389913,-0.6650669,0.020187525,790.9524,819.9634,818.3516,831.2454,806.26373,0.41937255859375,0.02154541015625,0.9056396484375,4.822540283203125,-2.6318359375,-0.58319091796875,1.0,1.0,1.0,1.0,1.0,20.0,
2023-09-09 14:15:32.507,1.4502715,1.0347686,0.6957857,1.055095,0.7984631,0.27049288,0.092866085,0.83434206,1.0091096,0.22901696,0.30081216,0.553532,0.49916437,-0.06330131,0.07716562,0.3880339,-0.08150899,-0.5372948,-0.6754946,0.035339493,772.8205,814.3223,805.8608,804.2491,741.79486,0.41937255859375,0.02154541015625,0.9056396484375,4.822540283203125,-2.6318359375,-0.58319091796875,1.0,1.0,1.0,1.0,1.0,20.0,
2023-09-09 14:15:32.599,1.4502715,1.0347686,0.6957857,1.055095,0.7984631,0.27049288,0.092866085,0.83434206,1.0091096,0.22901696,0.30081216,0.553532,0.49916437,-0.06330131,0.07716562,0.3880339,-0.08150899,-0.5372948,-0.6754946,0.035339493,749.0476,822.381,804.2491,809.0842,642.674,0.41143798828125,0.01507568359375,0.900390625,5.016937255859375,-1.54022216796875,-0.426177978515625,1.0,1.0,1.0,1.0,1.0,20.0,
2023-09-09 14:15:32.634,1.4502715,1.0347686,0.6957857,1.055095,0.7984631,0.27049288,0.092866085,0.83434206,1.0091096,0.22901696,0.30081216,0.553532,0.49916437,-0.06330131,0.07716562,0.3880339,-0.08150899,-0.5372948,-0.6754946,0.035339493,751.06226,817.5458,805.05493,822.7839,813.1135,0.40771484375,0.01556396484375,0.90008544921875,4.792633056640625,-1.801910400390625,-1.3458251953125,1.0,1.0,1.0,1.0,1.0,20.0,
2023-09-09 14:15:32.640,1.4247411,0.9564517,0.69011825,1.054267,0.7524243,0.26955667,0.07717023,0.8377631,1.0011108,0.2659644,0.30081216,0.553532,0.4593373,-0.04138071,0.087190986,0.39311647,-0.09631507,-0.5410869,-0.6963802,0.047585115,727.6923,809.89014,801.4286,811.50183,623.3333,0.40771484375,0.01556396484375,0.90008544921875,4.792633056640625,-1.801910400390625,-1.3458251953125,1.0,1.0,1.0,1.0,1.0,20.0,
2023-09-09 14:15:32.735,1.4247411,0.9564517,0.69011825,1.054267,0.7524243,0.26955667,0.07717023,0.8377631,1.0011108,0.2659644,0.30081216,0.553532,0.4593373,-0.04138071,0.087190986,0.39311647,-0.09631507,-0.5410869,-0.6963802,0.047585115,762.74725,785.31134,798.20514,807.0696,799.41394,0.407958984375,0.0152587890625,0.90435791015625,4.964599609375,-2.654266357421875,-0.35888671875,1.0,1.0,1.0,1.0,1.0,20.0,
2023-09-09 14:15:32.742,1.4168928,0.8707402,0.67635715,1.054267,0.6218154,0.27311465,0.066224,0.8377631,0.98234016,0.29876992,0.30081216,0.553532,0.41316038,-0.022468511,0.08954938,0.39311647,-0.11794869,-0.55036926,-0.7256332,0.047585115,767.98535,777.25275,797.3993,812.3077,658.3883,0.407958984375,0.0152587890625,0.90435791015625,4.964599609375,-2.654266357421875,-0.35888671875,1.0,1.0,1.0,1.0,1.0,20.0,
2023-09-09 14:15:32.781,1.4168928,0.8707402,0.67635715,1.054267,0.6218154,0.27311465,0.066224,0.8377631,0.98234016,0.29876992,0.30081216,0.553532,0.41316038,-0.022468511,0.08954938,0.39311647,-0.11794869,-0.55036926,-0.7256332,0.047585115,764.35895,776.04395,801.02563,823.9927,1112.4908,0.40277099609375,0.01824951171875,0.89691162109375,4.964599609375,-3.043060302734375,-0.500946044921875,1.0,1.0,1.0,1.0,1.0,20.0,
2023-09-09 14:15:32.791,1.4168928,0.8707402,0.67635715,1.054267,0.6218154,0.27311465,0.066224,0.8377631,0.98234016,0.29876992,0.30081216,0.553532,0.41316038,-0.022468511,0.08954938,0.39311647,-0.11794869,-0.55036926,-0.7256332,0.047585115,792.5641,781.685,808.68134,846.1539,1103.2234,0.4095458984375,0.012939453125,0.89947509765625,4.80010986328125,-2.88604736328125,-0.650482177734375,1.0,1.0,1.0,1.0,1.0,20.0,
2023-09-09 14:15:32.797,1.4161587,0.8255112,0.65733904,1.054267,0.21164834,0.2777114,0.07136253,0.8377631,0.473437,0.3362026,0.2952757,0.553532,0.37037414,-0.0125627825,0.084011026,0.39311647,-0.17076935,-0.5629173,-0.7564865,0.047585115,809.89014,780.07324,813.1135,826.8132,623.73627,0.4095458984375,0.012939453125,0.89947509765625,4.80010986328125,-2.88604736328125,-0.650482177734375,1.0,1.0,1.0,1.0,1.0,20.0,
2023-09-09 14:15:32.852,1.4161587,0.8255112,0.65733904,1.054267,0.21164834,0.2777114,0.07136253,0.8377631,0.473437,0.3362026,0.2952757,0.553532,0.37037414,-0.0125627825,0.084011026,0.39311647,-0.17076935,-0.5629173,-0.7564865,0.047585115,809.4872,778.0586,809.0842,834.87177,769.59705,0.41168212890625,0.01519775390625,0.90191650390625,5.203857421875,-3.170166015625,0.067291259765625,1.0,1.0,1.0,1.0,1.0,20.0,
2023-09-09 14:15:32.929,1.4161587,0.8255112,0.65733904,1.054267,0.21164834,0.2777114,0.07136253,0.8377631,0.473437,0.3362026,0.2952757,0.553532,0.37037414,-0.0125627825,0.084011026,0.39311647,-0.17076935,-0.5629173,-0.7564865,0.047585115,763.1502,798.60803,797.8022,817.9487,565.7143,0.406982421875,0.0205078125,0.904296875,5.390777587890625,-2.743988037109375,0.59814453125,1.0,1.0,1.0,1.0,1.0,20.0,
2023-09-09 14:15:32.930,1.4161587,0.85748327,0.63743186,1.0038061,0.21164834,0.28068382,0.087746665,0.78262895,0.473437,0.33384916,0.2770035,0.6093305,0.37037414,-0.015484338,0.071192175,0.37660396,-0.17076935,-0.57379854,-0.77961636,0.035748295,763.95605,798.60803,795.38464,817.5458,660.0,0.406982421875,0.0205078125,0.904296875,5.390777587890625,-2.743988037109375,0.59814453125,1.0,1.0,1.0,1.0,1.0,20.0,
2023-09-09 14:15:32.972,1.4161587,0.85748327,0.63743186,1.0038061,0.21164834,0.28068382,0.087746665,0.78262895,0.473437,0.33384916,0.2770035,0.6093305,0.37037414,-0.015484338,0.071192175,0.37660396,-0.17076935,-0.57379854,-0.77961636,0.035748295,778.86444,804.2491,798.60803,826.4103,757.1062,0.409912109375,0.01861572265625,0.904052734375,4.403839111328125,-3.48419189453125,-1.256103515625,1.0,1.0,1.0,1.0,1.0,20.0,
2023-09-09 14:15:33.051,1.4161587,0.85748327,0.63743186,1.0038061,0.21164834,0.28068382,0.087746665,0.78262895,0.473437,0.33384916,0.2770035,0.6093305,0.37037414,-0.015484338,0.071192175,0.37660396,-0.17076935,-0.57379854,-0.77961636,0.035748295,763.95605,795.38464,793.36993,813.91943,812.3077,0.41412353515625,0.013427734375,0.90264892578125,4.269256591796875,-2.99072265625,-1.06170654296875,1.0,1.0,1.0,1.0,1.0,20.0,
2023-09-09 14:15:33.053,1.4161587,0.95663565,0.6227938,0.9238256,0.21164834,0.28073007,0.100618474,0.71076226,0.473437,0.32346854,0.18568537,0.61523116,0.37037414,-0.028892523,0.052804098,0.36032113,-0.17076935,-0.58094394,-0.7860536,0.03653712,747.8388,801.4286,798.60803,815.5311,666.8498,0.41412353515625,0.013427734375,0.90264892578125,4.269256591796875,-2.99072265625,-1.06170654296875,1.0,1.0,1.0,1.0,1.0,20.0,
2023-09-09 14:15:33.106,1.4161587,0.95663565,0.6227938,0.9238256,0.21164834,0.28073007,0.100618474,0.71076226,0.473437,0.32346854,0.18568537,0.61523116,0.37037414,-0.028892523,0.052804098,0.36032113,-0.17076935,-0.58094394,-0.7860536,0.03653712,740.58606,801.8315,796.1905,821.1722,880.80585,0.41680908203125,0.01177978515625,0.89898681640625,4.673004150390625,-3.0804443359375,-0.73272705078125,1.0,1.0,1.0,1.0,1.0,20.0,
2023-09-09 14:15:33.174,1.4161587,0.95663565,0.6227938,0.9238256,0.21164834,0.28073007,0.100618474,0.71076226,0.473437,0.32346854,0.18568537,0.61523116,0.37037414,-0.028892523,0.052804098,0.36032113,-0.17076935,-0.58094394,-0.7860536,0.03653712,749.85345,792.1612,789.7436,818.7546,819.5604,0.4141845703125,0.013916015625,0.8994140625,5.091705322265625,-3.207550048828125,-0.40374755859375,1.0,1.0,1.0,1.0,1.0,20.0,
2023-09-09 14:15:33.179,1.4161587,1.0697584,0.6142368,0.8305245,0.21164834,0.2748988,0.11232894,0.64326376,0.473437,0.30664203,0.028155025,0.59761894,0.37037414,-0.04612318,0.030676324,0.34476143,-0.17076935,-0.5856789,-0.7676133,0.056782547,752.674,785.7143,791.3553,808.68134,886.8498,0.4141845703125,0.013916015625,0.8994140625,5.091705322265625,-3.207550048828125,-0.40374755859375,1.0,1.0,1.0,1.0,1.0,20.0,
2023-09-09 14:15:33.235,1.4161587,1.0697584,0.6142368,0.8305245,0.21164834,0.2748988,0.11232894,0.64326376,0.473437,0.30664203,0.028155025,0.59761894,0.37037414,-0.04612318,0.030676324,0.34476143,-0.17076935,-0.5856789,-0.7676133,0.056782547,800.6227,796.99634,778.46155,826.0073,593.91943,0.41729736328125,0.01556396484375,0.90643310546875,4.792633056640625,-3.828125,-0.351409912109375,1.0,1.0,1.0,1.0,1.0,20.0,
2023-09-09 14:15:33.241,1.4161587,1.1522223,0.6162681,0.76802313,0.21164834,0.25713027,0.13302997,0.59821665,0.473437,0.2705096,-0.090039015,0.58494383,0.37037414,-0.057787992,0.007825676,0.32995164,-0.17076935,-0.588693,-0.7273239,0.088291004,823.1868,784.5055,780.4762,830.4396,1205.5677,0.41729736328125,0.01556396484375,0.90643310546875,4.792633056640625,-3.828125,-0.351409912109375,1.0,1.0,1.0,1.0,1.0,20.0,
2023-09-09 14:15:33.273,1.4161587,1.1522223,0.6162681,0.76802313,0.21164834,0.25713027,0.13302997,0.59821665,0.473437,0.2705096,-0.090039015,0.58494383,0.37037414,-0.057787992,0.007825676,0.32995164,-0.17076935,-0.588693,-0.7273239,0.088291004,809.4872,788.1319,781.685,808.68134,730.9158,0.41827392578125,0.01617431640625,0.90252685546875,5.106658935546875,-3.0206298828125,-0.59814453125,1.0,1.0,1.0,1.0,1.0,20.0,
2023-09-09 14:15:33.308,1.4161587,1.1522223,0.6162681,0.76802313,0.21164834,0.25713027,0.13302997,0.59821665,0.473437,0.2705096,-0.090039015,0.58494383,0.37037414,-0.057787992,0.007825676,0.32995164,-0.17076935,-0.588693,-0.7273239,0.088291004,814.3223,796.99634,788.93774,809.4872,699.4872,0.42022705078125,0.0152587890625,0.8966064453125,4.852447509765625,-2.85614013671875,-0.695343017578125,1.0,1.0,1.0,1.0,1.0,20.0,
2023-09-09 14:15:33.313,1.4161587,1.173824,0.6329686,0.7560124,0.21164834,0.24982543,0.1564915,0.57126,0.473437,0.24550255,-0.10734816,0.5846616,0.37037414,-0.052366816,-0.009211961,0.3168279,-0.17076935,-0.58456033,-0.6804074,0.11832213,811.0989,786.52014,789.34064,818.7546,963.00366,0.42022705078125,0.0152587890625,0.8966064453125,4.852447509765625,-2.85614013671875,-0.695343017578125,1.0,1.0,1.0,1.0,1.0,20.0,
2023-09-09 14:15:33.343,1.4161587,1.173824,0.6329686,0.7560124,0.21164834,0.24982543,0.1564915,0.57126,0.473437,0.24550255,-0.10734816,0.5846616,0.37037414,-0.052366816,-0.009211961,0.3168279,-0.17076935,-0.58456033,-0.6804074,0.11832213,801.02563,791.3553,790.54944,802.23444,773.22345,0.419189453125,0.02142333984375,0.904052734375,4.97955322265625,-3.058013916015625,-0.306549072265625,1.0,1.0,1.0,1.0,1.0,20.0,
2023-09-09 14:15:33.413,1.4161587,1.1937889,0.662234,0.7606098,0.21164834,0.24464832,0.17208068,0.55042577,0.473437,0.24550255,-0.098669335,0.58785826,0.37037414,-0.041633718,-0.011130005,0.3102686,-0.17076935,-0.5805794,-0.63949364,0.14072189,778.0586,820.7692,815.9341,827.2161,844.1392,0.419189453125,0.02142333984375,0.904052734375,4.97955322265625,-3.058013916015625,-0.306549072265625,1.0,1.0,1.0,1.0,1.0,20.0,
2023-09-09 14:15:33.441,1.4161587,1.1937889,0.662234,0.7606098,0.21164834,0.24464832,0.17208068,0.55042577,0.473437,0.24550255,-0.098669335,0.58785826,0.37037414,-0.041633718,-0.011130005,0.3102686,-0.17076935,-0.5805794,-0.63949364,0.14072189,771.6117,821.1722,812.3077,829.6337,777.6557,0.4185791015625,0.01519775390625,0.8974609375,4.4561767578125,-2.684173583984375,-0.61309814453125,1.0,1.0,1.0,1.0,1.0,20.0,
2023-09-09 14:15:33.475,1.4161587,1.1937889,0.662234,0.7606098,0.21164834,0.24464832,0.17208068,0.55042577,0.473437,0.24550255,-0.098669335,0.58785826,0.37037414,-0.041633718,-0.011130005,0.3102686,-0.17076935,-0.5805794,-0.63949364,0.14072189,794.57874,851.79486,813.91943,825.6044,657.5824,0.41485595703125,0.0,0.89959716796875,4.658050537109375,-2.73651123046875,-0.964508056640625,1.0,1.0,1.0,1.0,1.0,20.0,
2023-09-09 14:15:33.575,1.4161587,1.1937889,0.662234,0.7606098,0.21164834,0.24464832,0.17208068,0.55042577,0.473437,0.24550255,-0.098669335,0.58785826,0.37037414,-0.041633718,-0.011130005,0.3102686,-0.17076935,-0.5805794,-0.63949364,0.14072189,783.2967,859.85345,818.7546,824.3956,904.9817,0.4176025390625,0.01416015625,0.8995361328125,4.80010986328125,-2.9608154296875,-1.084136962890625,1.0,1.0,1.0,1.0,1.0,20.0,
2023-09-09 14:15:33.576,1.4333515,1.2118487,0.7068021,0.75472414,0.21267846,0.25339794,0.17612065,0.5424784,0.473437,0.24550255,-0.05954262,0.61348027,0.39189744,-0.03051948,0.00605997,0.3174703,-0.1881081,-0.5811337,-0.6064695,0.1581723,772.4176,861.4652,819.15753,823.1868,778.46155,0.4176025390625,0.01416015625,0.8995361328125,4.80010986328125,-2.9608154296875,-1.084136962890625,1.0,1.0,1.0,1.0,1.0,20.0,
2023-09-09 14:15:33.619,1.4333515,1.2118487,0.7068021,0.75472414,0.21267846,0.25339794,0.17612065,0.5424784,0.473437,0.24550255,-0.05954262,0.61348027,0.39189744,-0.03051948,0.00605997,0.3174703,-0.1881081,-0.5811337,-0.6064695,0.1581723,758.315,851.39197,816.7399,822.381,620.5128,0.41766357421875,0.015869140625,0.90118408203125,5.151519775390625,-2.61688232421875,-0.201873779296875,1.0,1.0,1.0,1.0,1.0,20.0,
2023-09-09 14:15:33.626,1.4333515,1.2118487,0.7068021,0.75472414,0.21267846,0.25339794,0.17612065,0.5424784,0.473437,0.24550255,-0.05954262,0.61348027,0.39189744,-0.03051948,0.00605997,0.3174703,-0.1881081,-0.5811337,-0.6064695,0.1581723,757.9121,830.84247,808.2784,805.8608,699.89014,0.4146728515625,0.01434326171875,0.89892578125,4.254302978515625,-3.147735595703125,-0.5084228515625,1.0,1.0,1.0,1.0,1.0,20.0,
2023-09-09 14:15:33.627,1.4819994,1.2295402,0.7806077,0.7476771,0.25073704,0.27616256,0.17665984,0.5604746,0.473437,0.24550255,-0.042816732,0.7212018,0.39882874,-0.01946984,0.032085065,0.3421609,-0.21429947,-0.59039545,-0.5785238,0.17484337,762.74725,827.619,809.0842,810.696,734.5421,0.4146728515625,0.01434326171875,0.89892578125,4.254302978515625,-3.147735595703125,-0.5084228515625,1.0,1.0,1.0,1.0,1.0,20.0,
2023-09-09 14:15:33.737,1.4819994,1.2295402,0.7806077,0.7476771,0.25073704,0.27616256,0.17665984,0.5604746,0.473437,0.24550255,-0.042816732,0.7212018,0.39882874,-0.01946984,0.032085065,0.3421609,-0.21429947,-0.59039545,-0.5785238,0.17484337,782.0879,810.696,804.65204,803.44324,604.3956,0.41607666015625,0.0137939453125,0.90081787109375,4.628143310546875,-2.474822998046875,-1.039276123046875,1.0,1.0,1.0,1.0,1.0,20.0,
2023-09-09 14:15:33.741,1.4819994,1.2497023,0.87613577,0.7501616,0.25073704,0.3038379,0.18076731,0.5985114,0.473437,0.24550255,-0.04319694,0.80282694,0.39882874,-0.008076717,0.05264966,0.37403485,-0.21429947,-0.60724735,-0.5526039,0.19284327,783.69965,806.6667,807.0696,795.78754,811.0989,0.41607666015625,0.0137939453125,0.90081787109375,4.628143310546875,-2.474822998046875,-1.039276123046875,1.0,1.0,1.0,1.0,1.0,20.0,
2023-09-09 14:15:33.784,1.4819994,1.2497023,0.87613577,0.7501616,0.25073704,0.3038379,0.18076731,0.5985114,0.473437,0.24550255,-0.04319694,0.80282694,0.39882874,-0.008076717,0.05264966,0.37403485,-0.21429947,-0.60724735,-0.5526039,0.19284327,769.59705,790.9524,792.5641,795.78754,746.63007,0.41802978515625,0.0111083984375,0.89898681640625,5.21881103515625,-2.91595458984375,-0.665435791015625,1.0,1.0,1.0,1.0,1.0,20.0,
2023-09-09 14:15:33.817,1.4819994,1.2497023,0.87613577,0.7501616,0.25073704,0.3038379,0.18076731,0.5985114,0.473437,0.24550255,-0.04319694,0.80282694,0.39882874,-0.008076717,0.05264966,0.37403485,-0.21429947,-0.60724735,-0.5526039,0.19284327,766.77655,807.8755,794.9817,806.6667,850.18317,0.42059326171875,0.0137939453125,0.8953857421875,5.405731201171875,-2.474822998046875,-0.785064697265625,1.0,1.0,1.0,1.0,1.0,20.0,
2023-09-09 14:15:33.822,1.4819994,1.2733252,0.9650411,0.7563695,0.25073704,0.32252997,0.18773925,0.63771933,0.473437,0.24550255,-0.03563569,0.8156247,0.39882874,0.0016787376,0.059945326,0.39914647,-0.21429947,-0.6264871,-0.5294308,0.20947884,758.315,815.9341,792.5641,795.38464,735.34796,0.42059326171875,0.0137939453125,0.8953857421875,5.405731201171875,-2.474822998046875,-0.785064697265625,1.0,1.0,1.0,1.0,1.0,20.0,
2023-09-09 14:15:33.864,1.4819994,1.2733252,0.9650411,0.7563695,0.25073704,0.32252997,0.18773925,0.63771933,0.473437,0.24550255,-0.03563569,0.8156247,0.39882874,0.0016787376,0.059945326,0.39914647,-0.21429947,-0.6264871,-0.5294308,0.20947884,768.3883,814.3223,784.5055,801.4286,693.8461,0.4189453125,0.015380859375,0.89935302734375,5.076751708984375,-2.773895263671875,-0.25421142578125,1.0,1.0,1.0,1.0,1.0,20.0,
2023-09-09 14:15:33.940,1.4819994,1.2733252,0.9650411,0.7563695,0.25073704,0.32252997,0.18773925,0.63771933,0.473437,0.24550255,-0.03563569,0.8156247,0.39882874,0.0016787376,0.059945326,0.39914647,-0.21429947,-0.6264871,-0.5294308,0.20947884,750.65936,805.8608,790.54944,819.5604,999.67035,0.419921875,0.0166015625,0.903564453125,5.286102294921875,-2.474822998046875,-0.545806884765625,1.0,1.0,1.0,1.0,1.0,20.0,
2023-09-09 14:15:33.948,1.4819994,1.3039664,1.039896,0.7635052,0.25073704,0.31919613,0.19200309,0.6639112,0.473437,0.24550255,-0.032245506,0.8232754,0.39882874,0.0053176004,0.05573143,0.41550875,-0.21429947,-0.64146227,-0.5083554,0.22208194,751.8681,804.2491,794.17584,787.72894,551.2088,0.419921875,0.0166015625,0.903564453125,5.286102294921875,-2.474822998046875,-0.545806884765625,1.0,1.0,1.0,1.0,1.0,20.0,
2023-09-09 14:15:34.037,1.4819994,1.3039664,1.039896,0.7635052,0.25073704,0.31919613,0.19200309,0.6639112,0.473437,0.24550255,-0.032245506,0.8232754,0.39882874,0.0053176004,0.05573143,0.41550875,-0.21429947,-0.64146227,-0.5083554,0.22208194,728.9011,809.0842,792.96704,793.7729,626.1539,0.41888427734375,0.0142822265625,0.90057373046875,5.241241455078125,-1.86920166015625,-1.0467529296875,1.0,1.0,1.0,1.0,1.0,20.0,
2023-09-09 14:15:34.045,1.4819994,1.3438321,1.0541773,0.81106555,0.25073704,0.282281,0.20267382,0.65919113,0.473437,0.24550255,-0.03422306,0.84090686,0.39882874,-0.0014546622,0.055455744,0.42563537,-0.21429947,-0.64530027,-0.49098885,0.22091521,739.3773,805.4579,791.75824,782.8938,689.41394,0.41888427734375,0.0142822265625,0.90057373046875,5.241241455078125,-1.86920166015625,-1.0467529296875,1.0,1.0,1.0,1.0,1.0,20.0,
2023-09-09 14:15:34.076,1.4819994,1.3438321,1.0541773,0.81106555,0.25073704,0.282281,0.20267382,0.65919113,0.473437,0.24550255,-0.03422306,0.84090686,0.39882874,-0.0014546622,0.055455744,0.42563537,-0.21429947,-0.64530027,-0.49098885,0.22091521,745.0183,800.2198,790.9524,788.5348,734.1392,0.4151611328125,0.02130126953125,0.90277099609375,5.7720947265625,-2.519683837890625,-1.009368896484375,1.0,1.0,1.0,1.0,1.0,20.0,
2023-09-09 14:15:34.109,1.4819994,1.3438321,1.0541773,0.81106555,0.25073704,0.282281,0.20267382,0.65919113,0.473437,0.24550255,-0.03422306,0.84090686,0.39882874,-0.0014546622,0.055455744,0.42563537,-0.21429947,-0.64530027,-0.49098885,0.22091521,759.5238,785.7143,784.10254,792.96704,768.3883,0.4183349609375,0.02349853515625,0.897705078125,5.674896240234375,-2.100982666015625,-1.472930908203125,1.0,1.0,1.0,1.0,1.0,20.0,
2023-09-09 14:15:34.148,1.4819994,1.3438321,1.0541773,0.81106555,0.25073704,0.282281,0.20267382,0.65919113,0.473437,0.24550255,-0.03422306,0.84090686,0.39882874,-0.0014546622,0.055455744,0.42563537,-0.21429947,-0.64530027,-0.49098885,0.22091521,757.50916,784.90845,796.99634,823.5897,724.0659,0.4151611328125,0.02154541015625,0.9019775390625,4.957122802734375,-2.1533203125,-1.39068603515625,1.0,1.0,1.0,1.0,1.0,20.0,
2023-09-09 14:15:34.150,1.4819994,1.3919903,1.074525,0.8507764,0.25073704,0.20893115,0.21251003,0.64364016,0.473437,0.24550255,-0.039843813,0.8940715,0.39882874,-0.017766928,0.060457997,0.43312934,-0.21429947,-0.63753575,-0.47226527,0.2128971,768.3883,789.7436,797.3993,831.6484,1025.0549,0.4151611328125,0.02154541015625,0.9019775390625,4.957122802734375,-2.1533203125,-1.39068603515625,1.0,1.0,1.0,1.0,1.0,20.0,
2023-09-09 14:15:34.222,1.4819994,1.3919903,1.074525,0.8507764,0.25073704,0.20893115,0.21251003,0.64364016,0.473437,0.24550255,-0.039843813,0.8940715,0.39882874,-0.017766928,0.060457997,0.43312934,-0.21429947,-0.63753575,-0.47226527,0.2128971,759.5238,788.93774,803.8461,817.1429,712.7839,0.4154052734375,0.0206298828125,0.90087890625,4.957122802734375,-2.534637451171875,-1.18133544921875,1.0,1.0,1.0,1.0,1.0,20.0,
2023-09-09 14:15:34.224,1.4819994,1.449836,1.1032159,0.87687874,0.25073704,0.11472459,0.19417572,0.6255052,0.473437,0.2447814,0.0423987,0.97355306,0.39882874,-0.03923363,0.061868973,0.4393207,-0.21429947,-0.6282765,-0.46149048,0.20127627,765.56775,793.7729,812.3077,809.4872,754.2857,0.4154052734375,0.0206298828125,0.90087890625,4.957122802734375,-2.534637451171875,-1.18133544921875,1.0,1.0,1.0,1.0,1.0,20.0,
2023-09-09 14:15:34.291,1.4819994,1.449836,1.1032159,0.87687874,0.25073704,0.11472459,0.19417572,0.6255052,0.473437,0.2447814,0.0423987,0.97355306,0.39882874,-0.03923363,0.061868973,0.4393207,-0.21429947,-0.6282765,-0.46149048,0.20127627,766.3736,803.8461,812.71063,826.4103,747.8388,0.4119873046875,0.01715087890625,0.904052734375,4.927215576171875,-3.1103515625,-0.897216796875,1.0,1.0,1.0,1.0,1.0,20.0,
2023-09-09 14:15:34.331,1.4819994,1.449836,1.1032159,0.87687874,0.25073704,0.11472459,0.19417572,0.6255052,0.473437,0.2447814,0.0423987,0.97355306,0.39882874,-0.03923363,0.061868973,0.4393207,-0.21429947,-0.6282765,-0.46149048,0.20127627,794.17584,803.0403,790.14655,798.20514,805.05493,0.41815185546875,0.0179443359375,0.901611328125,4.17205810546875,-2.88604736328125,-1.09161376953125,1.0,1.0,1.0,1.0,1.0,20.0,
2023-09-09 14:15:34.339,1.4819994,1.5143805,1.1267898,0.8993004,0.25073704,0.027494982,0.171125,0.61202586,0.473437,0.22618723,0.038525686,1.0268264,0.39882874,-0.064806804,0.06331131,0.4440527,-0.21429947,-0.6246733,-0.45995912,0.19032273,809.0842,802.6374,799.81683,812.71063,812.71063,0.41815185546875,0.0179443359375,0.901611328125,4.17205810546875,-2.88604736328125,-1.09161376953125,1.0,1.0,1.0,1.0,1.0,20.0,
2023-09-09 14:15:34.379,1.4819994,1.5143805,1.1267898,0.8993004,0.25073704,0.027494982,0.171125,0.61202586,0.473437,0.22618723,0.038525686,1.0268264,0.39882874,-0.064806804,0.06331131,0.4440527,-0.21429947,-0.6246733,-0.45995912,0.19032273,801.8315,784.90845,800.2198,808.2784,694.65204,0.41534423828125,0.02069091796875,0.90167236328125,4.747772216796875,-2.474822998046875,-0.979461669921875,1.0,1.0,1.0,1.0,1.0,20.0,
2023-09-09 14:15:34.443,1.4819994,1.5143805,1.1267898,0.8993004,0.25073704,0.027494982,0.171125,0.61202586,0.473437,0.22618723,0.038525686,1.0268264,0.39882874,-0.064806804,0.06331131,0.4440527,-0.21429947,-0.6246733,-0.45995912,0.19032273,819.5604,803.8461,813.5165,816.337,636.2271,0.4185791015625,0.0205078125,0.90191650390625,5.203857421875,-1.8841552734375,-1.12152099609375,1.0,1.0,1.0,1.0,1.0,20.0,
2023-09-09 14:15:34.448,1.4819994,1.5143805,1.1486217,0.9460078,0.25073704,0.027494982,0.1584286,0.5876676,0.473437,0.22618723,0.038525686,1.0365636,0.39882874,-0.064806804,0.060039293,0.45907032,-0.21429947,-0.6246733,-0.46312565,0.18294825,841.31866,805.4579,816.337,830.0366,891.28204,0.4185791015625,0.0205078125,0.90191650390625,5.203857421875,-1.8841552734375,-1.12152099609375,1.0,1.0,1.0,1.0,1.0,20.0,
2023-09-09 14:15:34.543,1.4819994,1.5143805,1.1486217,0.9460078,0.25073704,0.027494982,0.1584286,0.5876676,0.473437,0.22618723,0.038525686,1.0365636,0.39882874,-0.064806804,0.060039293,0.45907032,-0.21429947,-0.6246733,-0.46312565,0.18294825,672.8938,772.4176,839.707,675.31134,759.5238,0.41796875,0.0252685546875,0.8988037109375,5.001983642578125,-2.115936279296875,-0.3289794921875,1.0,1.0,1.0,1.0,1.0,20.0,
2023-09-09 14:15:34.549,1.4819994,1.5143805,1.1724442,0.96251225,0.25073704,0.027494982,0.16602425,0.56625843,0.473437,0.22618723,0.0837958,1.0365636,0.39882874,-0.064806804,0.053676777,0.472089,-0.21429947,-0.6246733,-0.46563107,0.17973757,750.65936,778.46155,827.619,733.73627,1140.6959,0.41796875,0.0252685546875,0.8988037109375,5.001983642578125,-2.115936279296875,-0.3289794921875,1.0,1.0,1.0,1.0,1.0,20.0,
2023-09-09 14:15:34.592,1.4819994,1.5143805,1.1724442,0.96251225,0.25073704,0.027494982,0.16602425,0.56625843,0.473437,0.22618723,0.0837958,1.0365636,0.39882874,-0.064806804,0.053676777,0.472089,-0.21429947,-0.6246733,-0.46563107,0.17973757,779.67035,771.6117,820.3663,756.7033,686.99634,0.4163818359375,0.02044677734375,0.8968505859375,4.463653564453125,-2.534637451171875,-0.59814453125,1.0,1.0,1.0,1.0,1.0,20.0,
2023-09-09 14:15:34.659,1.4819994,1.5143805,1.1724442,0.96251225,0.25073704,0.027494982,0.16602425,0.56625843,0.473437,0.22618723,0.0837958,1.0365636,0.39882874,-0.064806804,0.053676777,0.472089,-0.21429947,-0.6246733,-0.46563107,0.17973757,838.49817,782.0879,800.2198,814.3223,937.2161,0.41546630859375,0.01959228515625,0.90252685546875,4.38140869140625,-2.086029052734375,-0.777587890625,1.0,1.0,1.0,1.0,1.0,20.0,
2023-09-09 14:15:34.668,1.4819994,1.5143805,1.1943812,0.9758475,0.25073704,0.027494982,0.18991974,0.555447,0.473437,0.22618723,0.20323245,1.0365636,0.39882874,-0.064806804,0.052816186,0.48487535,-0.21429947,-0.6246733,-0.47015908,0.17246373,833.663,788.5348,796.99634,829.6337,910.2198,0.41546630859375,0.01959228515625,0.90252685546875,4.38140869140625,-2.086029052734375,-0.777587890625,1.0,1.0,1.0,1.0,1.0,20.0,
2023-09-09 14:15:34.701,1.4819994,1.5143805,1.1943812,0.9758475,0.25073704,0.027494982,0.18991974,0.555447,0.473437,0.22618723,0.20323245,1.0365636,0.39882874,-0.064806804,0.052816186,0.48487535,-0.21429947,-0.6246733,-0.47015908,0.17246373,826.8132,786.9231,797.8022,829.6337,769.19415,0.41253662109375,0.017333984375,0.89801025390625,4.433746337890625,-2.624359130859375,-0.76263427734375,1.0,1.0,1.0,1.0,1.0,20.0,
2023-09-09 14:15:34.794,1.4819994,1.5143805,1.1943812,0.9758475,0.25073704,0.027494982,0.18991974,0.555447,0.473437,0.22618723,0.20323245,1.0365636,0.39882874,-0.064806804,0.052816186,0.48487535,-0.21429947,-0.6246733,-0.47015908,0.17246373,824.7985,784.10254,786.52014,817.1429,837.28937,0.4130859375,0.019775390625,0.90338134765625,5.360870361328125,-2.833709716796875,-0.112152099609375,1.0,1.0,1.0,1.0,1.0,20.0,
2023-09-09 14:15:34.795,1.4819994,1.5143805,1.2219132,0.98575586,0.25073704,0.027494982,0.2280135,0.5612111,0.473437,0.22618723,0.42431754,1.0365636,0.39882874,-0.064806804,0.06487532,0.49715948,-0.21429947,-0.6246733,-0.48089617,0.16444902,814.3223,785.31134,785.7143,811.0989,740.989,0.4130859375,0.019775390625,0.90338134765625,5.360870361328125,-2.833709716796875,-0.112152099609375,1.0,1.0,1.0,1.0,1.0,20.0,
2023-09-09 14:15:34.841,1.4819994,1.5143805,1.2219132,0.98575586,0.25073704,0.027494982,0.2280135,0.5612111,0.473437,0.22618723,0.42431754,1.0365636,0.39882874,-0.064806804,0.06487532,0.49715948,-0.21429947,-0.6246733,-0.48089617,0.16444902,815.5311,808.2784,794.17584,799.81683,621.7216,0.4166259765625,0.020751953125,0.8992919921875,4.42626953125,-3.147735595703125,-0.70281982421875,1.0,1.0,1.0,1.0,1.0,20.0,
2023-09-09 14:15:34.850,1.4819994,1.5143805,1.2219132,0.98575586,0.25073704,0.027494982,0.2280135,0.5612111,0.473437,0.22618723,0.42431754,1.0365636,0.39882874,-0.064806804,0.06487532,0.49715948,-0.21429947,-0.6246733,-0.48089617,0.16444902,798.60803,836.8865,802.23444,806.6667,718.022,0.41998291015625,0.01708984375,0.89947509765625,4.18701171875,-2.684173583984375,-0.471038818359375,1.0,1.0,1.0,1.0,1.0,20.0,
2023-09-09 14:15:34.852,1.4819994,1.5143805,1.2639207,0.9964827,0.25073704,0.027494982,0.30332956,0.58009106,0.473437,0.22618723,0.6098077,1.0365636,0.39882874,-0.064806804,0.08536762,0.5111406,-0.21429947,-0.6246733,-0.49406233,0.16105205,792.96704,847.76556,804.65204,801.8315,645.09155,0.41998291015625,0.01708984375,0.89947509765625,4.18701171875,-2.684173583984375,-0.471038818359375,1.0,1.0,1.0,1.0,1.0,20.0,
2023-09-09 14:15:34.927,1.4819994,1.5143805,1.2639207,0.9964827,0.25073704,0.027494982,0.30332956,0.58009106,0.473437,0.22618723,0.6098077,1.0365636,0.39882874,-0.064806804,0.08536762,0.5111406,-0.21429947,-0.6246733,-0.49406233,0.16105205,787.72894,845.7509,795.38464,802.23444,836.4835,0.41949462890625,0.02093505859375,0.896728515625,4.613189697265625,-2.9608154296875,-0.43365478515625,1.0,1.0,1.0,1.0,1.0,20.0,
2023-09-09 14:15:34.978,1.4819994,1.5143805,1.2639207,0.9964827,0.25073704,0.027494982,0.30332956,0.58009106,0.473437,0.22618723,0.6098077,1.0365636,0.39882874,-0.064806804,0.08536762,0.5111406,-0.21429947,-0.6246733,-0.49406233,0.16105205,785.31134,828.8278,794.17584,799.011,705.12823,0.413330078125,0.0201416015625,0.8988037109375,4.747772216796875,-2.4822998046875,-0.5084228515625,1.0,1.0,1.0,1.0,1.0,20.0,
2023-09-09 14:15:34.983,1.4819994,1.5143805,1.3201827,1.0158184,0.25073704,0.027494982,0.40439025,0.60280603,0.473437,0.22618723,0.7041298,1.0365636,0.39882874,-0.064806804,0.09955317,0.5272116,-0.21429947,-0.6246733,-0.49959472,0.16490704,784.90845,825.6044,803.44324,809.89014,790.54944,0.413330078125,0.0201416015625,0.8988037109375,4.747772216796875,-2.4822998046875,-0.5084228515625,1.0,1.0,1.0,1.0,1.0,20.0,
2023-09-09 14:15:35.043,1.4819994,1.5143805,1.3201827,1.0158184,0.25073704,0.027494982,0.40439025,0.60280603,0.473437,0.22618723,0.7041298,1.0365636,0.39882874,-0.064806804,0.09955317,0.5272116,-0.21429947,-0.6246733,-0.49959472,0.16490704,809.89014,798.20514,783.69965,794.9817,1100.8059,0.41241455078125,0.0155029296875,0.9044189453125,4.41131591796875,-3.1103515625,-0.695343017578125,1.0,1.0,1.0,1.0,1.0,20.0,
2023-09-09 14:15:35.048,1.4819994,1.5143805,1.3744775,1.0452586,0.25073704,0.027494982,0.49441642,0.6164005,0.473437,0.22618723,0.73926926,1.0365636,0.39882874,-0.064806804,0.09594963,0.5405046,-0.21429947,-0.6246733,-0.49004894,0.17054951,806.6667,796.99634,785.31134,796.5934,1059.7069,0.41241455078125,0.0155029296875,0.9044189453125,4.41131591796875,-3.1103515625,-0.695343017578125,1.0,1.0,1.0,1.0,1.0,20.0,
2023-09-09 14:15:35.087,1.4819994,1.5143805,1.3744775,1.0452586,0.25073704,0.027494982,0.49441642,0.6164005,0.473437,0.22618723,0.73926926,1.0365636,0.39882874,-0.064806804,0.09594963,0.5405046,-0.21429947,-0.6246733,-0.49004894,0.17054951,779.67035,802.6374,786.1172,776.8498,569.34064,0.42315673828125,0.01605224609375,0.89630126953125,4.508514404296875,-2.9010009765625,-0.2093505859375,1.0,1.0,1.0,1.0,1.0,20.0,
2023-09-09 14:15:35.124,1.4819994,1.5143805,1.3744775,1.0452586,0.25073704,0.027494982,0.49441642,0.6164005,0.473437,0.22618723,0.73926926,1.0365636,0.39882874,-0.064806804,0.09594963,0.5405046,-0.21429947,-0.6246733,-0.49004894,0.17054951,768.3883,807.47253,779.67035,782.8938,739.7802,0.41412353515625,0.0196533203125,0.90045166015625,5.001983642578125,-2.25799560546875,0.605621337890625,1.0,1.0,1.0,1.0,1.0,20.0,
2023-09-09 14:15:35.141,1.4819994,1.5143805,1.3817345,1.0782539,0.25073704,0.027494982,0.5188979,0.60901076,0.473437,0.22618723,0.73926926,1.0354419,0.39882874,-0.064806804,0.08221577,0.543107,-0.21429947,-0.6246733,-0.49788418,0.16861804,751.4652,817.9487,790.54944,798.20514,701.0989,0.41412353515625,0.0196533203125,0.90045166015625,5.001983642578125,-2.25799560546875,0.605621337890625,1.0,1.0,1.0,1.0,1.0,20.0,
2023-09-09 14:15:35.181,1.4819994,1.5143805,1.3817345,1.0782539,0.25073704,0.027494982,0.5188979,0.60901076,0.473437,0.22618723,0.73926926,1.0354419,0.39882874,-0.064806804,0.08221577,0.543107,-0.21429947,-0.6246733,-0.49788418,0.16861804,753.0769,822.7839,793.36993,801.4286,784.5055,0.41278076171875,0.020751953125,0.90203857421875,5.263671875,-2.213134765625,-0.695343017578125,1.0,1.0,1.0,1.0,1.0,20.0,
2023-09-09 14:15:35.222,1.4819994,1.5143805,1.3753734,1.1088967,0.25073704,0.027494982,0.5463851,0.5744937,0.473437,0.22618723,0.73926926,1.0348407,0.39882874,-0.064806804,0.06849745,0.53334266,-0.21429947,-0.6246733,-0.50456864,0.15144403,750.2564,811.9048,794.9817,801.8315,703.91943,0.41278076171875,0.020751953125,0.90203857421875,5.263671875,-2.213134765625,-0.695343017578125,1.0,1.0,1.0,1.0,1.0,20.0,
2023-09-09 14:15:35.306,1.4819994,1.5143805,1.3753734,1.1088967,0.25073704,0.027494982,0.5463851,0.5744937,0.473437,0.22618723,0.73926926,1.0348407,0.39882874,-0.064806804,0.06849745,0.53334266,-0.21429947,-0.6246733,-0.50456864,0.15144403,763.5531,810.293,799.011,815.5311,847.76556,0.41705322265625,0.0186767578125,0.9013671875,4.56085205078125,-2.9608154296875,-1.308441162109375,1.0,1.0,1.0,1.0,1.0,20.0,
2023-09-09 14:15:35.342,1.4819994,1.5143805,1.3753734,1.1088967,0.25073704,0.027494982,0.5463851,0.5744937,0.473437,0.22618723,0.73926926,1.0348407,0.39882874,-0.064806804,0.06849745,0.53334266,-0.21429947,-0.6246733,-0.50456864,0.15144403,742.6007,824.7985,808.68134,806.6667,825.2015,0.4193115234375,0.01397705078125,0.89990234375,4.299163818359375,-2.863616943359375,-1.069183349609375,1.0,1.0,1.0,1.0,1.0,20.0,
2023-09-09 14:15:35.378,1.4819994,1.5143805,1.3753734,1.1088967,0.25073704,0.027494982,0.5463851,0.5744937,0.473437,0.22618723,0.73926926,1.0348407,0.39882874,-0.064806804,0.06849745,0.53334266,-0.21429947,-0.6246733,-0.50456864,0.15144403,723.663,813.5165,808.2784,796.5934,618.0952,0.41290283203125,0.01605224609375,0.901123046875,4.44122314453125,-2.61688232421875,-1.353302001953125,1.0,1.0,1.0,1.0,1.0,20.0,
2023-09-09 14:15:35.379,1.4819994,1.5143805,1.3597165,1.1368116,0.25073704,0.027494982,0.57527083,0.51474196,0.473437,0.22618723,0.73926926,1.0033337,0.39882874,-0.064806804,0.062426552,0.51939505,-0.21429947,-0.6246733,-0.5101037,0.11961334,724.4689,813.5165,803.44324,796.99634,720.4396,0.41290283203125,0.01605224609375,0.901123046875,4.44122314453125,-2.61688232421875,-1.353302001953125,1.0,1.0,1.0,1.0,1.0,20.0,
2023-09-09 14:15:35.411,1.4819994,1.5143805,1.3597165,1.1368116,0.25073704,0.027494982,0.57527083,0.51474196,0.473437,0.22618723,0.73926926,1.0033337,0.39882874,-0.064806804,0.062426552,0.51939505,-0.21429947,-0.6246733,-0.5101037,0.11961334,736.1539,810.696,794.57874,804.65204,998.46155,0.418701171875,0.0145263671875,0.90283203125,4.867401123046875,-3.1402587890625,-0.76263427734375,1.0,1.0,1.0,1.0,1.0,20.0,
2023-09-09 14:15:35.474,1.4819994,1.5143805,1.3597165,1.1368116,0.25073704,0.027494982,0.57527083,0.51474196,0.473437,0.22618723,0.73926926,1.0033337,0.39882874,-0.064806804,0.062426552,0.51939505,-0.21429947,-0.6246733,-0.5101037,0.11961334,728.49817,809.89014,802.6374,808.2784,657.5824,0.41650390625,0.01751708984375,0.8974609375,4.41131591796875,-2.145843505859375,-0.785064697265625,1.0,1.0,1.0,1.0,1.0,20.0,
2023-09-09 14:15:35.477,1.4819994,1.5143805,1.310451,1.1555344,0.25073704,0.027494982,0.57140946,0.44593605,0.473437,0.22618723,0.73926926,0.9546123,0.39882874,-0.064806804,0.054149386,0.510164,-0.21429947,-0.6246733,-0.47913167,0.07886446,726.08057,813.5165,814.3223,821.1722,896.1172,0.41650390625,0.01751708984375,0.8974609375,4.41131591796875,-2.145843505859375,-0.785064697265625,1.0,1.0,1.0,1.0,1.0,20.0,
2023-09-09 14:15:35.564,1.4819994,1.5143805,1.310451,1.1555344,0.25073704,0.027494982,0.57140946,0.44593605,0.473437,0.22618723,0.73926926,0.9546123,0.39882874,-0.064806804,0.054149386,0.510164,-0.21429947,-0.6246733,-0.47913167,0.07886446,725.2747,794.17584,810.293,815.12823,807.0696,0.41802978515625,0.01885986328125,0.89703369140625,4.164581298828125,-2.4224853515625,-1.0467529296875,1.0,1.0,1.0,1.0,1.0,20.0,
2023-09-09 14:15:35.567,1.4819994,1.5143805,1.2833918,1.158929,0.25073704,0.027494982,0.5367845,0.3956192,0.473437,0.22618723,0.73926926,0.9030714,0.39882874,-0.064806804,0.043562446,0.50669533,-0.21429947,-0.6246733,-0.46500358,0.039587595,744.21246,801.02563,811.0989,811.50183,893.2967,0.41802978515625,0.01885986328125,0.89703369140625,4.164581298828125,-2.4224853515625,-1.0467529296875,1.0,1.0,1.0,1.0,1.0,20.0,
2023-09-09 14:15:35.599,1.4819994,1.5143805,1.2833918,1.158929,0.25073704,0.027494982,0.5367845,0.3956192,0.473437,0.22618723,0.73926926,0.9030714,0.39882874,-0.064806804,0.043562446,0.50669533,-0.21429947,-0.6246733,-0.46500358,0.039587595,722.8571,800.6227,812.71063,800.2198,622.9304,0.4171142578125,0.01715087890625,0.90191650390625,4.732818603515625,-2.654266357421875,-0.418701171875,1.0,1.0,1.0,1.0,1.0,20.0,
2023-09-09 14:15:35.693,1.4819994,1.5143805,1.2833918,1.158929,0.25073704,0.027494982,0.5367845,0.3956192,0.473437,0.22618723,0.73926926,0.9030714,0.39882874,-0.064806804,0.043562446,0.50669533,-0.21429947,-0.6246733,-0.46500358,0.039587595,819.9634,805.05493,815.9341,801.8315,811.50183,0.412841796875,0.01788330078125,0.90289306640625,5.323486328125,-2.13836669921875,-0.25421142578125,1.0,1.0,1.0,1.0,1.0,20.0,
2023-09-09 14:15:35.699,1.4819994,1.5143805,1.2616805,1.158929,0.25073704,0.027494982,0.5070615,0.3956192,0.473437,0.22618723,0.73926926,0.9030714,0.39882874,-0.064806804,0.033294577,0.50669533,-0.21429947,-0.6246733,-0.46716726,0.039587595,823.1868,812.71063,810.696,810.293,790.9524,0.412841796875,0.01788330078125,0.90289306640625,5.323486328125,-2.13836669921875,-0.25421142578125,1.0,1.0,1.0,1.0,1.0,20.0,
2023-09-09 14:15:35.735,1.4819994,1.5143805,1.2616805,1.158929,0.25073704,0.027494982,0.5070615,0.3956192,0.473437,0.22618723,0.73926926,0.9030714,0.39882874,-0.064806804,0.033294577,0.50669533,-0.21429947,-0.6246733,-0.46716726,0.039587595,838.0952,809.4872,809.4872,813.1135,945.2747,0.41485595703125,0.0196533203125,0.9022216796875,4.403839111328125,-2.76641845703125,-0.650482177734375,1.0,1.0,1.0,1.0,1.0,20.0,
