TimeStamp,Delta_TP9,Delta_AF7,Delta_AF8,Delta_TP10,Theta_TP9,Theta_AF7,Theta_AF8,Theta_TP10,Alpha_TP9,Alpha_AF7,Alpha_AF8,Alpha_TP10,Beta_TP9,Beta_AF7,Beta_AF8,Beta_TP10,Gamma_TP9,Gamma_AF7,Gamma_AF8,Gamma_TP10,RAW_TP9,RAW_AF7,RAW_AF8,RAW_TP10,AUX_RIGHT,Accelerometer_X,Accelerometer_Y,Accelerometer_Z,Gyro_X,Gyro_Y,Gyro_Z,HeadBandOn,HSI_TP9,HSI_AF7,HSI_AF8,HSI_TP10,Battery,Elements
2023-09-10 00:17:48.226,1.1959028,0.54272234,0.40452614,1.1565709,0.84104407,0.23114876,0.08939355,0.34477967,0.8253311,0.2974834,0.16714337,0.60700554,0.4263695,0.04472562,0.03433802,0.51045895,0.10809661,-0.20491663,-0.42250434,0.21052971,772.01465,791.3553,790.9524,765.16486,701.50183,0.15643310546875,-0.209228515625,0.973388671875,7.917938232421875,-9.61517333984375,2.998199462890625,1.0,1.0,1.0,1.0,1.0,25.0,
2023-09-10 00:17:48.227,1.2044636,0.52912515,0.38250178,1.1406813,0.8385158,0.24193303,0.072748445,0.33364794,0.8111119,0.27945113,0.15561973,0.63418895,0.43182525,0.05156468,0.03286809,0.5200209,0.1047569,-0.19866374,-0.42187846,0.20132788,787.72894,792.96704,790.14655,781.685,749.0476,0.15643310546875,-0.209228515625,0.973388671875,7.917938232421875,-9.61517333984375,2.998199462890625,1.0,1.0,1.0,1.0,1.0,25.0,
2023-09-10 00:17:48.276,1.2044636,0.52912515,0.38250178,1.1406813,0.8385158,0.24193303,0.072748445,0.33364794,0.8111119,0.27945113,0.15561973,0.63418895,0.43182525,0.05156468,0.03286809,0.5200209,0.1047569,-0.19866374,-0.42187846,0.20132788,796.99634,798.60803,783.69965,793.36993,698.2784,0.16094970703125,-0.202392578125,0.98101806640625,6.50482177734375,-7.9852294921875,4.41131591796875,1.0,1.0,1.0,1.0,1.0,25.0,
2023-09-10 00:17:48.291,1.2044636,0.52912515,0.38250178,1.1406813,0.8385158,0.24193303,0.072748445,0.33364794,0.8111119,0.27945113,0.15561973,0.63418895,0.43182525,0.05156468,0.03286809,0.5200209,0.1047569,-0.19866374,-0.42187846,0.20132788,781.685,799.41394,797.8022,797.8022,727.6923,0.14990234375,-0.2025146484375,0.9783935546875,6.2506103515625,-4.65057373046875,4.605712890625,1.0,1.0,1.0,1.0,1.0,25.0,
2023-09-10 00:17:48.293,1.2068144,0.5099865,0.3488189,1.114827,0.81539154,0.25193107,0.057781,0.31104857,0.80810887,0.27590084,0.15561973,0.6592573,0.43945453,0.05104734,0.03094134,0.53694457,0.09053299,-0.19415338,-0.41396403,0.19409049,801.02563,803.44324,792.1612,799.011,711.978,0.14990234375,-0.2025146484375,0.9783935546875,6.2506103515625,-4.65057373046875,4.605712890625,1.0,1.0,1.0,1.0,1.0,25.0,
2023-09-10 00:17:48.347,1.2068144,0.5099865,0.3488189,1.114827,0.81539154,0.25193107,0.057781,0.31104857,0.80810887,0.27590084,0.15561973,0.6592573,0.43945453,0.05104734,0.03094134,0.53694457,0.09053299,-0.19415338,-0.41396403,0.19409049,807.47253,803.44324,790.14655,806.26373,842.1245,0.14520263671875,-0.19769287109375,0.96490478515625,5.854339599609375,-2.474822998046875,2.093505859375,1.0,1.0,1.0,1.0,1.0,25.0,
2023-09-10 00:17:48.350,1.1606266,0.4890025,0.31459355,1.084349,0.73948187,0.26179883,0.044742536,0.28455904,0.8073787,0.23446716,0.1454623,0.6827198,0.4272364,0.0399539,0.018626662,0.55284524,0.061231952,-0.19467278,-0.40653935,0.18538365,789.34064,788.93774,790.9524,807.47253,810.293,0.14520263671875,-0.19769287109375,0.96490478515625,5.854339599609375,-2.474822998046875,2.093505859375,1.0,1.0,1.0,1.0,1.0,25.0,
2023-09-10 00:17:48.384,1.1606266,0.4890025,0.31459355,1.084349,0.73948187,0.26179883,0.044742536,0.28455904,0.8073787,0.23446716,0.1454623,0.6827198,0.4272364,0.0399539,0.018626662,0.55284524,0.061231952,-0.19467278,-0.40653935,0.18538365,785.7143,796.1905,792.96704,789.34064,863.0769,0.14630126953125,-0.1883544921875,0.9686279296875,7.484283447265625,-1.4654541015625,0.590667724609375,1.0,1.0,1.0,1.0,1.0,25.0,
2023-09-10 00:17:48.451,1.1606266,0.4890025,0.31459355,1.084349,0.73948187,0.26179883,0.044742536,0.28455904,0.8073787,0.23446716,0.1454623,0.6827198,0.4272364,0.0399539,0.018626662,0.55284524,0.061231952,-0.19467278,-0.40653935,0.18538365,790.14655,804.2491,794.9817,784.5055,731.31866,0.13226318359375,-0.20062255859375,0.9779052734375,5.36834716796875,-1.443023681640625,-1.084136962890625,1.0,1.0,1.0,1.0,1.0,25.0,
2023-09-10 00:17:48.456,1.097472,0.46263513,0.28560564,1.0561976,0.6457026,0.2714408,0.034373127,0.26330316,0.78601414,0.185538,0.13925256,0.71614295,0.41741997,0.020365268,-0.007830295,0.5595888,0.041280434,-0.20371936,-0.401597,0.1738155,803.44324,802.6374,788.1319,801.8315,1165.6776,0.13226318359375,-0.20062255859375,0.9779052734375,5.36834716796875,-1.443023681640625,-1.084136962890625,1.0,1.0,1.0,1.0,1.0,25.0,
2023-09-10 00:17:48.485,1.097472,0.46263513,0.28560564,1.0561976,0.6457026,0.2714408,0.034373127,0.26330316,0.78601414,0.185538,0.13925256,0.71614295,0.41741997,0.020365268,-0.007830295,0.5595888,0.041280434,-0.20371936,-0.401597,0.1738155,795.38464,797.3993,797.3993,808.68134,820.7692,0.1572265625,-0.21185302734375,0.97265625,2.9010009765625,-3.641204833984375,-1.592559814453125,1.0,1.0,1.0,1.0,1.0,25.0,
2023-09-10 00:17:48.548,1.0245694,0.4364037,0.26480883,1.0339278,0.5529808,0.28136304,0.027723672,0.2544509,0.7014408,0.16682135,0.12654907,0.7523686,0.40014282,-0.00187922,-0.041802354,0.5566426,0.0347998,-0.22058116,-0.3943502,0.16138993,809.0842,801.8315,794.17584,831.6484,966.2271,0.1572265625,-0.21185302734375,0.97265625,2.9010009765625,-3.641204833984375,-1.592559814453125,1.0,1.0,1.0,1.0,1.0,25.0,
2023-09-10 00:17:48.587,1.0245694,0.4364037,0.26480883,1.0339278,0.5529808,0.28136304,0.027723672,0.2544509,0.7014408,0.16682135,0.12654907,0.7523686,0.40014282,-0.00187922,-0.041802354,0.5566426,0.0347998,-0.22058116,-0.3943502,0.16138993,786.1172,801.4286,794.9817,795.78754,586.26373,0.16644287109375,-0.20196533203125,0.9671630859375,4.478607177734375,-1.443023681640625,0.2691650390625,1.0,1.0,1.0,1.0,1.0,25.0,
2023-09-10 00:17:48.643,1.0245694,0.4364037,0.26480883,1.0339278,0.5529808,0.28136304,0.027723672,0.2544509,0.7014408,0.16682135,0.12654907,0.7523686,0.40014282,-0.00187922,-0.041802354,0.5566426,0.0347998,-0.22058116,-0.3943502,0.16138993,817.9487,790.54944,794.57874,820.3663,774.43225,0.1583251953125,-0.17816162109375,0.981689453125,5.39825439453125,0.7177734375,0.7476806640625,1.0,1.0,1.0,1.0,1.0,25.0,
2023-09-10 00:17:48.652,0.95030767,0.40822524,0.23997281,1.0168085,0.47353622,0.29363382,0.024916856,0.25955367,0.6152113,0.2113316,0.097007856,0.7566614,0.36728692,-0.022374885,-0.0721654,0.5483879,0.036532596,-0.24055007,-0.38209838,0.14978574,802.6374,785.7143,790.54944,818.7546,780.07324,0.1583251953125,-0.17816162109375,0.981689453125,5.39825439453125,0.7177734375,0.7476806640625,1.0,1.0,1.0,1.0,1.0,25.0,
2023-09-10 00:17:48.682,0.95030767,0.40822524,0.23997281,1.0168085,0.47353622,0.29363382,0.024916856,0.25955367,0.6152113,0.2113316,0.097007856,0.7566614,0.36728692,-0.022374885,-0.0721654,0.5483879,0.036532596,-0.24055007,-0.38209838,0.14978574,792.96704,786.52014,786.52014,798.20514,728.0952,0.07867431640625,-0.19921875,0.97222900390625,7.588958740234375,4.119720458984375,-2.429962158203125,1.0,1.0,1.0,1.0,1.0,25.0,
2023-09-10 00:17:48.726,0.95030767,0.40822524,0.23997281,1.0168085,0.47353622,0.29363382,0.024916856,0.25955367,0.6152113,0.2113316,0.097007856,0.7566614,0.36728692,-0.022374885,-0.0721654,0.5483879,0.036532596,-0.24055007,-0.38209838,0.14978574,810.696,796.5934,793.36993,801.4286,820.3663,0.1392822265625,-0.213623046875,0.9815673828125,2.400054931640625,-0.0,-10.06378173828125,1.0,1.0,1.0,1.0,1.0,25.0,
2023-09-10 00:17:48.761,0.95030767,0.40822524,0.23997281,1.0168085,0.47353622,0.29363382,0.024916856,0.25955367,0.6152113,0.2113316,0.097007856,0.7566614,0.36728692,-0.022374885,-0.0721654,0.5483879,0.036532596,-0.24055007,-0.38209838,0.14978574,804.65204,793.7729,795.78754,817.9487,993.22345,0.1895751953125,-0.21307373046875,0.97357177734375,4.553375244140625,-3.431854248046875,-3.596343994140625,1.0,1.0,1.0,1.0,1.0,25.0,
2023-09-10 00:17:48.761,0.87723786,0.3788762,0.20820287,1.0041882,0.3993084,0.30770773,0.019852333,0.27185637,0.5719495,0.25820744,0.095762424,0.7566614,0.31386757,-0.042171232,-0.09433777,0.5389854,0.037451755,-0.26024172,-0.36846983,0.13853566,797.8022,792.96704,800.2198,805.8608,745.82416,0.1895751953125,-0.21307373046875,0.97357177734375,4.553375244140625,-3.431854248046875,-3.596343994140625,1.0,1.0,1.0,1.0,1.0,25.0,
2023-09-10 00:17:48.882,0.87723786,0.3788762,0.20820287,1.0041882,0.3993084,0.30770773,0.019852333,0.27185637,0.5719495,0.25820744,0.095762424,0.7566614,0.31386757,-0.042171232,-0.09433777,0.5389854,0.037451755,-0.26024172,-0.36846983,0.13853566,784.90845,793.7729,799.011,792.96704,676.1172,0.16412353515625,-0.2177734375,0.9622802734375,5.3533935546875,1.951446533203125,1.48040771484375,1.0,1.0,1.0,1.0,1.0,25.0,
2023-09-10 00:17:48.885,0.83072275,0.3439727,0.16723278,0.9681676,0.352279,0.3198342,0.0013177118,0.27720916,0.543493,0.29639348,0.09195163,0.7368362,0.26998574,-0.06640481,-0.114242904,0.5408486,0.04249931,-0.28006065,-0.36011103,0.121506386,768.7912,797.3993,794.9817,790.9524,750.2564,0.16412353515625,-0.2177734375,0.9622802734375,5.3533935546875,1.951446533203125,1.48040771484375,1.0,1.0,1.0,1.0,1.0,25.0,
2023-09-10 00:17:48.946,0.83072275,0.3439727,0.16723278,0.9681676,0.352279,0.3198342,0.0013177118,0.27720916,0.543493,0.29639348,0.09195163,0.7368362,0.26998574,-0.06640481,-0.114242904,0.5408486,0.04249931,-0.28006065,-0.36011103,0.121506386,800.2198,798.20514,795.38464,819.5604,723.2601,0.1314697265625,-0.2081298828125,0.973876953125,5.674896240234375,5.27862548828125,-0.171966552734375,1.0,1.0,1.0,1.0,1.0,25.0,
2023-09-10 00:17:48.981,0.83072275,0.3439727,0.16723278,0.9681676,0.352279,0.3198342,0.0013177118,0.27720916,0.543493,0.29639348,0.09195163,0.7368362,0.26998574,-0.06640481,-0.114242904,0.5408486,0.04249931,-0.28006065,-0.36011103,0.121506386,803.8461,796.1905,799.81683,782.49084,562.8938,0.09368896484375,-0.21868896484375,0.9566650390625,3.730926513671875,6.198272705078125,-0.171966552734375,1.0,1.0,1.0,1.0,1.0,25.0,
2023-09-10 00:17:48.985,0.7653381,0.286911,0.11253756,0.95205086,0.28082255,0.32444462,-0.036015194,0.27617723,0.52652955,0.31243476,0.053830914,0.7368362,0.21714616,-0.097217724,-0.13937591,0.5407865,0.04488968,-0.30186275,-0.360942,0.095714115,784.10254,794.9817,802.23444,791.75824,779.67035,0.09368896484375,-0.21868896484375,0.9566650390625,3.730926513671875,6.198272705078125,-0.171966552734375,1.0,1.0,1.0,1.0,1.0,25.0,
2023-09-10 00:17:48.999,0.7653381,0.286911,0.11253756,0.95205086,0.28082255,0.32444462,-0.036015194,0.27617723,0.52652955,0.31243476,0.053830914,0.7368362,0.21714616,-0.097217724,-0.13937591,0.5407865,0.04488968,-0.30186275,-0.360942,0.095714115,806.6667,796.5934,801.4286,813.1135,749.85345,0.07861328125,-0.21063232421875,0.9564208984375,3.93280029296875,1.4056396484375,2.1832275390625,1.0,1.0,1.0,1.0,1.0,25.0,
2023-09-10 00:17:49.067,0.6701514,0.20590998,0.042276617,0.9462627,0.18061599,0.31872115,-0.082042634,0.2701487,0.45981145,0.31648955,-0.019594315,0.7368362,0.1681057,-0.1286746,-0.16885135,0.5356819,0.048937235,-0.32495528,-0.3722438,0.06971625,793.7729,796.1905,794.17584,785.31134,711.1722,0.07861328125,-0.21063232421875,0.9564208984375,3.93280029296875,1.4056396484375,2.1832275390625,1.0,1.0,1.0,1.0,1.0,25.0,
2023-09-10 00:17:49.148,0.6701514,0.20590998,0.042276617,0.9462627,0.18061599,0.31872115,-0.082042634,0.2701487,0.45981145,0.31648955,-0.019594315,0.7368362,0.1681057,-0.1286746,-0.16885135,0.5356819,0.048937235,-0.32495528,-0.3722438,0.06971625,788.5348,798.20514,796.99634,791.3553,745.0183,0.0694580078125,-0.20379638671875,0.96868896484375,6.2506103515625,-3.491668701171875,6.422576904296875,1.0,1.0,1.0,1.0,1.0,25.0,
2023-09-10 00:17:49.179,0.6701514,0.20590998,0.042276617,0.9462627,0.18061599,0.31872115,-0.082042634,0.2701487,0.45981145,0.31648955,-0.019594315,0.7368362,0.1681057,-0.1286746,-0.16885135,0.5356819,0.048937235,-0.32495528,-0.3722438,0.06971625,800.6227,802.23444,791.3553,802.6374,857.8388,0.0721435546875,-0.1947021484375,0.96435546875,7.349700927734375,-2.743988037109375,5.12908935546875,1.0,1.0,1.0,1.0,1.0,25.0,
2023-09-10 00:17:49.188,0.59732676,0.123571366,-0.021599334,0.9437016,-0.0072129504,0.3047825,-0.11979326,0.26140285,0.35530785,0.32073703,-0.07588369,0.7368362,0.14639226,-0.14802012,-0.19266278,0.5300483,0.035505217,-0.3466561,-0.39141235,0.052353393,782.0879,793.7729,791.3553,768.3883,659.59705,0.0721435546875,-0.1947021484375,0.96435546875,7.349700927734375,-2.743988037109375,5.12908935546875,1.0,1.0,1.0,1.0,1.0,25.0,
2023-09-10 00:17:49.198,0.59732676,0.123571366,-0.021599334,0.9437016,-0.0072129504,0.3047825,-0.11979326,0.26140285,0.35530785,0.32073703,-0.07588369,0.7368362,0.14639226,-0.14802012,-0.19266278,0.5300483,0.035505217,-0.3466561,-0.39141235,0.052353393,799.011,809.0842,793.7729,804.65204,807.8755,0.06024169921875,-0.19354248046875,0.97747802734375,7.0880126953125,-1.86920166015625,-1.18133544921875,1.0,1.0,1.0,1.0,1.0,25.0,
2023-09-10 00:17:49.245,0.59732676,0.123571366,-0.021599334,0.9437016,-0.0072129504,0.3047825,-0.11979326,0.26140285,0.35530785,0.32073703,-0.07588369,0.7368362,0.14639226,-0.14802012,-0.19266278,0.5300483,0.035505217,-0.3466561,-0.39141235,0.052353393,776.8498,792.96704,792.96704,792.1612,690.2198,0.082275390625,-0.19171142578125,0.972412109375,6.29547119140625,-2.026214599609375,-5.390777587890625,1.0,1.0,1.0,1.0,1.0,25.0,
2023-09-10 00:17:49.251,0.6386715,0.07134352,-0.058456715,0.92234766,0.016304875,0.28907877,-0.13980465,0.24868862,0.40391606,0.32073703,-0.07995806,0.7368362,0.18211266,-0.14326376,-0.19951163,0.5322797,0.013872198,-0.36288893,-0.41177648,0.045476023,788.1319,792.5641,799.81683,785.7143,670.4762,0.082275390625,-0.19171142578125,0.972412109375,6.29547119140625,-2.026214599609375,-5.390777587890625,1.0,1.0,1.0,1.0,1.0,25.0,
2023-09-10 00:17:49.313,0.6386715,0.07134352,-0.058456715,0.92234766,0.016304875,0.28907877,-0.13980465,0.24868862,0.40391606,0.32073703,-0.07995806,0.7368362,0.18211266,-0.14326376,-0.19951163,0.5322797,0.013872198,-0.36288893,-0.41177648,0.045476023,806.26373,793.7729,802.6374,808.68134,670.07324,0.09197998046875,-0.1942138671875,0.97027587890625,5.4132080078125,-1.712188720703125,-3.8580322265625,1.0,1.0,1.0,1.0,1.0,25.0,
2023-09-10 00:17:49.396,0.6386715,0.07134352,-0.058456715,0.92234766,0.016304875,0.28907877,-0.13980465,0.24868862,0.40391606,0.32073703,-0.07995806,0.7368362,0.18211266,-0.14326376,-0.19951163,0.5322797,0.013872198,-0.36288893,-0.41177648,0.045476023,784.10254,799.011,799.41394,767.98535,665.2381,0.1099853515625,-0.20184326171875,0.98193359375,3.760833740234375,-5.96649169921875,-1.293487548828125,1.0,1.0,1.0,1.0,1.0,25.0,
2023-09-10 00:17:49.397,0.6563786,0.048919022,-0.067575574,0.884668,0.036482196,0.27594864,-0.14809026,0.23054369,0.42090124,0.32073703,-0.07995806,0.74559623,0.22241005,-0.11462829,-0.18772328,0.5447196,-0.0035367657,-0.3703998,-0.42428496,0.045085993,790.14655,797.8022,796.5934,780.4762,688.60803,0.1099853515625,-0.20184326171875,0.98193359375,3.760833740234375,-5.96649169921875,-1.293487548828125,1.0,1.0,1.0,1.0,1.0,25.0,
2023-09-10 00:17:49.435,0.6563786,0.048919022,-0.067575574,0.884668,0.036482196,0.27594864,-0.14809026,0.23054369,0.42090124,0.32073703,-0.07995806,0.74559623,0.22241005,-0.11462829,-0.18772328,0.5447196,-0.0035367657,-0.3703998,-0.42428496,0.045085993,792.5641,794.57874,796.99634,811.50183,697.47253,0.141357421875,-0.18927001953125,0.97161865234375,5.12908935546875,-6.041259765625,0.82244873046875,1.0,1.0,1.0,1.0,1.0,25.0,
2023-09-10 00:17:49.496,0.6563786,0.048919022,-0.067575574,0.884668,0.036482196,0.27594864,-0.14809026,0.23054369,0.42090124,0.32073703,-0.07995806,0.74559623,0.22241005,-0.11462829,-0.18772328,0.5447196,-0.0035367657,-0.3703998,-0.42428496,0.045085993,799.011,798.60803,794.17584,797.3993,860.2564,0.131591796875,-0.1715087890625,0.983154296875,7.177734375,-4.11224365234375,3.78326416015625,1.0,1.0,1.0,1.0,1.0,25.0,
2023-09-10 00:17:49.499,0.65470755,0.048295967,-0.049887516,0.83756,0.03714251,0.2646901,-0.15198566,0.20714268,0.42090124,0.32073703,-0.07894711,0.71838826,0.25204587,-0.076042585,-0.16685648,0.5597914,-0.019493043,-0.36925453,-0.4266934,0.047450818,802.6374,799.81683,795.38464,799.41394,660.80585,0.131591796875,-0.1715087890625,0.983154296875,7.177734375,-4.11224365234375,3.78326416015625,1.0,1.0,1.0,1.0,1.0,25.0,
2023-09-10 00:17:49.528,0.65470755,0.048295967,-0.049887516,0.83756,0.03714251,0.2646901,-0.15198566,0.20714268,0.42090124,0.32073703,-0.07894711,0.71838826,0.25204587,-0.076042585,-0.16685648,0.5597914,-0.019493043,-0.36925453,-0.4266934,0.047450818,791.3553,797.3993,792.96704,809.0842,985.16486,0.05645751953125,-0.18499755859375,0.95391845703125,5.286102294921875,1.83929443359375,0.58319091796875,1.0,1.0,1.0,1.0,1.0,25.0,
2023-09-10 00:17:49.584,0.65470755,0.048295967,-0.049887516,0.83756,0.03714251,0.2646901,-0.15198566,0.20714268,0.42090124,0.32073703,-0.07894711,0.71838826,0.25204587,-0.076042585,-0.16685648,0.5597914,-0.019493043,-0.36925453,-0.4266934,0.047450818,807.8755,800.2198,794.9817,809.89014,763.1502,0.0894775390625,-0.2056884765625,1.01007080078125,0.478515625,-6.7889404296875,-4.0374755859375,1.0,1.0,1.0,1.0,1.0,25.0,
2023-09-10 00:17:49.592,0.6421534,0.05117518,-0.0196071,0.79588735,0.01899009,0.2506869,-0.14975926,0.18708222,0.42090124,0.3120985,-0.07897862,0.69526553,0.264502,-0.04305833,-0.14800237,0.56737524,-0.034536704,-0.3640521,-0.4267689,0.050179787,803.0403,793.36993,795.78754,811.0989,771.2088,0.0894775390625,-0.2056884765625,1.01007080078125,0.478515625,-6.7889404296875,-4.0374755859375,1.0,1.0,1.0,1.0,1.0,25.0,
2023-09-10 00:17:49.689,0.6421534,0.05117518,-0.0196071,0.79588735,0.01899009,0.2506869,-0.14975926,0.18708222,0.42090124,0.3120985,-0.07897862,0.69526553,0.264502,-0.04305833,-0.14800237,0.56737524,-0.034536704,-0.3640521,-0.4267689,0.050179787,775.2381,792.1612,796.5934,771.2088,638.6447,0.1912841796875,-0.1932373046875,0.97906494140625,0.530853271484375,-12.12738037109375,1.517791748046875,1.0,1.0,1.0,1.0,1.0,25.0,
2023-09-10 00:17:49.695,0.63074243,0.036493454,0.009794,0.76725733,-0.006210879,0.2306421,-0.13917209,0.1794656,0.42090124,0.30063847,-0.092009135,0.68754107,0.2625385,-0.022823948,-0.13766585,0.562286,-0.046809524,-0.3609483,-0.43200922,0.052390423,802.6374,801.02563,801.8315,807.8755,887.25275,0.1912841796875,-0.1932373046875,0.97906494140625,0.530853271484375,-12.12738037109375,1.517791748046875,1.0,1.0,1.0,1.0,1.0,25.0,
2023-09-10 00:17:49.726,0.63074243,0.036493454,0.009794,0.76725733,-0.006210879,0.2306421,-0.13917209,0.1794656,0.42090124,0.30063847,-0.092009135,0.68754107,0.2625385,-0.022823948,-0.13766585,0.562286,-0.046809524,-0.3609483,-0.43200922,0.052390423,796.5934,802.6374,796.1905,803.0403,696.26373,0.1292724609375,-0.23382568359375,0.965087890625,0.396270751953125,0.471038818359375,1.398162841796875,1.0,1.0,1.0,1.0,1.0,25.0,
2023-09-10 00:17:49.738,0.63074243,0.036493454,0.009794,0.76725733,-0.006210879,0.2306421,-0.13917209,0.1794656,0.42090124,0.30063847,-0.092009135,0.68754107,0.2625385,-0.022823948,-0.13766585,0.562286,-0.046809524,-0.3609483,-0.43200922,0.052390423,786.1172,797.8022,794.9817,792.96704,788.5348,0.11224365234375,-0.22222900390625,0.956298828125,5.203857421875,-0.5084228515625,-2.983245849609375,1.0,1.0,1.0,1.0,1.0,25.0,
2023-09-10 00:17:49.743,0.6222647,0.005947307,0.02871298,0.751239,-0.025706563,0.20470159,-0.12420333,0.18688859,0.42090124,0.2961147,-0.1038743,0.68754107,0.25296873,-0.012514503,-0.13690968,0.5478036,-0.054783534,-0.36550525,-0.4425751,0.055597823,820.7692,812.71063,791.75824,828.8278,969.85345,0.11224365234375,-0.22222900390625,0.956298828125,5.203857421875,-0.5084228515625,-2.983245849609375,1.0,1.0,1.0,1.0,1.0,25.0,
2023-09-10 00:17:49.802,0.6222647,0.005947307,0.02871298,0.751239,-0.025706563,0.20470159,-0.12420333,0.18688859,0.42090124,0.2961147,-0.1038743,0.68754107,0.25296873,-0.012514503,-0.13690968,0.5478036,-0.054783534,-0.36550525,-0.4425751,0.055597823,784.90845,797.8022,800.6227,792.1612,808.2784,0.11749267578125,-0.197265625,0.9674072265625,8.553466796875,-1.5850830078125,0.5682373046875,1.0,1.0,1.0,1.0,1.0,25.0,
2023-09-10 00:17:49.864,0.6243236,-0.02301574,0.035854496,0.745573,-0.08137341,0.17516987,-0.11401007,0.2041739,0.3954981,0.2940644,-0.110850304,0.6796944,0.24700034,-0.0033692028,-0.14209811,0.5322752,-0.06542672,-0.3802745,-0.4526728,0.0627169,805.8608,795.78754,789.7436,814.3223,907.3993,0.11749267578125,-0.197265625,0.9674072265625,8.553466796875,-1.5850830078125,0.5682373046875,1.0,1.0,1.0,1.0,1.0,25.0,
2023-09-10 00:17:49.919,0.6243236,-0.02301574,0.035854496,0.745573,-0.08137341,0.17516987,-0.11401007,0.2041739,0.3954981,0.2940644,-0.110850304,0.6796944,0.24700034,-0.0033692028,-0.14209811,0.5322752,-0.06542672,-0.3802745,-0.4526728,0.0627169,786.9231,793.36993,788.5348,798.60803,880.80585,0.09979248046875,-0.1943359375,0.974853515625,3.686065673828125,-1.024322509765625,2.04864501953125,1.0,1.0,1.0,1.0,1.0,25.0,
2023-09-10 00:17:49.961,0.6243236,-0.02301574,0.035854496,0.745573,-0.08137341,0.17516987,-0.11401007,0.2041739,0.3954981,0.2940644,-0.110850304,0.6796944,0.24700034,-0.0033692028,-0.14209811,0.5322752,-0.06542672,-0.3802745,-0.4526728,0.0627169,773.6264,796.1905,794.9817,774.0293,643.47986,0.10137939453125,-0.20391845703125,0.97796630859375,1.846771240234375,-3.282318115234375,2.340240478515625,1.0,1.0,1.0,1.0,1.0,25.0,
2023-09-10 00:17:49.992,0.6243236,-0.02301574,0.035854496,0.745573,-0.08137341,0.17516987,-0.11401007,0.2041739,0.3954981,0.2940644,-0.110850304,0.6796944,0.24700034,-0.0033692028,-0.14209811,0.5322752,-0.06542672,-0.3802745,-0.4526728,0.0627169,796.1905,794.57874,791.75824,813.1135,788.1319,0.09619140625,-0.1964111328125,0.9713134765625,4.78515625,-2.97576904296875,1.15142822265625,1.0,1.0,1.0,1.0,1.0,25.0,
2023-09-10 00:17:49.993,0.63493496,-0.033637676,0.029434886,0.7409654,-0.084148355,0.1475009,-0.11419236,0.22423594,0.38080004,0.29081625,-0.14443028,0.6653653,0.23806083,0.011731215,-0.14665854,0.52538437,-0.082515985,-0.3988882,-0.45897824,0.076350175,790.54944,797.3993,790.54944,805.05493,718.8278,0.09619140625,-0.1964111328125,0.9713134765625,4.78515625,-2.97576904296875,1.15142822265625,1.0,1.0,1.0,1.0,1.0,25.0,
2023-09-10 00:17:50.047,0.63493496,-0.033637676,0.029434886,0.7409654,-0.084148355,0.1475009,-0.11419236,0.22423594,0.38080004,0.29081625,-0.14443028,0.6653653,0.23806083,0.011731215,-0.14665854,0.52538437,-0.082515985,-0.3988882,-0.45897824,0.076350175,785.7143,794.17584,792.5641,768.3883,684.17584,0.097900390625,-0.20355224609375,0.97100830078125,3.357086181640625,0.299072265625,-2.145843505859375,1.0,1.0,1.0,1.0,1.0,25.0,
2023-09-10 00:17:50.082,0.63493496,-0.033637676,0.029434886,0.7409654,-0.084148355,0.1475009,-0.11419236,0.22423594,0.38080004,0.29081625,-0.14443028,0.6653653,0.23806083,0.011731215,-0.14665854,0.52538437,-0.082515985,-0.3988882,-0.45897824,0.076350175,790.9524,797.8022,798.60803,789.7436,632.1978,0.0838623046875,-0.2149658203125,0.9627685546875,2.85614013671875,-0.904693603515625,-2.818756103515625,1.0,1.0,1.0,1.0,1.0,25.0,
2023-09-10 00:17:50.084,0.63980806,-0.030446805,0.013490732,0.7305761,-0.047499385,0.12539084,-0.12424978,0.24112445,0.37433398,0.28409183,-0.18894863,0.6600689,0.23457855,0.033459336,-0.1472009,0.53226084,-0.104254015,-0.40860152,-0.4621619,0.09531623,796.1905,804.2491,797.3993,801.4286,757.9121,0.0838623046875,-0.2149658203125,0.9627685546875,2.85614013671875,-0.904693603515625,-2.818756103515625,1.0,1.0,1.0,1.0,1.0,25.0,
2023-09-10 00:17:50.147,0.63980806,-0.030446805,0.013490732,0.7305761,-0.047499385,0.12539084,-0.12424978,0.24112445,0.37433398,0.28409183,-0.18894863,0.6600689,0.23457855,0.033459336,-0.1472009,0.53226084,-0.104254015,-0.40860152,-0.4621619,0.09531623,781.685,801.02563,799.41394,784.90845,769.19415,0.10638427734375,-0.22125244140625,0.96502685546875,4.209442138671875,-4.05242919921875,-1.55517578125,1.0,1.0,1.0,1.0,1.0,25.0,
2023-09-10 00:17:50.150,0.63811475,-0.025537957,-0.0012382088,0.7117002,-0.006735148,0.107759215,-0.13943341,0.24918596,0.37433398,0.27693737,-0.2313494,0.6435304,0.24481265,0.058334734,-0.14386158,0.55200034,-0.12513056,-0.40110534,-0.46413517,0.11627519,790.54944,799.81683,792.5641,781.28204,765.16486,0.10638427734375,-0.22125244140625,0.96502685546875,4.209442138671875,-4.05242919921875,-1.55517578125,1.0,1.0,1.0,1.0,1.0,25.0,
2023-09-10 00:17:50.220,0.63811475,-0.025537957,-0.0012382088,0.7117002,-0.006735148,0.107759215,-0.13943341,0.24918596,0.37433398,0.27693737,-0.2313494,0.6435304,0.24481265,0.058334734,-0.14386158,0.55200034,-0.12513056,-0.40110534,-0.46413517,0.11627519,799.81683,799.41394,790.54944,782.49084,708.7546,0.10888671875,-0.21588134765625,0.9752197265625,6.08612060546875,-4.553375244140625,-0.61309814453125,1.0,1.0,1.0,1.0,1.0,35.0,
2023-09-10 00:17:50.252,0.63811475,-0.025537957,-0.0012382088,0.7117002,-0.006735148,0.107759215,-0.13943341,0.24918596,0.37433398,0.27693737,-0.2313494,0.6435304,0.24481265,0.058334734,-0.14386158,0.55200034,-0.12513056,-0.40110534,-0.46413517,0.11627519,823.5897,794.9817,797.8022,832.0513,1085.0916,0.10113525390625,-0.2152099609375,0.97442626953125,5.181427001953125,-3.22998046875,-0.3289794921875,1.0,1.0,1.0,1.0,1.0,35.0,
2023-09-10 00:17:50.256,0.63325214,-0.025327783,-0.003554851,0.68426424,0.022631744,0.09048183,-0.15491769,0.24621753,0.37655094,0.25862697,-0.24573304,0.68006545,0.26807663,0.08150928,-0.13815178,0.57921606,-0.1409834,-0.38222483,-0.46556455,0.13683797,789.7436,794.9817,791.75824,796.5934,947.6923,0.10113525390625,-0.2152099609375,0.97442626953125,5.181427001953125,-3.22998046875,-0.3289794921875,1.0,1.0,1.0,1.0,1.0,35.0,
2023-09-10 00:17:50.291,0.63325214,-0.025327783,-0.003554851,0.68426424,0.022631744,0.09048183,-0.15491769,0.24621753,0.37655094,0.25862697,-0.24573304,0.68006545,0.26807663,0.08150928,-0.13815178,0.57921606,-0.1409834,-0.38222483,-0.46556455,0.13683797,787.326,796.99634,794.57874,799.41394,701.9048,0.1134033203125,-0.21356201171875,0.97113037109375,4.246826171875,-3.970184326171875,-0.770111083984375,1.0,1.0,1.0,1.0,1.0,35.0,
2023-09-10 00:17:50.395,0.62540865,-0.04148295,-0.0022214123,0.6496449,0.021723088,0.063685775,-0.1690276,0.2412379,0.38012704,0.24389583,-0.19948755,0.71091306,0.27530923,0.09998719,-0.12960282,0.6067969,-0.1453719,-0.3637225,-0.46559158,0.15604551,788.5348,800.2198,795.78754,782.49084,597.5458,0.1134033203125,-0.21356201171875,0.97113037109375,4.246826171875,-3.970184326171875,-0.770111083984375,1.0,1.0,1.0,1.0,1.0,35.0,
2023-09-10 00:17:50.427,0.62540865,-0.04148295,-0.0022214123,0.6496449,0.021723088,0.063685775,-0.1690276,0.2412379,0.38012704,0.24389583,-0.19948755,0.71091306,0.27530923,0.09998719,-0.12960282,0.6067969,-0.1453719,-0.3637225,-0.46559158,0.15604551,804.2491,799.41394,797.8022,824.3956,810.293,0.12054443359375,-0.21636962890625,0.96270751953125,5.36834716796875,-4.299163818359375,-0.0,1.0,1.0,1.0,1.0,1.0,35.0,
2023-09-10 00:17:50.477,0.62540865,-0.04148295,-0.0022214123,0.6496449,0.021723088,0.063685775,-0.1690276,0.2412379,0.38012704,0.24389583,-0.19948755,0.71091306,0.27530923,0.09998719,-0.12960282,0.6067969,-0.1453719,-0.3637225,-0.46559158,0.15604551,789.7436,801.02563,797.3993,780.4762,675.7143,0.12841796875,-0.21209716796875,0.98052978515625,6.108551025390625,-4.05242919921875,2.295379638671875,1.0,1.0,1.0,1.0,1.0,35.0,
2023-09-10 00:17:50.485,0.6209605,-0.07249012,-0.0033072606,0.6031841,0.025685724,0.020329658,-0.18580817,0.24481685,0.38012704,0.22158243,-0.1263872,0.71496373,0.2764557,0.11235227,-0.11751265,0.62774235,-0.1517318,-0.35102025,-0.46228915,0.17446156,783.69965,792.5641,794.57874,777.25275,628.1685,0.12841796875,-0.21209716796875,0.98052978515625,6.108551025390625,-4.05242919921875,2.295379638671875,1.0,1.0,1.0,1.0,1.0,35.0,
2023-09-10 00:17:50.539,0.6209605,-0.07249012,-0.0033072606,0.6031841,0.025685724,0.020329658,-0.18580817,0.24481685,0.38012704,0.22158243,-0.1263872,0.71496373,0.2764557,0.11235227,-0.11751265,0.62774235,-0.1517318,-0.35102025,-0.46228915,0.17446156,795.38464,796.99634,794.9817,794.9817,666.04395,0.12335205078125,-0.20904541015625,0.98126220703125,7.484283447265625,-3.050537109375,4.269256591796875,1.0,1.0,1.0,1.0,1.0,35.0,
2023-09-10 00:17:50.579,0.6209605,-0.07249012,-0.0033072606,0.6031841,0.025685724,0.020329658,-0.18580817,0.24481685,0.38012704,0.22158243,-0.1263872,0.71496373,0.2764557,0.11235227,-0.11751265,0.62774235,-0.1517318,-0.35102025,-0.46228915,0.17446156,805.4579,797.3993,799.41394,803.0403,898.1319,0.12896728515625,-0.19805908203125,0.9642333984375,7.947845458984375,-2.452392578125,5.764617919921875,1.0,1.0,1.0,1.0,1.0,35.0,
2023-09-10 00:17:50.619,0.6209605,-0.07249012,-0.0033072606,0.6031841,0.025685724,0.020329658,-0.18580817,0.24481685,0.38012704,0.22158243,-0.1263872,0.71496373,0.2764557,0.11235227,-0.11751265,0.62774235,-0.1517318,-0.35102025,-0.46228915,0.17446156,779.2674,789.7436,801.02563,770.0,653.95605,0.10888671875,-0.19708251953125,0.97808837890625,7.596435546875,-2.55706787109375,5.704803466796875,1.0,1.0,1.0,1.0,1.0,35.0,
2023-09-10 00:17:50.620,0.61908764,-0.11702854,-0.014010428,0.5484502,0.03889904,-0.038247295,-0.21350835,0.25669295,0.3858731,0.17581238,-0.04638482,0.7307946,0.27001363,0.1172208,-0.104578875,0.6378545,-0.15795776,-0.34270057,-0.45407876,0.19238257,794.9817,788.1319,804.2491,782.49084,616.8865,0.10888671875,-0.19708251953125,0.97808837890625,7.596435546875,-2.55706787109375,5.704803466796875,1.0,1.0,1.0,1.0,1.0,35.0,
2023-09-10 00:17:50.693,0.61908764,-0.11702854,-0.014010428,0.5484502,0.03889904,-0.038247295,-0.21350835,0.25669295,0.3858731,0.17581238,-0.04638482,0.7307946,0.27001363,0.1172208,-0.104578875,0.6378545,-0.15795776,-0.34270057,-0.45407876,0.19238257,799.011,808.68134,797.3993,804.2491,778.86444,0.10980224609375,-0.1917724609375,0.97283935546875,6.826324462890625,-4.463653564453125,4.882354736328125,1.0,1.0,1.0,1.0,1.0,35.0,
2023-09-10 00:17:50.695,0.5979239,-0.16539875,-0.03784127,0.5004941,0.057520814,-0.09948993,-0.2560485,0.26417345,0.39730278,0.15119046,0.012008575,0.7308273,0.26215428,0.11261208,-0.09541913,0.6362046,-0.16318834,-0.33794367,-0.4427308,0.2083711,784.10254,804.65204,797.3993,786.9231,698.68134,0.10980224609375,-0.1917724609375,0.97283935546875,6.826324462890625,-4.463653564453125,4.882354736328125,1.0,1.0,1.0,1.0,1.0,35.0,
2023-09-10 00:17:50.725,0.5979239,-0.16539875,-0.03784127,0.5004941,0.057520814,-0.09948993,-0.2560485,0.26417345,0.39730278,0.15119046,0.012008575,0.7308273,0.26215428,0.11261208,-0.09541913,0.6362046,-0.16318834,-0.33794367,-0.4427308,0.2083711,784.5055,802.23444,791.75824,780.07324,687.8022,0.11175537109375,-0.1929931640625,0.97943115234375,4.8150634765625,-4.20196533203125,1.8243408203125,1.0,1.0,1.0,1.0,1.0,35.0,
2023-09-10 00:17:50.817,0.5979239,-0.16539875,-0.03784127,0.5004941,0.057520814,-0.09948993,-0.2560485,0.26417345,0.39730278,0.15119046,0.012008575,0.7308273,0.26215428,0.11261208,-0.09541913,0.6362046,-0.16318834,-0.33794367,-0.4427308,0.2083711,803.44324,799.41394,796.5934,802.6374,643.0769,0.11260986328125,-0.1895751953125,0.9771728515625,5.084228515625,-2.863616943359375,-0.037384033203125,1.0,1.0,1.0,1.0,1.0,35.0,
2023-09-10 00:17:50.820,0.57418,-0.2067799,-0.07005291,0.46714818,0.058404632,-0.14699648,-0.3082035,0.26017624,0.4141756,0.1040918,0.028097881,0.7308273,0.24153282,0.096285656,-0.09265828,0.62651664,-0.165891,-0.33856598,-0.43267444,0.21819752,787.326,788.93774,797.8022,799.81683,815.12823,0.11260986328125,-0.1895751953125,0.9771728515625,5.084228515625,-2.863616943359375,-0.037384033203125,1.0,1.0,1.0,1.0,1.0,35.0,
2023-09-10 00:17:50.849,0.57418,-0.2067799,-0.07005291,0.46714818,0.058404632,-0.14699648,-0.3082035,0.26017624,0.4141756,0.1040918,0.028097881,0.7308273,0.24153282,0.096285656,-0.09265828,0.62651664,-0.165891,-0.33856598,-0.43267444,0.21819752,806.26373,800.6227,794.57874,814.7253,771.6117,0.1097412109375,-0.19921875,0.96856689453125,4.91973876953125,-1.697235107421875,-0.874786376953125,1.0,1.0,1.0,1.0,1.0,35.0,
2023-09-10 00:17:50.867,0.54940516,-0.23166457,-0.10146958,0.43822598,0.05424465,-0.1733839,-0.3605614,0.25077167,0.38430956,0.07932437,0.015548928,0.7287283,0.21152155,0.06866922,-0.09458967,0.6177717,-0.16736723,-0.3439284,-0.42727885,0.21854149,801.4286,793.7729,790.54944,797.8022,741.79486,0.1097412109375,-0.19921875,0.96856689453125,4.91973876953125,-1.697235107421875,-0.874786376953125,1.0,1.0,1.0,1.0,1.0,35.0,
2023-09-10 00:17:50.906,0.54940516,-0.23166457,-0.10146958,0.43822598,0.05424465,-0.1733839,-0.3605614,0.25077167,0.38430956,0.07932437,0.015548928,0.7287283,0.21152155,0.06866922,-0.09458967,0.6177717,-0.16736723,-0.3439284,-0.42727885,0.21854149,806.6667,797.8022,793.36993,799.011,769.59705,0.11492919921875,-0.19647216796875,0.9669189453125,4.478607177734375,-2.03369140625,-1.727142333984375,1.0,1.0,1.0,1.0,1.0,35.0,
2023-09-10 00:17:51.006,0.54940516,-0.23166457,-0.10146958,0.43822598,0.05424465,-0.1733839,-0.3605614,0.25077167,0.38430956,0.07932437,0.015548928,0.7287283,0.21152155,0.06866922,-0.09458967,0.6177717,-0.16736723,-0.3439284,-0.42727885,0.21854149,801.8315,798.60803,789.7436,804.65204,817.1429,0.1190185546875,-0.1815185546875,0.9786376953125,5.196380615234375,-1.33087158203125,-0.605621337890625,1.0,1.0,1.0,1.0,1.0,35.0,
2023-09-10 00:17:51.015,0.52835876,-0.25136918,-0.13476901,0.40986452,0.06955934,-0.1833498,-0.40762407,0.24977857,0.37013912,0.07391615,0.010864146,0.715398,0.17834769,0.035637148,-0.097396106,0.618974,-0.16692658,-0.35052297,-0.42561397,0.21153964,802.23444,801.4286,799.41394,819.9634,1000.4762,0.1190185546875,-0.1815185546875,0.9786376953125,5.196380615234375,-1.33087158203125,-0.605621337890625,1.0,1.0,1.0,1.0,1.0,35.0,
2023-09-10 00:17:51.023,0.52835876,-0.25136918,-0.13476901,0.40986452,0.06955934,-0.1833498,-0.40762407,0.24977857,0.37013912,0.07391615,0.010864146,0.715398,0.17834769,0.035637148,-0.097396106,0.618974,-0.16692658,-0.35052297,-0.42561397,0.21153964,783.2967,792.5641,797.3993,785.7143,832.4542,0.09332275390625,-0.180908203125,0.95709228515625,5.899200439453125,-0.9271240234375,-2.609405517578125,1.0,1.0,1.0,1.0,1.0,35.0,
2023-09-10 00:17:51.062,0.52835876,-0.25136918,-0.13476901,0.40986452,0.06955934,-0.1833498,-0.40762407,0.24977857,0.37013912,0.07391615,0.010864146,0.715398,0.17834769,0.035637148,-0.097396106,0.618974,-0.16692658,-0.35052297,-0.42561397,0.21153964,800.2198,792.5641,802.23444,811.9048,992.8205,0.0850830078125,-0.2115478515625,0.99578857421875,3.75335693359375,-1.7645263671875,-7.663726806640625,1.0,1.0,1.0,1.0,1.0,35.0,
2023-09-10 00:17:51.068,0.5117304,-0.26991913,-0.17353624,0.38175336,0.113663584,-0.17989802,-0.45561868,0.25925484,0.35382435,0.0691908,0.03052788,0.7160678,0.14983247,0.006991541,-0.099317424,0.630511,-0.1637709,-0.35454443,-0.423177,0.2035893,793.36993,789.34064,810.696,828.4249,838.0952,0.0850830078125,-0.2115478515625,0.99578857421875,3.75335693359375,-1.7645263671875,-7.663726806640625,1.0,1.0,1.0,1.0,1.0,35.0,
2023-09-10 00:17:51.099,0.5117304,-0.26991913,-0.17353624,0.38175336,0.113663584,-0.17989802,-0.45561868,0.25925484,0.35382435,0.0691908,0.03052788,0.7160678,0.14983247,0.006991541,-0.099317424,0.630511,-0.1637709,-0.35454443,-0.423177,0.2035893,803.0403,786.52014,810.696,819.15753,765.9707,0.15655517578125,-0.207763671875,0.9820556640625,0.560760498046875,-7.237548828125,-5.90667724609375,1.0,1.0,1.0,1.0,1.0,35.0,
2023-09-10 00:17:51.200,0.5117304,-0.26991913,-0.17353624,0.38175336,0.113663584,-0.17989802,-0.45561868,0.25925484,0.35382435,0.0691908,0.03052788,0.7160678,0.14983247,0.006991541,-0.099317424,0.630511,-0.1637709,-0.35454443,-0.423177,0.2035893,802.23444,794.57874,799.011,798.60803,696.6667,0.15625,-0.2099609375,0.97137451171875,-0.13458251953125,-5.166473388671875,1.4654541015625,1.0,1.0,1.0,1.0,1.0,35.0,
2023-09-10 00:17:51.201,0.49083373,-0.27565637,-0.19788064,0.3621638,0.16703169,-0.16853976,-0.51013416,0.27133983,0.36648214,0.0691908,0.03762738,0.7160678,0.13135426,-0.011394694,-0.10110556,0.6438539,-0.15927352,-0.35608897,-0.4176358,0.19893017,797.3993,794.9817,798.20514,808.68134,850.18317,0.15625,-0.2099609375,0.97137451171875,-0.13458251953125,-5.166473388671875,1.4654541015625,1.0,1.0,1.0,1.0,1.0,35.0,
2023-09-10 00:17:51.238,0.49083373,-0.27565637,-0.19788064,0.3621638,0.16703169,-0.16853976,-0.51013416,0.27133983,0.36648214,0.0691908,0.03762738,0.7160678,0.13135426,-0.011394694,-0.10110556,0.6438539,-0.15927352,-0.35608897,-0.4176358,0.19893017,805.8608,802.6374,790.14655,796.99634,784.10254,0.12518310546875,-0.23626708984375,0.9654541015625,2.115936279296875,-2.1234130859375,0.31402587890625,1.0,1.0,1.0,1.0,1.0,35.0,
2023-09-10 00:17:51.343,0.49083373,-0.27565637,-0.19788064,0.3621638,0.16703169,-0.16853976,-0.51013416,0.27133983,0.36648214,0.0691908,0.03762738,0.7160678,0.13135426,-0.011394694,-0.10110556,0.6438539,-0.15927352,-0.35608897,-0.4176358,0.19893017,788.5348,798.60803,793.7729,793.7729,647.1062,0.12347412109375,-0.21490478515625,0.96807861328125,8.800201416015625,-1.7047119140625,-0.35888671875,1.0,1.0,1.0,1.0,1.0,35.0,
2023-09-10 00:17:51.346,0.46390793,-0.27121568,-0.17197071,0.3594402,0.20639987,-0.15450384,-0.5660271,0.2780451,0.3996229,0.0691908,0.04254009,0.7160678,0.12439697,-0.022569804,-0.103348985,0.6508861,-0.15747325,-0.35685915,-0.41078806,0.19636822,804.2491,803.44324,798.60803,809.0842,734.1392,0.12347412109375,-0.21490478515625,0.96807861328125,8.800201416015625,-1.7047119140625,-0.35888671875,1.0,1.0,1.0,1.0,1.0,35.0,
2023-09-10 00:17:51.397,0.46390793,-0.27121568,-0.17197071,0.3594402,0.20639987,-0.15450384,-0.5660271,0.2780451,0.3996229,0.0691908,0.04254009,0.7160678,0.12439697,-0.022569804,-0.103348985,0.6508861,-0.15747325,-0.35685915,-0.41078806,0.19636822,813.91943,796.5934,791.3553,807.8755,892.49084,0.1202392578125,-0.19219970703125,0.97015380859375,8.7628173828125,-1.48040771484375,0.994415283203125,1.0,1.0,1.0,1.0,1.0,35.0,
2023-09-10 00:17:51.407,0.46390793,-0.27121568,-0.17197071,0.3594402,0.20639987,-0.15450384,-0.5660271,0.2780451,0.3996229,0.0691908,0.04254009,0.7160678,0.12439697,-0.022569804,-0.103348985,0.6508861,-0.15747325,-0.35685915,-0.41078806,0.19636822,790.54944,805.4579,795.78754,805.05493,932.381,0.1048583984375,-0.1890869140625,0.97369384765625,6.362762451171875,-0.336456298828125,3.69354248046875,1.0,1.0,1.0,1.0,1.0,35.0,
2023-09-10 00:17:51.410,0.4285479,-0.24712527,-0.08764858,0.37186086,0.22240154,-0.13817608,-0.6048806,0.28045863,0.41913208,0.06270617,0.049505606,0.7189242,0.12709412,-0.034738727,-0.10519184,0.6502894,-0.16232796,-0.35657033,-0.40643516,0.19125932,793.7729,796.99634,793.36993,790.14655,830.84247,0.1048583984375,-0.1890869140625,0.97369384765625,6.362762451171875,-0.336456298828125,3.69354248046875,1.0,1.0,1.0,1.0,1.0,35.0,
2023-09-10 00:17:51.529,0.4285479,-0.24712527,-0.08764858,0.37186086,0.22240154,-0.13817608,-0.6048806,0.28045863,0.41913208,0.06270617,0.049505606,0.7189242,0.12709412,-0.034738727,-0.10519184,0.6502894,-0.16232796,-0.35657033,-0.40643516,0.19125932,799.81683,798.20514,794.17584,816.7399,751.4652,0.0855712890625,-0.19195556640625,0.9757080078125,4.762725830078125,-1.45050048828125,3.4393310546875,1.0,1.0,1.0,1.0,1.0,35.0,
2023-09-10 00:17:51.535,0.38923094,-0.19827297,0.01882006,0.39085558,0.21852091,-0.117600545,-0.61501783,0.28404233,0.42876714,0.06389796,0.056199465,0.7189242,0.13340327,-0.052614532,-0.106935844,0.64533,-0.17268437,-0.35824683,-0.4084247,0.17917308,789.7436,799.011,794.57874,803.44324,1076.227,0.0855712890625,-0.19195556640625,0.9757080078125,4.762725830078125,-1.45050048828125,3.4393310546875,1.0,1.0,1.0,1.0,1.0,35.0,
2023-09-10 00:17:51.579,0.38923094,-0.19827297,0.01882006,0.39085558,0.21852091,-0.117600545,-0.61501783,0.28404233,0.42876714,0.06389796,0.056199465,0.7189242,0.13340327,-0.052614532,-0.106935844,0.64533,-0.17268437,-0.35824683,-0.4084247,0.17917308,786.1172,799.81683,801.02563,788.93774,725.6777,0.08935546875,-0.197509765625,0.97406005859375,4.373931884765625,-2.930908203125,-0.5084228515625,1.0,1.0,1.0,1.0,1.0,35.0,
2023-09-10 00:17:51.588,0.38923094,-0.19827297,0.01882006,0.39085558,0.21852091,-0.117600545,-0.61501783,0.28404233,0.42876714,0.06389796,0.056199465,0.7189242,0.13340327,-0.052614532,-0.106935844,0.64533,-0.17268437,-0.35824683,-0.4084247,0.17917308,791.3553,797.8022,793.7729,783.2967,558.86444,0.1099853515625,-0.20208740234375,0.972412109375,3.12530517578125,-4.007568359375,-2.474822998046875,1.0,1.0,1.0,1.0,1.0,35.0,
2023-09-10 00:17:51.594,0.35125598,-0.1362714,0.10424873,0.4084937,0.20518853,-0.096626356,-0.6066315,0.28749073,0.42876714,0.07134906,0.074666165,0.71881396,0.13349815,-0.073768675,-0.112050615,0.6370004,-0.18400846,-0.36906156,-0.4202022,0.15906884,782.0879,798.60803,799.011,779.2674,863.0769,0.1099853515625,-0.20208740234375,0.972412109375,3.12530517578125,-4.007568359375,-2.474822998046875,1.0,1.0,1.0,1.0,1.0,35.0,
2023-09-10 00:17:51.630,0.35125598,-0.1362714,0.10424873,0.4084937,0.20518853,-0.096626356,-0.6066315,0.28749073,0.42876714,0.07134906,0.074666165,0.71881396,0.13349815,-0.073768675,-0.112050615,0.6370004,-0.18400846,-0.36906156,-0.4202022,0.15906884,805.8608,799.81683,803.8461,814.7253,820.3663,0.1251220703125,-0.20263671875,0.96881103515625,3.828125,-3.99261474609375,-0.91217041015625,1.0,1.0,1.0,1.0,1.0,35.0,
2023-09-10 00:17:51.695,0.32132336,-0.08739786,0.15093978,0.42268556,0.19147241,-0.085013345,-0.597678,0.28487647,0.42876714,0.07686967,0.08724532,0.71722186,0.11922178,-0.0920023,-0.12400836,0.62372696,-0.19227071,-0.39487323,-0.44223335,0.13380158,780.4762,785.7143,796.5934,772.4176,718.8278,0.1251220703125,-0.20263671875,0.96881103515625,3.828125,-3.99261474609375,-0.91217041015625,1.0,1.0,1.0,1.0,1.0,35.0,
2023-09-10 00:17:51.727,0.32132336,-0.08739786,0.15093978,0.42268556,0.19147241,-0.085013345,-0.597678,0.28487647,0.42876714,0.07686967,0.08724532,0.71722186,0.11922178,-0.0920023,-0.12400836,0.62372696,-0.19227071,-0.39487323,-0.44223335,0.13380158,791.75824,794.57874,791.75824,786.1172,739.7802,0.1134033203125,-0.20465087890625,0.97021484375,3.985137939453125,-2.549591064453125,0.007476806640625,1.0,1.0,1.0,1.0,1.0,35.0,
2023-09-10 00:17:51.791,0.32132336,-0.08739786,0.15093978,0.42268556,0.19147241,-0.085013345,-0.597678,0.28487647,0.42876714,0.07686967,0.08724532,0.71722186,0.11922178,-0.0920023,-0.12400836,0.62372696,-0.19227071,-0.39487323,-0.44223335,0.13380158,816.337,801.8315,789.34064,828.022,933.5897,0.11602783203125,-0.210205078125,0.97039794921875,4.912261962890625,-3.252410888671875,-0.859832763671875,1.0,1.0,1.0,1.0,1.0,35.0,
2023-09-10 00:17:51.832,0.32132336,-0.08739786,0.15093978,0.42268556,0.19147241,-0.085013345,-0.597678,0.28487647,0.42876714,0.07686967,0.08724532,0.71722186,0.11922178,-0.0920023,-0.12400836,0.62372696,-0.19227071,-0.39487323,-0.44223335,0.13380158,799.41394,798.20514,797.8022,802.6374,710.7692,0.11993408203125,-0.208740234375,0.97064208984375,5.203857421875,-2.6318359375,-0.949554443359375,1.0,1.0,1.0,1.0,1.0,35.0,
2023-09-10 00:17:51.833,0.30333415,-0.060150962,0.1652154,0.43049806,0.18140027,-0.08885148,-0.59262866,0.27534997,0.42876714,0.07455338,0.08724532,0.71722186,0.092071414,-0.10220137,-0.1425006,0.6054575,-0.1962715,-0.43148866,-0.46886355,0.10822347,792.1612,790.54944,797.3993,793.7729,541.9414,0.11993408203125,-0.208740234375,0.97064208984375,5.203857421875,-2.6318359375,-0.949554443359375,1.0,1.0,1.0,1.0,1.0,35.0,
2023-09-10 00:17:51.887,0.30333415,-0.060150962,0.1652154,0.43049806,0.18140027,-0.08885148,-0.59262866,0.27534997,0.42876714,0.07455338,0.08724532,0.71722186,0.092071414,-0.10220137,-0.1425006,0.6054575,-0.1962715,-0.43148866,-0.46886355,0.10822347,802.6374,790.9524,803.8461,806.26373,697.47253,0.11505126953125,-0.197265625,0.97314453125,5.99639892578125,-1.1663818359375,-0.3887939453125,1.0,1.0,1.0,1.0,1.0,35.0,
2023-09-10 00:17:51.959,0.30333415,-0.060150962,0.1652154,0.43049806,0.18140027,-0.08885148,-0.59262866,0.27534997,0.42876714,0.07455338,0.08724532,0.71722186,0.092071414,-0.10220137,-0.1425006,0.6054575,-0.1962715,-0.43148866,-0.46886355,0.10822347,804.2491,791.75824,796.1905,826.8132,754.2857,0.11773681640625,-0.1944580078125,0.97314453125,4.66552734375,-3.117828369140625,-0.740203857421875,1.0,1.0,1.0,1.0,1.0,35.0,
2023-09-10 00:17:51.961,0.29298657,-0.045852844,0.16226332,0.43552315,0.1709037,-0.10481408,-0.57209986,0.26256612,0.42876714,0.06908157,0.08724532,0.70490557,0.06451907,-0.10520136,-0.16299734,0.58618945,-0.19663267,-0.46443978,-0.48914504,0.084711574,791.75824,793.36993,795.38464,783.69965,658.7912,0.11773681640625,-0.1944580078125,0.97314453125,4.66552734375,-3.117828369140625,-0.740203857421875,1.0,1.0,1.0,1.0,1.0,35.0,
2023-09-10 00:17:52.019,0.29298657,-0.045852844,0.16226332,0.43552315,0.1709037,-0.10481408,-0.57209986,0.26256612,0.42876714,0.06908157,0.08724532,0.70490557,0.06451907,-0.10520136,-0.16299734,0.58618945,-0.19663267,-0.46443978,-0.48914504,0.084711574,788.1319,793.36993,795.78754,782.8938,713.5897,0.11962890625,-0.180419921875,0.982177734375,5.1739501953125,-1.92901611328125,-1.547698974609375,1.0,1.0,1.0,1.0,1.0,35.0,
2023-09-10 00:17:52.022,0.2807243,-0.029928125,0.15733102,0.44287547,0.15283383,-0.12471485,-0.5111182,0.24835363,0.42876714,0.06742055,0.08724532,0.6539696,0.049744353,-0.106641956,-0.17980738,0.57173103,-0.19530264,-0.4793791,-0.49590647,0.060574546,789.7436,791.3553,801.8315,794.17584,712.381,0.11962890625,-0.180419921875,0.982177734375,5.1739501953125,-1.92901611328125,-1.547698974609375,1.0,1.0,1.0,1.0,1.0,35.0,
2023-09-10 00:17:52.068,0.2807243,-0.029928125,0.15733102,0.44287547,0.15283383,-0.12471485,-0.5111182,0.24835363,0.42876714,0.06742055,0.08724532,0.6539696,0.049744353,-0.106641956,-0.17980738,0.57173103,-0.19530264,-0.4793791,-0.49590647,0.060574546,805.4579,793.7729,796.1905,808.68134,750.2564,0.0762939453125,-0.18048095703125,0.96124267578125,7.245025634765625,-0.800018310546875,-2.504730224609375,1.0,1.0,1.0,1.0,1.0,35.0,
2023-09-10 00:17:52.101,0.2807243,-0.029928125,0.15733102,0.44287547,0.15283383,-0.12471485,-0.5111182,0.24835363,0.42876714,0.06742055,0.08724532,0.6539696,0.049744353,-0.106641956,-0.17980738,0.57173103,-0.19530264,-0.4793791,-0.49590647,0.060574546,793.36993,802.23444,797.3993,776.4469,776.8498,0.1036376953125,-0.20599365234375,0.99981689453125,2.3028564453125,-3.0206298828125,-9.174041748046877,1.0,1.0,1.0,1.0,1.0,35.0,
2023-09-10 00:17:52.105,0.26648813,-0.008352045,0.16166121,0.45944574,0.123563446,-0.14134093,-0.40201876,0.23406039,0.4289335,0.05420961,0.08724532,0.6051092,0.04883912,-0.11078227,-0.18871523,0.56432295,-0.19556385,-0.47577113,-0.49275023,0.034034412,789.34064,792.5641,794.17584,793.7729,836.08057,0.1036376953125,-0.20599365234375,0.99981689453125,2.3028564453125,-3.0206298828125,-9.174041748046877,1.0,1.0,1.0,1.0,1.0,35.0,
2023-09-10 00:17:52.135,0.26648813,-0.008352045,0.16166121,0.45944574,0.123563446,-0.14134093,-0.40201876,0.23406039,0.4289335,0.05420961,0.08724532,0.6051092,0.04883912,-0.11078227,-0.18871523,0.56432295,-0.19556385,-0.47577113,-0.49275023,0.034034412,801.8315,805.05493,803.8461,807.8755,948.0952,0.19219970703125,-0.198486328125,0.96368408203125,1.801910400390625,-10.06378173828125,-1.36077880859375,1.0,1.0,1.0,1.0,1.0,35.0,
2023-09-10 00:17:52.179,0.25881436,0.01920799,0.17492837,0.48467088,0.08908051,-0.15215388,-0.27077118,0.22515208,0.43066198,0.020511324,0.078805596,0.56514096,0.05207658,-0.11592246,-0.18980967,0.5611044,-0.20068166,-0.4631894,-0.4873607,0.010833264,804.65204,796.1905,795.38464,810.696,705.9341,0.19219970703125,-0.198486328125,0.96368408203125,1.801910400390625,-10.06378173828125,-1.36077880859375,1.0,1.0,1.0,1.0,1.0,35.0,
2023-09-10 00:17:52.238,0.25881436,0.01920799,0.17492837,0.48467088,0.08908051,-0.15215388,-0.27077118,0.22515208,0.43066198,0.020511324,0.078805596,0.56514096,0.05207658,-0.11592246,-0.18980967,0.5611044,-0.20068166,-0.4631894,-0.4873607,0.010833264,779.67035,794.17584,795.78754,788.5348,700.293,0.1368408203125,-0.200439453125,0.9803466796875,3.6187744140625,-2.94586181640625,4.284210205078125,1.0,1.0,1.0,1.0,1.0,35.0,
2023-09-10 00:17:52.283,0.25881436,0.01920799,0.17492837,0.48467088,0.08908051,-0.15215388,-0.27077118,0.22515208,0.43066198,0.020511324,0.078805596,0.56514096,0.05207658,-0.11592246,-0.18980967,0.5611044,-0.20068166,-0.4631894,-0.4873607,0.010833264,804.65204,795.78754,793.7729,793.7729,718.4249,0.1134033203125,-0.20758056640625,0.95867919921875,4.029998779296875,-1.77947998046875,-1.1663818359375,1.0,1.0,1.0,1.0,1.0,35.0,
2023-09-10 00:17:52.292,0.2582237,0.048517365,0.18853222,0.51069003,0.059469525,-0.15702043,-0.15236333,0.22597499,0.4153789,-0.007995435,0.053542163,0.5525572,0.054640643,-0.117443405,-0.18709324,0.5557328,-0.21077745,-0.45075607,-0.48433027,0.0030812833,811.0989,795.38464,794.57874,804.2491,803.44324,0.1134033203125,-0.20758056640625,0.95867919921875,4.029998779296875,-1.77947998046875,-1.1663818359375,1.0,1.0,1.0,1.0,1.0,35.0,
2023-09-10 00:17:52.321,0.2582237,0.048517365,0.18853222,0.51069003,0.059469525,-0.15702043,-0.15236333,0.22597499,0.4153789,-0.007995435,0.053542163,0.5525572,0.054640643,-0.117443405,-0.18709324,0.5557328,-0.21077745,-0.45075607,-0.48433027,0.0030812833,795.38464,799.011,798.60803,808.68134,812.3077,0.1241455078125,-0.21533203125,0.97125244140625,5.562744140625,-1.15142822265625,-4.7552490234375,1.0,1.0,1.0,1.0,1.0,35.0,
2023-09-10 00:17:52.391,0.2582237,0.048517365,0.18853222,0.51069003,0.059469525,-0.15702043,-0.15236333,0.22597499,0.4153789,-0.007995435,0.053542163,0.5525572,0.054640643,-0.117443405,-0.18709324,0.5557328,-0.21077745,-0.45075607,-0.48433027,0.0030812833,780.87915,796.1905,796.1905,787.72894,647.1062,0.13751220703125,-0.20745849609375,0.9788818359375,4.94964599609375,-3.48419189453125,-0.07476806640625,1.0,1.0,1.0,1.0,1.0,35.0,
2023-09-10 00:17:52.441,0.2582237,0.048517365,0.18853222,0.51069003,0.059469525,-0.15702043,-0.15236333,0.22597499,0.4153789,-0.007995435,0.053542163,0.5525572,0.054640643,-0.117443405,-0.18709324,0.5557328,-0.21077745,-0.45075607,-0.48433027,0.0030812833,816.7399,797.3993,794.57874,813.5165,793.36993,0.11907958984375,-0.19952392578125,0.9610595703125,5.1141357421875,-0.91217041015625,4.403839111328125,1.0,1.0,1.0,1.0,1.0,35.0,
2023-09-10 00:17:52.442,0.26330942,0.069545224,0.19724439,0.5280562,0.036290586,-0.15795851,-0.06442811,0.22982226,0.39514512,-0.025456121,0.018341253,0.5525572,0.060230717,-0.1122182,-0.18346493,0.5416083,-0.2218793,-0.44115782,-0.4852306,0.0155143505,815.5311,796.5934,790.14655,815.12823,929.15753,0.11907958984375,-0.19952392578125,0.9610595703125,5.1141357421875,-0.91217041015625,4.403839111328125,1.0,1.0,1.0,1.0,1.0,35.0,
2023-09-10 00:17:52.537,0.26330942,0.069545224,0.19724439,0.5280562,0.036290586,-0.15795851,-0.06442811,0.22982226,0.39514512,-0.025456121,0.018341253,0.5525572,0.060230717,-0.1122182,-0.18346493,0.5416083,-0.2218793,-0.44115782,-0.4852306,0.0155143505,788.93774,800.2198,799.011,785.7143,810.293,0.0836181640625,-0.20697021484375,0.9822998046875,5.60760498046875,-0.560760498046875,1.00189208984375,1.0,1.0,1.0,1.0,1.0,35.0,
2023-09-10 00:17:52.540,0.27017477,0.07945126,0.20177133,0.53508735,0.012141335,-0.15563062,-0.0074982024,0.22493829,0.38149574,-0.028795261,-0.0035305037,0.5421105,0.07304189,-0.10154989,-0.1773849,0.5188415,-0.2317757,-0.43043333,-0.49218085,0.03700652,802.23444,801.4286,796.99634,804.2491,785.7143,0.0836181640625,-0.20697021484375,0.9822998046875,5.60760498046875,-0.560760498046875,1.00189208984375,1.0,1.0,1.0,1.0,1.0,35.0,
2023-09-10 00:17:52.555,0.27017477,0.07945126,0.20177133,0.53508735,0.012141335,-0.15563062,-0.0074982024,0.22493829,0.38149574,-0.028795261,-0.0035305037,0.5421105,0.07304189,-0.10154989,-0.1773849,0.5188415,-0.2317757,-0.43043333,-0.49218085,0.03700652,807.8755,797.3993,795.38464,799.011,704.3223,0.10638427734375,-0.20135498046875,0.96282958984375,6.1309814453125,-0.964508056640625,-2.55706787109375,1.0,1.0,1.0,1.0,1.0,35.0,
2023-09-10 00:17:52.645,0.27017477,0.07945126,0.20177133,0.53508735,0.012141335,-0.15563062,-0.0074982024,0.22493829,0.38149574,-0.028795261,-0.0035305037,0.5421105,0.07304189,-0.10154989,-0.1773849,0.5188415,-0.2317757,-0.43043333,-0.49218085,0.03700652,803.0403,800.2198,801.02563,788.93774,873.5531,0.1142578125,-0.20111083984375,0.97344970703125,4.059906005859375,-1.443023681640625,-2.743988037109375,1.0,1.0,1.0,1.0,1.0,35.0,
2023-09-10 00:17:52.649,0.27887025,0.078183435,0.20486735,0.53608584,-0.014239772,-0.15006864,0.025660114,0.21074109,0.37620044,-0.026711231,-0.011958406,0.5226222,0.088211305,-0.091207564,-0.16475177,0.497162,-0.23969443,-0.41171867,-0.50829387,0.05142986,804.65204,794.57874,801.02563,803.8461,805.05493,0.1142578125,-0.20111083984375,0.97344970703125,4.059906005859375,-1.443023681640625,-2.743988037109375,1.0,1.0,1.0,1.0,1.0,35.0,
2023-09-10 00:17:52.693,0.27887025,0.078183435,0.20486735,0.53608584,-0.014239772,-0.15006864,0.025660114,0.21074109,0.37620044,-0.026711231,-0.011958406,0.5226222,0.088211305,-0.091207564,-0.16475177,0.497162,-0.23969443,-0.41171867,-0.50829387,0.05142986,792.5641,794.17584,793.36993,784.5055,660.40295,0.13177490234375,-0.19561767578125,0.97589111328125,4.59075927734375,-3.656158447265625,-0.127105712890625,1.0,1.0,1.0,1.0,1.0,35.0,
2023-09-10 00:17:52.731,0.29000956,0.066863954,0.20022239,0.5380685,-0.027389912,-0.13708168,0.042087365,0.19915098,0.38064945,-0.026711231,-0.0043463204,0.51808465,0.096029334,-0.08693204,-0.14369158,0.49084517,-0.24532951,-0.38183826,-0.532035,0.052869134,797.8022,794.17584,800.2198,797.3993,789.7436,0.13177490234375,-0.19561767578125,0.97589111328125,4.59075927734375,-3.656158447265625,-0.127105712890625,1.0,1.0,1.0,1.0,1.0,35.0,
2023-09-10 00:17:52.767,0.29000956,0.066863954,0.20022239,0.5380685,-0.027389912,-0.13708168,0.042087365,0.19915098,0.38064945,-0.026711231,-0.0043463204,0.51808465,0.096029334,-0.08693204,-0.14369158,0.49084517,-0.24532951,-0.38183826,-0.532035,0.052869134,790.14655,793.7729,791.3553,811.0989,814.7253,0.13250732421875,-0.17535400390625,0.97528076171875,6.14593505859375,-3.372039794921875,1.532745361328125,1.0,1.0,1.0,1.0,1.0,35.0,
2023-09-10 00:17:52.809,0.29000956,0.066863954,0.20022239,0.5380685,-0.027389912,-0.13708168,0.042087365,0.19915098,0.38064945,-0.026711231,-0.0043463204,0.51808465,0.096029334,-0.08693204,-0.14369158,0.49084517,-0.24532951,-0.38183826,-0.532035,0.052869134,792.1612,794.17584,793.7729,786.1172,703.5165,0.06671142578125,-0.18707275390625,0.97833251953125,5.87677001953125,1.1962890625,-3.267364501953125,1.0,1.0,1.0,1.0,1.0,35.0,
2023-09-10 00:17:52.815,0.30030552,0.051753197,0.17661859,0.5393356,-0.01212952,-0.12060647,0.047275383,0.2002287,0.37750247,-0.030530138,0.050232045,0.5215691,0.09061654,-0.09078261,-0.1181117,0.50467527,-0.24543655,-0.34416544,-0.55652195,0.048995078,792.96704,792.96704,793.7729,798.60803,1067.3627,0.06671142578125,-0.18707275390625,0.97833251953125,5.87677001953125,1.1962890625,-3.267364501953125,1.0,1.0,1.0,1.0,1.0,35.0,
2023-09-10 00:17:52.855,0.30030552,0.051753197,0.17661859,0.5393356,-0.01212952,-0.12060647,0.047275383,0.2002287,0.37750247,-0.030530138,0.050232045,0.5215691,0.09061654,-0.09078261,-0.1181117,0.50467527,-0.24543655,-0.34416544,-0.55652195,0.048995078,800.6227,792.5641,790.9524,813.1135,788.1319,0.08319091796875,-0.2020263671875,0.995361328125,2.67669677734375,-3.805694580078125,-5.689849853515625,1.0,1.0,1.0,1.0,1.0,35.0,
2023-09-10 00:17:52.894,0.30030552,0.051753197,0.17661859,0.5393356,-0.01212952,-0.12060647,0.047275383,0.2002287,0.37750247,-0.030530138,0.050232045,0.5215691,0.09061654,-0.09078261,-0.1181117,0.50467527,-0.24543655,-0.34416544,-0.55652195,0.048995078,786.1172,789.7436,790.14655,799.81683,1047.2161,0.176025390625,-0.21917724609375,0.9610595703125,-2.61688232421875,-11.162872314453123,-2.624359130859375,1.0,1.0,1.0,1.0,1.0,35.0,
2023-09-10 00:17:52.903,0.31411985,0.025743525,0.12339547,0.53540534,0.024316445,-0.11247955,0.046159357,0.20839001,0.36025843,-0.03656019,0.13550155,0.52458876,0.07382015,-0.1001292,-0.09527812,0.52924275,-0.23928314,-0.3067176,-0.573777,0.051798787,787.72894,799.41394,796.5934,788.1319,709.5604,0.176025390625,-0.21917724609375,0.9610595703125,-2.61688232421875,-11.162872314453123,-2.624359130859375,1.0,1.0,1.0,1.0,1.0,35.0,
2023-09-10 00:17:52.952,0.31411985,0.025743525,0.12339547,0.53540534,0.024316445,-0.11247955,0.046159357,0.20839001,0.36025843,-0.03656019,0.13550155,0.52458876,0.07382015,-0.1001292,-0.09527812,0.52924275,-0.23928314,-0.3067176,-0.573777,0.051798787,790.14655,801.4286,796.1905,786.52014,640.65936,0.154541015625,-0.229248046875,0.96270751953125,1.861724853515625,-4.942169189453125,3.850555419921875,1.0,1.0,1.0,1.0,1.0,35.0,
2023-09-10 00:17:53.042,0.31411985,0.025743525,0.12339547,0.53540534,0.024316445,-0.11247955,0.046159357,0.20839001,0.36025843,-0.03656019,0.13550155,0.52458876,0.07382015,-0.1001292,-0.09527812,0.52924275,-0.23928314,-0.3067176,-0.573777,0.051798787,785.31134,789.34064,795.78754,773.6264,723.2601,0.14056396484375,-0.21209716796875,0.96563720703125,7.050628662109375,-4.209442138671875,2.175750732421875,1.0,1.0,1.0,1.0,1.0,35.0,
2023-09-10 00:17:53.043,0.33068377,-0.019604066,0.03666781,0.5249432,0.0603178,-0.12430452,0.042271517,0.2073779,0.32909325,-0.042425983,0.18375546,0.50086266,0.054286923,-0.1115977,-0.08079098,0.55228996,-0.2318411,-0.2758923,-0.5814611,0.06742396,778.46155,793.7729,791.3553,757.9121,643.47986,0.14056396484375,-0.21209716796875,0.96563720703125,7.050628662109375,-4.209442138671875,2.175750732421875,1.0,1.0,1.0,1.0,1.0,35.0,
2023-09-10 00:17:53.109,0.33068377,-0.019604066,0.03666781,0.5249432,0.0603178,-0.12430452,0.042271517,0.2073779,0.32909325,-0.042425983,0.18375546,0.50086266,0.054286923,-0.1115977,-0.08079098,0.55228996,-0.2318411,-0.2758923,-0.5814611,0.06742396,794.57874,796.1905,790.54944,791.3553,552.01465,0.140380859375,-0.2080078125,0.976318359375,8.3441162109375,-2.459869384765625,-0.11962890625,1.0,1.0,1.0,1.0,1.0,35.0,
2023-09-10 00:17:53.154,0.33068377,-0.019604066,0.03666781,0.5249432,0.0603178,-0.12430452,0.042271517,0.2073779,0.32909325,-0.042425983,0.18375546,0.50086266,0.054286923,-0.1115977,-0.08079098,0.55228996,-0.2318411,-0.2758923,-0.5814611,0.06742396,815.5311,792.96704,797.8022,817.5458,764.7619,0.1334228515625,-0.19757080078125,0.97283935546875,5.24871826171875,-1.3458251953125,2.579498291015625,1.0,1.0,1.0,1.0,1.0,35.0,
2023-09-10 00:17:53.158,0.34512675,-0.08034156,-0.06740947,0.50966454,0.08363937,-0.15492697,0.037917886,0.18969744,0.27886072,-0.048980534,0.19674255,0.4607255,0.043330632,-0.12414904,-0.07439535,0.5683863,-0.22869155,-0.25434944,-0.5825498,0.091014996,788.1319,794.57874,796.99634,784.5055,621.31866,0.1334228515625,-0.19757080078125,0.97283935546875,5.24871826171875,-1.3458251953125,2.579498291015625,1.0,1.0,1.0,1.0,1.0,35.0,
2023-09-10 00:17:53.195,0.34512675,-0.08034156,-0.06740947,0.50966454,0.08363937,-0.15492697,0.037917886,0.18969744,0.27886072,-0.048980534,0.19674255,0.4607255,0.043330632,-0.12414904,-0.07439535,0.5683863,-0.22869155,-0.25434944,-0.5825498,0.091014996,788.1319,802.6374,795.78754,790.14655,929.5604,0.11431884765625,-0.20068359375,0.973876953125,4.02252197265625,-1.443023681640625,4.7552490234375,1.0,1.0,1.0,1.0,1.0,35.0,
2023-09-10 00:17:53.242,0.34512675,-0.08034156,-0.06740947,0.50966454,0.08363937,-0.15492697,0.037917886,0.18969744,0.27886072,-0.048980534,0.19674255,0.4607255,0.043330632,-0.12414904,-0.07439535,0.5683863,-0.22869155,-0.25434944,-0.5825498,0.091014996,788.5348,796.99634,793.36993,795.78754,705.12823,0.10284423828125,-0.21063232421875,0.9683837890625,6.35528564453125,-2.444915771484375,1.502838134765625,1.0,1.0,1.0,1.0,1.0,35.0,
2023-09-10 00:17:53.246,0.35441205,-0.1275719,-0.15362425,0.49944234,0.09528564,-0.18633966,0.03420537,0.16474493,0.2516127,-0.048980534,0.19434476,0.4607255,0.04723711,-0.13659044,-0.07121728,0.5782922,-0.23249944,-0.23970278,-0.58086807,0.11362406,786.52014,795.78754,794.17584,780.87915,715.2015,0.10284423828125,-0.21063232421875,0.9683837890625,6.35528564453125,-2.444915771484375,1.502838134765625,1.0,1.0,1.0,1.0,1.0,35.0,
2023-09-10 00:17:53.320,0.35441205,-0.1275719,-0.15362425,0.49944234,0.09528564,-0.18633966,0.03420537,0.16474493,0.2516127,-0.048980534,0.19434476,0.4607255,0.04723711,-0.13659044,-0.07121728,0.5782922,-0.23249944,-0.23970278,-0.58086807,0.11362406,793.7729,800.6227,799.41394,813.91943,1041.1721,0.12066650390625,-0.19970703125,0.97210693359375,6.676788330078125,-2.370147705078125,-1.375732421875,1.0,1.0,1.0,1.0,1.0,35.0,
2023-09-10 00:17:53.326,0.3566629,-0.13822873,-0.20750543,0.49794036,0.10194731,-0.19663297,0.031181805,0.14676547,0.24011716,-0.04354421,0.18292756,0.4607255,0.0615209,-0.14416236,-0.06577099,0.5859008,-0.24112652,-0.22722168,-0.57839054,0.13022213,801.02563,799.41394,790.54944,785.7143,998.86444,0.12066650390625,-0.19970703125,0.97210693359375,6.676788330078125,-2.370147705078125,-1.375732421875,1.0,1.0,1.0,1.0,1.0,35.0,
2023-09-10 00:17:53.356,0.3566629,-0.13822873,-0.20750543,0.49794036,0.10194731,-0.19663297,0.031181805,0.14676547,0.24011716,-0.04354421,0.18292756,0.4607255,0.0615209,-0.14416236,-0.06577099,0.5859008,-0.24112652,-0.22722168,-0.57839054,0.13022213,790.14655,799.41394,788.5348,782.8938,637.8388,0.123779296875,-0.18511962890625,0.97137451171875,5.81695556640625,-1.83929443359375,1.2860107421875,1.0,1.0,1.0,1.0,1.0,35.0,
2023-09-10 00:17:53.401,0.3566629,-0.13822873,-0.20750543,0.49794036,0.10194731,-0.19663297,0.031181805,0.14676547,0.24011716,-0.04354421,0.18292756,0.4607255,0.0615209,-0.14416236,-0.06577099,0.5859008,-0.24112652,-0.22722168,-0.57839054,0.13022213,806.26373,793.7729,794.9817,813.91943,805.05493,0.1014404296875,-0.20257568359375,0.97003173828125,3.880462646484375,-2.28790283203125,0.725250244140625,1.0,1.0,1.0,1.0,1.0,35.0,
2023-09-10 00:17:53.406,0.34551826,-0.12213412,-0.23912348,0.49805248,0.11186903,-0.18340467,0.023805436,0.14095756,0.22379653,-0.029812058,0.17088446,0.48826253,0.07455053,-0.14282095,-0.058030795,0.59433305,-0.25235015,-0.21516617,-0.5780459,0.14040968,799.41394,798.60803,795.78754,803.8461,826.0073,0.1014404296875,-0.20257568359375,0.97003173828125,3.880462646484375,-2.28790283203125,0.725250244140625,1.0,1.0,1.0,1.0,1.0,35.0,
2023-09-10 00:17:53.482,0.34551826,-0.12213412,-0.23912348,0.49805248,0.11186903,-0.18340467,0.023805436,0.14095756,0.22379653,-0.029812058,0.17088446,0.48826253,0.07455053,-0.14282095,-0.058030795,0.59433305,-0.25235015,-0.21516617,-0.5780459,0.14040968,788.5348,795.38464,791.75824,792.1612,691.8315,0.11968994140625,-0.2039794921875,0.96844482421875,4.246826171875,-5.301055908203125,-0.650482177734375,1.0,1.0,1.0,1.0,1.0,35.0,
2023-09-10 00:17:53.535,0.32394725,-0.114504516,-0.26990923,0.48716792,0.13012259,-0.16151752,0.0024459076,0.14094223,0.22379653,-0.0051921643,0.1678402,0.58697206,0.077703685,-0.13352251,-0.050875295,0.6039961,-0.26340136,-0.20654973,-0.5818968,0.14481176,802.23444,795.38464,796.5934,807.0696,672.8938,0.11968994140625,-0.2039794921875,0.96844482421875,4.246826171875,-5.301055908203125,-0.650482177734375,1.0,1.0,1.0,1.0,1.0,35.0,
2023-09-10 00:17:53.562,0.32394725,-0.114504516,-0.26990923,0.48716792,0.13012259,-0.16151752,0.0024459076,0.14094223,0.22379653,-0.0051921643,0.1678402,0.58697206,0.077703685,-0.13352251,-0.050875295,0.6039961,-0.26340136,-0.20654973,-0.5818968,0.14481176,801.8315,799.011,797.8022,817.9487,887.25275,0.1279296875,-0.200439453125,0.97393798828125,5.330963134765625,-3.6187744140625,-1.816864013671875,1.0,1.0,1.0,1.0,1.0,35.0,
2023-09-10 00:17:53.612,0.32394725,-0.114504516,-0.26990923,0.48716792,0.13012259,-0.16151752,0.0024459076,0.14094223,0.22379653,-0.0051921643,0.1678402,0.58697206,0.077703685,-0.13352251,-0.050875295,0.6039961,-0.26340136,-0.20654973,-0.5818968,0.14481176,784.5055,796.5934,803.0403,792.96704,861.8681,0.1431884765625,-0.191162109375,0.97930908203125,5.0244140625,-0.0,-2.13836669921875,1.0,1.0,1.0,1.0,1.0,35.0,
2023-09-10 00:17:53.666,0.32394725,-0.114504516,-0.26990923,0.48716792,0.13012259,-0.16151752,0.0024459076,0.14094223,0.22379653,-0.0051921643,0.1678402,0.58697206,0.077703685,-0.13352251,-0.050875295,0.6039961,-0.26340136,-0.20654973,-0.5818968,0.14481176,798.60803,802.23444,801.4286,807.47253,1038.7546,0.11273193359375,-0.192626953125,0.95684814453125,4.725341796875,0.55328369140625,-0.97198486328125,1.0,1.0,1.0,1.0,1.0,35.0,
2023-09-10 00:17:53.667,0.29583582,-0.12973852,-0.3120589,0.4576367,0.15672834,-0.14235555,-0.044972133,0.13769487,0.22379653,0.021675525,0.1678402,0.6851664,0.070647106,-0.121540934,-0.04622062,0.6125618,-0.26911104,-0.20457314,-0.58732706,0.14396721,806.26373,804.65204,799.011,820.7692,1059.3041,0.11273193359375,-0.192626953125,0.95684814453125,4.725341796875,0.55328369140625,-0.97198486328125,1.0,1.0,1.0,1.0,1.0,35.0,
2023-09-10 00:17:53.720,0.29583582,-0.12973852,-0.3120589,0.4576367,0.15672834,-0.14235555,-0.044972133,0.13769487,0.22379653,0.021675525,0.1678402,0.6851664,0.070647106,-0.121540934,-0.04622062,0.6125618,-0.26911104,-0.20457314,-0.58732706,0.14396721,813.5165,802.23444,797.3993,817.5458,806.26373,0.07574462890625,-0.198974609375,0.98101806640625,5.4730224609375,-0.949554443359375,-3.349609375,1.0,1.0,1.0,1.0,1.0,35.0,
2023-09-10 00:17:53.758,0.29583582,-0.12973852,-0.3120589,0.4576367,0.15672834,-0.14235555,-0.044972133,0.13769487,0.22379653,0.021675525,0.1678402,0.6851664,0.070647106,-0.121540934,-0.04622062,0.6125618,-0.26911104,-0.20457314,-0.58732706,0.14396721,785.7143,798.60803,797.3993,777.25275,699.4872,0.1396484375,-0.21307373046875,0.97900390625,1.816864013671875,-9.3609619140625,-4.80010986328125,1.0,1.0,1.0,1.0,1.0,35.0,
2023-09-10 00:17:53.762,0.25965616,-0.16879524,-0.35377753,0.4021195,0.18545634,-0.12633769,-0.12794381,0.1271428,0.22379653,0.062845334,0.1678402,0.72193974,0.058681626,-0.1120542,-0.04454216,0.6188834,-0.26499847,-0.20809096,-0.5896551,0.13769448,809.89014,801.4286,799.011,812.3077,946.8865,0.1396484375,-0.21307373046875,0.97900390625,1.816864013671875,-9.3609619140625,-4.80010986328125,1.0,1.0,1.0,1.0,1.0,35.0,
2023-09-10 00:17:53.837,0.25965616,-0.16879524,-0.35377753,0.4021195,0.18545634,-0.12633769,-0.12794381,0.1271428,0.22379653,0.062845334,0.1678402,0.72193974,0.058681626,-0.1120542,-0.04454216,0.6188834,-0.26499847,-0.20809096,-0.5896551,0.13769448,792.1612,792.5641,793.36993,801.8315,755.09155,0.17669677734375,-0.20782470703125,0.96563720703125,5.465545654296875,-8.321685791015625,0.5084228515625,1.0,1.0,1.0,1.0,1.0,35.0,
2023-09-10 00:17:53.841,0.21986838,-0.22261518,-0.36588168,0.32924095,0.20867917,-0.10822367,-0.24757227,0.11128087,0.22836809,0.10384781,0.1678402,0.72196496,0.044351302,-0.10653469,-0.04678317,0.6229557,-0.25081733,-0.21323189,-0.58803993,0.12680146,796.99634,797.8022,788.93774,809.0842,935.6044,0.17669677734375,-0.20782470703125,0.96563720703125,5.465545654296875,-8.321685791015625,0.5084228515625,1.0,1.0,1.0,1.0,1.0,35.0,
2023-09-10 00:17:53.893,0.21986838,-0.22261518,-0.36588168,0.32924095,0.20867917,-0.10822367,-0.24757227,0.11128087,0.22836809,0.10384781,0.1678402,0.72196496,0.044351302,-0.10653469,-0.04678317,0.6229557,-0.25081733,-0.21323189,-0.58803993,0.12680146,783.69965,794.9817,795.78754,766.77655,662.8205,0.16668701171875,-0.192626953125,0.97576904296875,6.437530517578125,-3.865509033203125,2.51220703125,1.0,1.0,1.0,1.0,1.0,35.0,
2023-09-10 00:17:53.943,0.21986838,-0.22261518,-0.36588168,0.32924095,0.20867917,-0.10822367,-0.24757227,0.11128087,0.22836809,0.10384781,0.1678402,0.72196496,0.044351302,-0.10653469,-0.04678317,0.6229557,-0.25081733,-0.21323189,-0.58803993,0.12680146,804.65204,796.99634,796.5934,810.696,845.7509,0.1407470703125,-0.19683837890625,0.969970703125,5.121612548828125,-0.829925537109375,0.171966552734375,1.0,1.0,1.0,1.0,1.0,35.0,
2023-09-10 00:17:53.948,0.1850609,-0.268594,-0.34016165,0.26523945,0.22289947,-0.085448936,-0.39371842,0.09680506,0.24847493,0.17052487,0.1678402,0.72196496,0.024776865,-0.104655825,-0.05598378,0.62544215,-0.23284823,-0.21875785,-0.5872999,0.115753785,808.68134,788.1319,809.89014,815.9341,823.9927,0.1407470703125,-0.19683837890625,0.969970703125,5.121612548828125,-0.829925537109375,0.171966552734375,1.0,1.0,1.0,1.0,1.0,35.0,
2023-09-10 00:17:54.012,0.1850609,-0.268594,-0.34016165,0.26523945,0.22289947,-0.085448936,-0.39371842,0.09680506,0.24847493,0.17052487,0.1678402,0.72196496,0.024776865,-0.104655825,-0.05598378,0.62544215,-0.23284823,-0.21875785,-0.5872999,0.115753785,805.05493,807.8755,791.3553,794.9817,865.4945,0.13018798828125,-0.20501708984375,0.96453857421875,4.358978271484375,-1.256103515625,-0.874786376953125,1.0,1.0,1.0,1.0,1.0,35.0,
2023-09-10 00:17:54.055,0.16365631,-0.2898586,-0.2946875,0.22803682,0.2275951,-0.059798226,-0.5461896,0.08939712,0.31122336,0.2023485,0.16726801,0.72196496,-0.0011963346,-0.10561646,-0.074479,0.6239325,-0.21656206,-0.226964,-0.5914067,0.10928615,785.31134,797.3993,800.6227,810.293,775.2381,0.13018798828125,-0.20501708984375,0.96453857421875,4.358978271484375,-1.256103515625,-0.874786376953125,1.0,1.0,1.0,1.0,1.0,35.0,
2023-09-10 00:17:54.065,0.16365631,-0.2898586,-0.2946875,0.22803682,0.2275951,-0.059798226,-0.5461896,0.08939712,0.31122336,0.2023485,0.16726801,0.72196496,-0.0011963346,-0.10561646,-0.074479,0.6239325,-0.21656206,-0.226964,-0.5914067,0.10928615,795.78754,796.1905,796.5934,810.293,722.0513,0.13836669921875,-0.201416015625,0.96746826171875,3.887939453125,-3.117828369140625,0.889739990234375,1.0,1.0,1.0,1.0,1.0,35.0,
2023-09-10 00:17:54.122,0.16365631,-0.2898586,-0.2946875,0.22803682,0.2275951,-0.059798226,-0.5461896,0.08939712,0.31122336,0.2023485,0.16726801,0.72196496,-0.0011963346,-0.10561646,-0.074479,0.6239325,-0.21656206,-0.226964,-0.5914067,0.10928615,796.5934,798.60803,794.17584,812.71063,813.1135,0.13397216796875,-0.20587158203125,0.97100830078125,5.061798095703125,-3.162689208984375,1.24114990234375,1.0,1.0,1.0,1.0,1.0,35.0,
2023-09-10 00:17:54.130,0.15337463,-0.28442097,-0.25956804,0.21729057,0.22229183,-0.03808349,-0.67299974,0.0861861,0.3094931,0.21280971,0.1657519,0.73804384,-0.024773229,-0.10612099,-0.0982907,0.6144985,-0.20529847,-0.23960285,-0.5957578,0.1092661,793.36993,792.96704,796.5934,783.69965,732.52747,0.13397216796875,-0.20587158203125,0.97100830078125,5.061798095703125,-3.162689208984375,1.24114990234375,1.0,1.0,1.0,1.0,1.0,35.0,
2023-09-10 00:17:54.189,0.15337463,-0.28442097,-0.25956804,0.21729057,0.22229183,-0.03808349,-0.67299974,0.0861861,0.3094931,0.21280971,0.1657519,0.73804384,-0.024773229,-0.10612099,-0.0982907,0.6144985,-0.20529847,-0.23960285,-0.5957578,0.1092661,787.326,790.9524,794.9817,772.4176,583.8461,0.127197265625,-0.20166015625,0.97808837890625,5.4730224609375,-2.1234130859375,0.381317138671875,1.0,1.0,1.0,1.0,1.0,35.0,
2023-09-10 00:17:54.222,0.15337463,-0.28442097,-0.25956804,0.21729057,0.22229183,-0.03808349,-0.67299974,0.0861861,0.3094931,0.21280971,0.1657519,0.73804384,-0.024773229,-0.10612099,-0.0982907,0.6144985,-0.20529847,-0.23960285,-0.5957578,0.1092661,799.011,797.3993,801.4286,811.50183,677.72894,0.12481689453125,-0.19415283203125,0.96575927734375,4.792633056640625,-1.502838134765625,0.059814453125,1.0,1.0,1.0,1.0,1.0,35.0,
2023-09-10 00:17:54.282,0.15337463,-0.28442097,-0.25956804,0.21729057,0.22229183,-0.03808349,-0.67299974,0.0861861,0.3094931,0.21280971,0.1657519,0.73804384,-0.024773229,-0.10612099,-0.0982907,0.6144985,-0.20529847,-0.23960285,-0.5957578,0.1092661,803.8461,795.38464,795.78754,810.696,791.75824,0.1290283203125,-0.20208740234375,0.967529296875,4.000091552734375,-2.87109375,-0.4486083984375,1.0,1.0,1.0,1.0,1.0,35.0,
2023-09-10 00:17:54.283,0.1526676,-0.26974273,-0.24258792,0.21183234,0.20531073,-0.028997099,-0.72194725,0.080811135,0.30798867,0.21106155,0.16483654,0.773074,-0.033318166,-0.09846311,-0.11657738,0.5946059,-0.20006828,-0.255619,-0.5894594,0.116066344,792.5641,797.3993,792.1612,786.9231,801.02563,0.1290283203125,-0.20208740234375,0.967529296875,4.000091552734375,-2.87109375,-0.4486083984375,1.0,1.0,1.0,1.0,1.0,35.0,
2023-09-10 00:17:54.362,0.1526676,-0.26974273,-0.24258792,0.21183234,0.20531073,-0.028997099,-0.72194725,0.080811135,0.30798867,0.21106155,0.16483654,0.773074,-0.033318166,-0.09846311,-0.11657738,0.5946059,-0.20006828,-0.255619,-0.5894594,0.116066344,803.44324,794.17584,793.36993,813.1135,731.31866,0.124755859375,-0.19476318359375,0.96563720703125,4.822540283203125,-2.61688232421875,-0.11962890625,1.0,1.0,1.0,1.0,1.0,35.0,
2023-09-10 00:17:54.365,0.1579608,-0.2649138,-0.22789517,0.20324197,0.17656553,-0.03560356,-0.67509216,0.06962049,0.3111884,0.20715147,0.2025207,0.79452133,-0.025488727,-0.0773565,-0.12023195,0.56533563,-0.20290142,-0.27346575,-0.5675742,0.12564729,788.93774,793.7729,797.3993,780.87915,676.1172,0.124755859375,-0.19476318359375,0.96563720703125,4.822540283203125,-2.61688232421875,-0.11962890625,1.0,1.0,1.0,1.0,1.0,35.0,
2023-09-10 00:17:54.404,0.1579608,-0.2649138,-0.22789517,0.20324197,0.17656553,-0.03560356,-0.67509216,0.06962049,0.3111884,0.20715147,0.2025207,0.79452133,-0.025488727,-0.0773565,-0.12023195,0.56533563,-0.20290142,-0.27346575,-0.5675742,0.12564729,799.011,790.14655,792.5641,818.7546,991.2088,0.11895751953125,-0.18597412109375,0.95849609375,6.14593505859375,-1.906585693359375,-2.25799560546875,1.0,1.0,1.0,1.0,1.0,35.0,
2023-09-10 00:17:54.444,0.1579608,-0.2649138,-0.22789517,0.20324197,0.17656553,-0.03560356,-0.67509216,0.06962049,0.3111884,0.20715147,0.2025207,0.79452133,-0.025488727,-0.0773565,-0.12023195,0.56533563,-0.20290142,-0.27346575,-0.5675742,0.12564729,794.9817,798.60803,799.81683,784.10254,644.2857,0.09375,-0.197998046875,0.98150634765625,5.60760498046875,-1.577606201171875,-6.14593505859375,1.0,1.0,1.0,1.0,1.0,35.0,
2023-09-10 00:17:54.447,0.16007175,-0.27276954,-0.20558895,0.19504483,0.14240621,-0.05361385,-0.5845944,0.052524693,0.32250053,0.20715147,0.24545678,0.790595,-0.012929596,-0.04761977,-0.10972988,0.5328132,-0.21323682,-0.29185125,-0.5365261,0.13390301,802.23444,790.54944,796.1905,775.64105,639.0476,0.09375,-0.197998046875,0.98150634765625,5.60760498046875,-1.577606201171875,-6.14593505859375,1.0,1.0,1.0,1.0,1.0,35.0,
2023-09-10 00:17:54.499,0.16007175,-0.27276954,-0.20558895,0.19504483,0.14240621,-0.05361385,-0.5845944,0.052524693,0.32250053,0.20715147,0.24545678,0.790595,-0.012929596,-0.04761977,-0.10972988,0.5328132,-0.21323682,-0.29185125,-0.5365261,0.13390301,819.15753,794.17584,798.20514,814.7253,740.18317,0.15899658203125,-0.2095947265625,0.9798583984375,0.695343017578125,-6.123504638671875,-6.1907958984375,1.0,1.0,1.0,1.0,1.0,35.0,
2023-09-10 00:17:54.584,0.15913764,-0.28684354,-0.1779003,0.19211853,0.1127369,-0.07293889,-0.50452954,0.031001493,0.34022492,0.20715147,0.22329392,0.790595,-0.006686624,-0.021146942,-0.09246236,0.50534695,-0.22645718,-0.30909374,-0.5066379,0.14082214,786.9231,797.3993,798.20514,791.3553,975.4945,0.15899658203125,-0.2095947265625,0.9798583984375,0.695343017578125,-6.123504638671875,-6.1907958984375,1.0,1.0,1.0,1.0,1.0,35.0,
2023-09-10 00:17:54.624,0.15913764,-0.28684354,-0.1779003,0.19211853,0.1127369,-0.07293889,-0.50452954,0.031001493,0.34022492,0.20715147,0.22329392,0.790595,-0.006686624,-0.021146942,-0.09246236,0.50534695,-0.22645718,-0.30909374,-0.5066379,0.14082214,782.49084,800.2198,798.20514,780.07324,583.0403,0.1868896484375,-0.224609375,0.97003173828125,-0.01495361328125,-7.0281982421875,1.8841552734375,1.0,1.0,1.0,1.0,1.0,35.0,
2023-09-10 00:17:54.637,0.15913764,-0.28684354,-0.1779003,0.19211853,0.1127369,-0.07293889,-0.50452954,0.031001493,0.34022492,0.20715147,0.22329392,0.790595,-0.006686624,-0.021146942,-0.09246236,0.50534695,-0.22645718,-0.30909374,-0.5066379,0.14082214,810.293,806.6667,797.3993,810.293,738.1685,0.180419921875,-0.2159423828125,0.96307373046875,2.0037841796875,-2.73651123046875,5.5926513671875,1.0,1.0,1.0,1.0,1.0,35.0,
2023-09-10 00:17:54.642,0.16351667,-0.3064143,-0.15536003,0.2014287,0.098749034,-0.08652674,-0.45030946,0.01656053,0.34022492,0.20715147,0.16638742,0.790595,-0.010316072,-0.0067268903,-0.07601108,0.48817435,-0.23578374,-0.32242185,-0.48191622,0.14909306,790.54944,799.011,792.96704,790.54944,1108.8645,0.180419921875,-0.2159423828125,0.96307373046875,2.0037841796875,-2.73651123046875,5.5926513671875,1.0,1.0,1.0,1.0,1.0,35.0,
2023-09-10 00:17:54.688,0.16351667,-0.3064143,-0.15536003,0.2014287,0.098749034,-0.08652674,-0.45030946,0.01656053,0.34022492,0.20715147,0.16638742,0.790595,-0.010316072,-0.0067268903,-0.07601108,0.48817435,-0.23578374,-0.32242185,-0.48191622,0.14909306,790.54944,806.6667,793.36993,783.2967,781.685,0.16033935546875,-0.20953369140625,0.9765625,5.4132080078125,0.186920166015625,6.65435791015625,1.0,1.0,1.0,1.0,1.0,35.0,
2023-09-10 00:17:54.723,0.16351667,-0.3064143,-0.15536003,0.2014287,0.098749034,-0.08652674,-0.45030946,0.01656053,0.34022492,0.20715147,0.16638742,0.790595,-0.010316072,-0.0067268903,-0.07601108,0.48817435,-0.23578374,-0.32242185,-0.48191622,0.14909306,771.2088,808.2784,792.96704,770.0,698.68134,0.1519775390625,-0.201171875,0.96905517578125,6.093597412109375,2.392578125,6.886138916015625,1.0,1.0,1.0,1.0,1.0,35.0,
2023-09-10 00:17:54.729,0.19410281,-0.33349243,-0.13719372,0.23122494,0.107302606,-0.09779989,-0.41974935,0.01756155,0.34022492,0.20715147,0.11984817,0.790595,-0.023403421,-0.006255654,-0.063083634,0.47930562,-0.23623894,-0.33202636,-0.46061513,0.16017792,803.44324,808.68134,788.1319,796.5934,786.9231,0.1519775390625,-0.201171875,0.96905517578125,6.093597412109375,2.392578125,6.886138916015625,1.0,1.0,1.0,1.0,1.0,35.0,
2023-09-10 00:17:54.757,0.19410281,-0.33349243,-0.13719372,0.23122494,0.107302606,-0.09779989,-0.41974935,0.01756155,0.34022492,0.20715147,0.11984817,0.790595,-0.023403421,-0.006255654,-0.063083634,0.47930562,-0.23623894,-0.33202636,-0.46061513,0.16017792,809.89014,805.8608,788.5348,805.05493,955.7509,0.1224365234375,-0.19622802734375,0.97186279296875,5.323486328125,3.611297607421875,9.45068359375,1.0,1.0,1.0,1.0,1.0,35.0,
2023-09-10 00:17:54.901,0.19410281,-0.33349243,-0.13719372,0.23122494,0.107302606,-0.09779989,-0.41974935,0.01756155,0.34022492,0.20715147,0.11984817,0.790595,-0.023403421,-0.006255654,-0.063083634,0.47930562,-0.23623894,-0.33202636,-0.46061513,0.16017792,782.0879,798.20514,788.93774,789.34064,623.73627,0.09747314453125,-0.19586181640625,0.97412109375,4.119720458984375,2.2430419921875,8.194580078125,1.0,1.0,1.0,1.0,1.0,35.0,
2023-09-10 00:17:54.902,0.2531473,-0.3417409,-0.11163094,0.28721613,0.13617297,-0.11472898,-0.40494537,0.031487126,0.34297448,0.20715147,0.10786855,0.790595,-0.045386378,-0.014657329,-0.054070603,0.47259685,-0.22995229,-0.34278622,-0.44127697,0.1715692,800.2198,798.20514,786.9231,807.0696,690.2198,0.09747314453125,-0.19586181640625,0.97412109375,4.119720458984375,2.2430419921875,8.194580078125,1.0,1.0,1.0,1.0,1.0,35.0,
2023-09-10 00:17:54.922,0.2531473,-0.3417409,-0.11163094,0.28721613,0.13617297,-0.11472898,-0.40494537,0.031487126,0.34297448,0.20715147,0.10786855,0.790595,-0.045386378,-0.014657329,-0.054070603,0.47259685,-0.22995229,-0.34278622,-0.44127697,0.1715692,817.1429,798.60803,796.1905,824.3956,739.7802,0.08782958984375,-0.20440673828125,0.96295166015625,2.67669677734375,1.383209228515625,3.072967529296875,1.0,1.0,1.0,1.0,1.0,35.0,
2023-09-10 00:17:54.954,0.2531473,-0.3417409,-0.11163094,0.28721613,0.13617297,-0.11472898,-0.40494537,0.031487126,0.34297448,0.20715147,0.10786855,0.790595,-0.045386378,-0.014657329,-0.054070603,0.47259685,-0.22995229,-0.34278622,-0.44127697,0.1715692,780.4762,788.1319,798.60803,801.02563,706.7399,0.0794677734375,-0.21466064453125,0.97235107421875,2.6617431640625,-0.777587890625,-1.854248046875,1.0,1.0,1.0,1.0,1.0,35.0,
2023-09-10 00:17:54.958,0.32752484,-0.30115435,-0.06844163,0.367541,0.17548758,-0.13872823,-0.39870134,0.04782566,0.375362,0.20590083,0.10809145,0.7888243,-0.07327431,-0.020338146,-0.04809637,0.46995568,-0.22192441,-0.3576767,-0.42412367,0.18269031,817.1429,797.8022,800.6227,822.7839,729.707,0.0794677734375,-0.21466064453125,0.97235107421875,2.6617431640625,-0.777587890625,-1.854248046875,1.0,1.0,1.0,1.0,1.0,35.0,
2023-09-10 00:17:55.015,0.32752484,-0.30115435,-0.06844163,0.367541,0.17548758,-0.13872823,-0.39870134,0.04782566,0.375362,0.20590083,0.10809145,0.7888243,-0.07327431,-0.020338146,-0.04809637,0.46995568,-0.22192441,-0.3576767,-0.42412367,0.18269031,806.6667,795.38464,794.9817,796.1905,678.5348,0.09716796875,-0.2196044921875,0.9599609375,2.9608154296875,-2.691650390625,-2.908477783203125,1.0,1.0,1.0,1.0,1.0,35.0,
2023-09-10 00:17:55.086,0.32752484,-0.30115435,-0.06844163,0.367541,0.17548758,-0.13872823,-0.39870134,0.04782566,0.375362,0.20590083,0.10809145,0.7888243,-0.07327431,-0.020338146,-0.04809637,0.46995568,-0.22192441,-0.3576767,-0.42412367,0.18269031,801.4286,792.96704,792.1612,818.3516,870.7326,0.09893798828125,-0.226318359375,0.972412109375,2.61688232421875,-3.18511962890625,-1.547698974609375,1.0,1.0,1.0,1.0,1.0,35.0,
2023-09-10 00:17:55.090,0.3969329,-0.20942274,-0.015110811,0.46193537,0.21176445,-0.16163531,-0.39330682,0.05759908,0.4286801,0.20354684,0.10809145,0.7878235,-0.09908796,-0.012600943,-0.044978224,0.47922996,-0.216952,-0.37233126,-0.4106802,0.19536938,806.26373,794.57874,787.72894,808.2784,912.6374,0.09893798828125,-0.226318359375,0.972412109375,2.61688232421875,-3.18511962890625,-1.547698974609375,1.0,1.0,1.0,1.0,1.0,35.0,
2023-09-10 00:17:55.141,0.3969329,-0.20942274,-0.015110811,0.46193537,0.21176445,-0.16163531,-0.39330682,0.05759908,0.4286801,0.20354684,0.10809145,0.7878235,-0.09908796,-0.012600943,-0.044978224,0.47922996,-0.216952,-0.37233126,-0.4106802,0.19536938,796.5934,800.6227,799.81683,793.7729,684.57874,0.10260009765625,-0.23223876953125,0.9688720703125,4.844970703125,-2.714080810546875,-1.936492919921875,1.0,1.0,1.0,1.0,1.0,35.0,
2023-09-10 00:17:55.146,0.4458324,-0.1014171,0.03568237,0.5436175,0.23524244,-0.1756885,-0.38325837,0.059857603,0.46728197,0.20354684,0.10809145,0.7878235,-0.11254333,0.0078859115,-0.042757485,0.50138015,-0.2150101,-0.37538356,-0.40181798,0.20967512,791.3553,797.3993,795.38464,809.89014,1082.674,0.10260009765625,-0.23223876953125,0.9688720703125,4.844970703125,-2.714080810546875,-1.936492919921875,1.0,1.0,1.0,1.0,1.0,35.0,
2023-09-10 00:17:55.195,0.4458324,-0.1014171,0.03568237,0.5436175,0.23524244,-0.1756885,-0.38325837,0.059857603,0.46728197,0.20354684,0.10809145,0.7878235,-0.11254333,0.0078859115,-0.042757485,0.50138015,-0.2150101,-0.37538356,-0.40181798,0.20967512,803.0403,792.96704,798.60803,817.1429,749.45056,0.09954833984375,-0.23468017578125,0.966064453125,5.091705322265625,-1.637420654296875,-2.893524169921875,1.0,1.0,1.0,1.0,1.0,35.0,
2023-09-10 00:17:55.247,0.4458324,-0.1014171,0.03568237,0.5436175,0.23524244,-0.1756885,-0.38325837,0.059857603,0.46728197,0.20354684,0.10809145,0.7878235,-0.11254333,0.0078859115,-0.042757485,0.50138015,-0.2150101,-0.37538356,-0.40181798,0.20967512,786.9231,787.72894,802.23444,811.50183,715.6044,0.110107421875,-0.21893310546875,0.96868896484375,6.10107421875,-2.175750732421875,-1.846771240234375,1.0,1.0,1.0,1.0,1.0,35.0,
2023-09-10 00:17:55.254,0.4741348,-0.008735338,0.07355419,0.6022751,0.24399176,-0.18386047,-0.36438015,0.058670904,0.4690706,0.20605098,0.10809145,0.7725393,-0.109003715,0.03103795,-0.03611925,0.5250775,-0.2117052,-0.35977083,-0.39577633,0.22373497,811.0989,797.8022,800.2198,820.3663,733.73627,0.110107421875,-0.21893310546875,0.96868896484375,6.10107421875,-2.175750732421875,-1.846771240234375,1.0,1.0,1.0,1.0,1.0,35.0,
2023-09-10 00:17:55.318,0.4741348,-0.008735338,0.07355419,0.6022751,0.24399176,-0.18386047,-0.36438015,0.058670904,0.4690706,0.20605098,0.10809145,0.7725393,-0.109003715,0.03103795,-0.03611925,0.5250775,-0.2117052,-0.35977083,-0.39577633,0.22373497,799.81683,796.99634,801.02563,799.81683,638.6447,0.09228515625,-0.205810546875,0.96649169921875,6.4300537109375,-2.64678955078125,-1.1065673828125,1.0,1.0,1.0,1.0,1.0,35.0,
2023-09-10 00:17:55.371,0.49305448,0.05266473,0.098639734,0.6367852,0.2433006,-0.19774432,-0.33718222,0.058282305,0.4690706,0.19666366,0.106117174,0.7447982,-0.089546986,0.048592824,-0.020645626,0.54015094,-0.20642771,-0.33071053,-0.38821363,0.23943537,802.23444,799.41394,800.6227,813.91943,817.9487,0.09228515625,-0.205810546875,0.96649169921875,6.4300537109375,-2.64678955078125,-1.1065673828125,1.0,1.0,1.0,1.0,1.0,35.0,
2023-09-10 00:17:55.402,0.49305448,0.05266473,0.098639734,0.6367852,0.2433006,-0.19774432,-0.33718222,0.058282305,0.4690706,0.19666366,0.106117174,0.7447982,-0.089546986,0.048592824,-0.020645626,0.54015094,-0.20642771,-0.33071053,-0.38821363,0.23943537,796.1905,795.78754,799.81683,778.86444,740.18317,0.0816650390625,-0.212158203125,0.9527587890625,6.05621337890625,-2.878570556640625,-4.97955322265625,1.0,1.0,1.0,1.0,1.0,35.0,
2023-09-10 00:17:55.410,0.49305448,0.05266473,0.098639734,0.6367852,0.2433006,-0.19774432,-0.33718222,0.058282305,0.4690706,0.19666366,0.106117174,0.7447982,-0.089546986,0.048592824,-0.020645626,0.54015094,-0.20642771,-0.33071053,-0.38821363,0.23943537,794.17584,794.9817,801.02563,805.05493,780.07324,0.0958251953125,-0.2279052734375,1.00146484375,4.14215087890625,-5.562744140625,-7.274932861328125,1.0,1.0,1.0,1.0,1.0,35.0,
2023-09-10 00:17:55.498,0.49305448,0.05266473,0.098639734,0.6367852,0.2433006,-0.19774432,-0.33718222,0.058282305,0.4690706,0.19666366,0.106117174,0.7447982,-0.089546986,0.048592824,-0.020645626,0.54015094,-0.20642771,-0.33071053,-0.38821363,0.23943537,804.65204,790.54944,807.0696,819.15753,821.1722,0.1865234375,-0.23626708984375,0.954833984375,1.8243408203125,-11.05072021484375,-1.906585693359375,1.0,1.0,1.0,1.0,1.0,35.0,
2023-09-10 00:17:55.499,0.51146245,0.08448258,0.113433465,0.65419096,0.23980984,-0.22515303,-0.30765268,0.06248664,0.4690706,0.16012798,0.10157953,0.7149963,-0.0587156,0.059093542,0.0024903235,0.5463744,-0.20110609,-0.29940826,-0.37375802,0.26001206,784.5055,788.1319,805.05493,791.3553,726.8865,0.1865234375,-0.23626708984375,0.954833984375,1.8243408203125,-11.05072021484375,-1.906585693359375,1.0,1.0,1.0,1.0,1.0,35.0,
2023-09-10 00:17:55.532,0.51146245,0.08448258,0.113433465,0.65419096,0.23980984,-0.22515303,-0.30765268,0.06248664,0.4690706,0.16012798,0.10157953,0.7149963,-0.0587156,0.059093542,0.0024903235,0.5463744,-0.20110609,-0.29940826,-0.37375802,0.26001206,782.49084,794.57874,798.60803,781.685,1009.34064,0.15985107421875,-0.23199462890625,0.98345947265625,6.542205810546875,-4.673004150390625,6.452484130859375,1.0,1.0,1.0,1.0,1.0,35.0,
2023-09-10 00:17:55.566,0.51146245,0.08448258,0.113433465,0.65419096,0.23980984,-0.22515303,-0.30765268,0.06248664,0.4690706,0.16012798,0.10157953,0.7149963,-0.0587156,0.059093542,0.0024903235,0.5463744,-0.20110609,-0.29940826,-0.37375802,0.26001206,788.5348,787.72894,799.41394,790.54944,693.0403,0.15716552734375,-0.21380615234375,0.97021484375,8.441314697265625,-1.667327880859375,6.602020263671875,1.0,1.0,1.0,1.0,1.0,35.0,
2023-09-10 00:17:55.568,0.5323779,0.09266068,0.11666408,0.667452,0.23339921,-0.2689448,-0.28534454,0.07402078,0.4689471,0.14261505,0.08254146,0.7028423,-0.024007449,0.06487836,0.027532255,0.551412,-0.19926715,-0.2737332,-0.3506088,0.2837485,780.07324,796.1905,796.5934,771.6117,739.3773,0.15716552734375,-0.21380615234375,0.97021484375,8.441314697265625,-1.667327880859375,6.602020263671875,1.0,1.0,1.0,1.0,1.0,35.0,
2023-09-10 00:17:55.663,0.5323779,0.09266068,0.11666408,0.667452,0.23339921,-0.2689448,-0.28534454,0.07402078,0.4689471,0.14261505,0.08254146,0.7028423,-0.024007449,0.06487836,0.027532255,0.551412,-0.19926715,-0.2737332,-0.3506088,0.2837485,780.87915,784.90845,797.3993,769.59705,674.5055,0.1256103515625,-0.20428466796875,0.98065185546875,7.768402099609375,1.428070068359375,6.759033203125,1.0,1.0,1.0,1.0,1.0,35.0,
2023-09-10 00:17:55.667,0.5554836,0.088326626,0.118987605,0.6844218,0.222261,-0.32256842,-0.27503875,0.09042014,0.42726994,0.12567419,0.069110766,0.7162753,0.0037088587,0.065756455,0.046397656,0.5613604,-0.20244369,-0.25742635,-0.32367972,0.30339712,779.67035,798.20514,794.9817,767.5824,758.71796,0.1256103515625,-0.20428466796875,0.98065185546875,7.768402099609375,1.428070068359375,6.759033203125,1.0,1.0,1.0,1.0,1.0,35.0,
2023-09-10 00:17:55.707,0.5554836,0.088326626,0.118987605,0.6844218,0.222261,-0.32256842,-0.27503875,0.09042014,0.42726994,0.12567419,0.069110766,0.7162753,0.0037088587,0.065756455,0.046397656,0.5613604,-0.20244369,-0.25742635,-0.32367972,0.30339712,800.6227,792.96704,790.14655,788.93774,663.6264,0.10076904296875,-0.19281005859375,0.9664306640625,5.091705322265625,0.73272705078125,4.78515625,1.0,1.0,1.0,1.0,1.0,35.0,
2023-09-10 00:17:55.771,0.5554836,0.088326626,0.118987605,0.6844218,0.222261,-0.32256842,-0.27503875,0.09042014,0.42726994,0.12567419,0.069110766,0.7162753,0.0037088587,0.065756455,0.046397656,0.5613604,-0.20244369,-0.25742635,-0.32367972,0.30339712,802.23444,800.6227,792.5641,812.71063,726.4835,0.07794189453125,-0.20086669921875,0.96759033203125,4.42626953125,-0.3289794921875,0.157012939453125,1.0,1.0,1.0,1.0,1.0,35.0,
2023-09-10 00:17:55.780,0.5802894,0.082743816,0.13294536,0.70856684,0.20633271,-0.37222052,-0.2767207,0.11013636,0.37184685,0.07906445,0.069110766,0.74623215,0.019159928,0.058916666,0.05140498,0.57654655,-0.20949961,-0.25057617,-0.30114356,0.31309992,783.2967,795.78754,794.57874,776.8498,681.3553,0.07794189453125,-0.20086669921875,0.96759033203125,4.42626953125,-0.3289794921875,0.157012939453125,1.0,1.0,1.0,1.0,1.0,35.0,
2023-09-10 00:17:55.856,0.5802894,0.082743816,0.13294536,0.70856684,0.20633271,-0.37222052,-0.2767207,0.11013636,0.37184685,0.07906445,0.069110766,0.74623215,0.019159928,0.058916666,0.05140498,0.57654655,-0.20949961,-0.25057617,-0.30114356,0.31309992,779.67035,794.17584,791.75824,779.2674,820.3663,0.0836181640625,-0.20159912109375,0.97271728515625,3.4991455078125,-2.056121826171875,-5.66741943359375,1.0,1.0,1.0,1.0,1.0,35.0,
2023-09-10 00:17:55.915,0.6076667,0.08368774,0.15506539,0.74264187,0.19125062,-0.4023212,-0.29021156,0.13157098,0.3542228,0.0036789938,0.07279728,0.7631931,0.026149536,0.045671895,0.039258957,0.5940445,-0.21884726,-0.2497919,-0.28711897,0.3161011,790.14655,801.4286,797.8022,776.4469,799.81683,0.0836181640625,-0.20159912109375,0.97271728515625,3.4991455078125,-2.056121826171875,-5.66741943359375,1.0,1.0,1.0,1.0,1.0,35.0,
2023-09-10 00:17:55.923,0.6076667,0.08368774,0.15506539,0.74264187,0.19125062,-0.4023212,-0.29021156,0.13157098,0.3542228,0.0036789938,0.07279728,0.7631931,0.026149536,0.045671895,0.039258957,0.5940445,-0.21884726,-0.2497919,-0.28711897,0.3161011,805.8608,806.26373,798.20514,805.4579,941.6484,0.10614013671875,-0.21044921875,0.9720458984375,2.94586181640625,-1.5850830078125,-4.71038818359375,1.0,1.0,1.0,1.0,1.0,35.0,
2023-09-10 00:17:55.958,0.6076667,0.08368774,0.15506539,0.74264187,0.19125062,-0.4023212,-0.29021156,0.13157098,0.3542228,0.0036789938,0.07279728,0.7631931,0.026149536,0.045671895,0.039258957,0.5940445,-0.21884726,-0.2497919,-0.28711897,0.3161011,783.69965,795.78754,799.011,790.9524,646.7033,0.0989990234375,-0.22674560546875,0.9677734375,2.13836669921875,-2.878570556640625,-1.9140625,1.0,1.0,1.0,1.0,1.0,35.0,
2023-09-10 00:17:55.965,0.63341486,0.09253283,0.17999353,0.7810578,0.18240999,-0.4075918,-0.31458357,0.15525834,0.34701398,-0.065754354,0.08019527,0.7705515,0.03351382,0.034693286,0.0140446955,0.6095598,-0.2282923,-0.25045002,-0.2808134,0.3203275,792.96704,797.3993,795.38464,795.78754,920.293,0.0989990234375,-0.22674560546875,0.9677734375,2.13836669921875,-2.878570556640625,-1.9140625,1.0,1.0,1.0,1.0,1.0,35.0,
2023-09-10 00:17:55.994,0.63341486,0.09253283,0.17999353,0.7810578,0.18240999,-0.4075918,-0.31458357,0.15525834,0.34701398,-0.065754354,0.08019527,0.7705515,0.03351382,0.034693286,0.0140446955,0.6095598,-0.2282923,-0.25045002,-0.2808134,0.3203275,810.293,801.02563,797.3993,817.9487,819.9634,0.1005859375,-0.22918701171875,0.95794677734375,3.60382080078125,-5.196380615234375,-0.755157470703125,1.0,1.0,1.0,1.0,1.0,35.0,
2023-09-10 00:17:56.035,0.63341486,0.09253283,0.17999353,0.7810578,0.18240999,-0.4075918,-0.31458357,0.15525834,0.34701398,-0.065754354,0.08019527,0.7705515,0.03351382,0.034693286,0.0140446955,0.6095598,-0.2282923,-0.25045002,-0.2808134,0.3203275,784.10254,791.3553,794.9817,797.3993,758.71796,0.106689453125,-0.22686767578125,0.9725341796875,5.674896240234375,-4.209442138671875,-1.51031494140625,1.0,1.0,1.0,1.0,1.0,35.0,
2023-09-10 00:17:56.098,0.63341486,0.09253283,0.17999353,0.7810578,0.18240999,-0.4075918,-0.31458357,0.15525834,0.34701398,-0.065754354,0.08019527,0.7705515,0.03351382,0.034693286,0.0140446955,0.6095598,-0.2282923,-0.25045002,-0.2808134,0.3203275,791.75824,795.78754,794.57874,776.4469,564.5055,0.116455078125,-0.216064453125,0.96795654296875,7.177734375,-3.028106689453125,-2.49725341796875,1.0,1.0,1.0,1.0,1.0,35.0,
2023-09-10 00:17:56.100,0.6516121,0.10408782,0.20122728,0.8129196,0.18075535,-0.3987022,-0.3455599,0.18158795,0.33849406,-0.09931337,0.018320646,0.77033985,0.04585137,0.035371915,-0.013009187,0.619647,-0.23560654,-0.24884346,-0.27904242,0.3292097,806.6667,796.1905,796.1905,801.8315,844.94507,0.116455078125,-0.216064453125,0.96795654296875,7.177734375,-3.028106689453125,-2.49725341796875,1.0,1.0,1.0,1.0,1.0,35.0,
2023-09-10 00:17:56.190,0.6516121,0.10408782,0.20122728,0.8129196,0.18075535,-0.3987022,-0.3455599,0.18158795,0.33849406,-0.09931337,0.018320646,0.77033985,0.04585137,0.035371915,-0.013009187,0.619647,-0.23560654,-0.24884346,-0.27904242,0.3292097,792.1612,786.1172,794.9817,804.2491,881.6117,0.12347412109375,-0.2220458984375,0.97637939453125,5.510406494140625,-3.2598876953125,-1.876678466796875,1.0,1.0,1.0,1.0,1.0,35.0,
2023-09-10 00:17:56.193,0.66003656,0.11586759,0.21713845,0.8332275,0.17819111,-0.39011592,-0.3763513,0.20275018,0.31844866,-0.08762385,-0.08180387,0.780204,0.06297014,0.04759284,-0.031272974,0.6233874,-0.24244694,-0.24414466,-0.2809372,0.3406731,801.8315,786.52014,794.17584,808.68134,699.0842,0.12347412109375,-0.2220458984375,0.97637939453125,5.510406494140625,-3.2598876953125,-1.876678466796875,1.0,1.0,1.0,1.0,1.0,35.0,
2023-09-10 00:17:56.229,0.66003656,0.11586759,0.21713845,0.8332275,0.17819111,-0.39011592,-0.3763513,0.20275018,0.31844866,-0.08762385,-0.08180387,0.780204,0.06297014,0.04759284,-0.031272974,0.6233874,-0.24244694,-0.24414466,-0.2809372,0.3406731,786.52014,801.02563,799.81683,795.38464,627.3626,0.12908935546875,-0.21343994140625,0.96282958984375,4.90478515625,-3.84307861328125,0.19439697265625,1.0,1.0,1.0,1.0,1.0,35.0,
2023-09-10 00:17:56.259,0.66003656,0.11586759,0.21713845,0.8332275,0.17819111,-0.39011592,-0.3763513,0.20275018,0.31844866,-0.08762385,-0.08180387,0.780204,0.06297014,0.04759284,-0.031272974,0.6233874,-0.24244694,-0.24414466,-0.2809372,0.3406731,787.326,796.1905,792.96704,811.50183,1036.7399,0.10443115234375,-0.1976318359375,0.96038818359375,6.38519287109375,-2.235565185546875,-0.2691650390625,1.0,1.0,1.0,1.0,1.0,35.0,
2023-09-10 00:17:56.262,0.6507704,0.12627351,0.22299404,0.8358348,0.16350879,-0.3878175,-0.39835265,0.21413799,0.29773864,-0.07091466,-0.098230615,0.80172914,0.08485264,0.061458603,-0.039162826,0.6212459,-0.25168416,-0.23807853,-0.2876145,0.35030967,803.0403,801.4286,795.78754,815.12823,763.95605,0.10443115234375,-0.1976318359375,0.96038818359375,6.38519287109375,-2.235565185546875,-0.2691650390625,1.0,1.0,1.0,1.0,1.0,35.0,
2023-09-10 00:17:56.330,0.6507704,0.12627351,0.22299404,0.8358348,0.16350879,-0.3878175,-0.39835265,0.21413799,0.29773864,-0.07091466,-0.098230615,0.80172914,0.08485264,0.061458603,-0.039162826,0.6212459,-0.25168416,-0.23807853,-0.2876145,0.35030967,795.38464,799.81683,794.9817,816.337,753.0769,0.08685302734375,-0.20367431640625,0.97503662109375,6.661834716796875,-3.372039794921875,-3.910369873046875,1.0,1.0,1.0,1.0,1.0,35.0,
2023-09-10 00:17:56.374,0.6260076,0.12627868,0.21698351,0.8216214,0.1282895,-0.387449,-0.4119971,0.21543926,0.29049307,-0.013335681,-0.09799777,0.86322534,0.11110296,0.06689715,-0.041228626,0.61276525,-0.2632686,-0.2326819,-0.29946667,0.3563283,815.9341,799.011,800.2198,831.2454,1151.5751,0.08685302734375,-0.20367431640625,0.97503662109375,6.661834716796875,-3.372039794921875,-3.910369873046875,1.0,1.0,1.0,1.0,1.0,35.0,
2023-09-10 00:17:56.414,0.6260076,0.12627868,0.21698351,0.8216214,0.1282895,-0.387449,-0.4119971,0.21543926,0.29049307,-0.013335681,-0.09799777,0.86322534,0.11110296,0.06689715,-0.041228626,0.61276525,-0.2632686,-0.2326819,-0.29946667,0.3563283,821.5751,792.96704,801.02563,812.71063,728.49817,0.1259765625,-0.220947265625,0.98956298828125,3.3197021484375,-6.92352294921875,-5.3533935546875,1.0,1.0,1.0,1.0,1.0,35.0,
2023-09-10 00:17:56.449,0.6260076,0.12627868,0.21698351,0.8216214,0.1282895,-0.387449,-0.4119971,0.21543926,0.29049307,-0.013335681,-0.09799777,0.86322534,0.11110296,0.06689715,-0.041228626,0.61276525,-0.2632686,-0.2326819,-0.29946667,0.3563283,784.10254,796.99634,805.05493,786.1172,728.49817,0.1815185546875,-0.21710205078125,0.95147705078125,3.357086181640625,-8.73291015625,-0.620574951171875,1.0,1.0,1.0,1.0,1.0,35.0,
2023-09-10 00:17:56.456,0.590074,0.110945754,0.19792348,0.791087,0.07204505,-0.38113508,-0.42249718,0.21136764,0.34668818,0.033036,-0.07465195,0.95195144,0.13805968,0.058786824,-0.04111995,0.59428406,-0.2739997,-0.23009491,-0.3144638,0.3585108,807.0696,799.011,802.6374,817.9487,988.3883,0.1815185546875,-0.21710205078125,0.95147705078125,3.357086181640625,-8.73291015625,-0.620574951171875,1.0,1.0,1.0,1.0,1.0,35.0,
2023-09-10 00:17:56.525,0.590074,0.110945754,0.19792348,0.791087,0.07204505,-0.38113508,-0.42249718,0.21136764,0.34668818,0.033036,-0.07465195,0.95195144,0.13805968,0.058786824,-0.04111995,0.59428406,-0.2739997,-0.23009491,-0.3144638,0.3585108,786.9231,799.011,796.5934,778.0586,592.71063,0.16314697265625,-0.20623779296875,0.9847412109375,7.357177734375,-4.717864990234375,4.02252197265625,1.0,1.0,1.0,1.0,1.0,35.0,
2023-09-10 00:17:56.558,0.590074,0.110945754,0.19792348,0.791087,0.07204505,-0.38113508,-0.42249718,0.21136764,0.34668818,0.033036,-0.07465195,0.95195144,0.13805968,0.058786824,-0.04111995,0.59428406,-0.2739997,-0.23009491,-0.3144638,0.3585108,800.2198,795.38464,801.02563,818.3516,841.31866,0.1385498046875,-0.20086669921875,0.974365234375,6.34033203125,-1.233673095703125,2.385101318359375,1.0,1.0,1.0,1.0,1.0,35.0,
2023-09-10 00:17:56.567,0.5540578,0.0805771,0.16847327,0.7463313,0.0071333745,-0.37274656,-0.43238303,0.2095359,0.39837623,0.04627957,-0.0676453,1.0203583,0.15972665,0.037605893,-0.039810415,0.5625442,-0.2796162,-0.23335159,-0.32835048,0.3583027,792.1612,795.78754,794.57874,798.20514,728.0952,0.1385498046875,-0.20086669921875,0.974365234375,6.34033203125,-1.233673095703125,2.385101318359375,1.0,1.0,1.0,1.0,1.0,35.0,
2023-09-10 00:17:56.616,0.5540578,0.0805771,0.16847327,0.7463313,0.0071333745,-0.37274656,-0.43238303,0.2095359,0.39837623,0.04627957,-0.0676453,1.0203583,0.15972665,0.037605893,-0.039810415,0.5625442,-0.2796162,-0.23335159,-0.32835048,0.3583027,780.87915,792.1612,793.36993,784.90845,680.9524,0.12872314453125,-0.20074462890625,0.96588134765625,4.254302978515625,-1.136474609375,-1.3458251953125,1.0,1.0,1.0,1.0,1.0,35.0,
2023-09-10 00:17:56.701,0.5540578,0.0805771,0.16847327,0.7463313,0.0071333745,-0.37274656,-0.43238303,0.2095359,0.39837623,0.04627957,-0.0676453,1.0203583,0.15972665,0.037605893,-0.039810415,0.5625442,-0.2796162,-0.23335159,-0.32835048,0.3583027,813.1135,798.20514,791.75824,807.47253,856.63007,0.1358642578125,-0.20611572265625,0.9547119140625,4.344024658203125,-1.136474609375,-1.757049560546875,1.0,1.0,1.0,1.0,1.0,35.0,
2023-09-10 00:17:56.702,0.5315076,0.036955167,0.13385749,0.6969049,-0.04558301,-0.37069362,-0.43788013,0.2132514,0.4116164,0.04627957,-0.07441449,1.0388395,0.17198119,0.009529195,-0.04045236,0.52090824,-0.28068087,-0.2467268,-0.3356333,0.35965475,800.6227,801.4286,789.7436,796.1905,803.8461,0.1358642578125,-0.20611572265625,0.9547119140625,4.344024658203125,-1.136474609375,-1.757049560546875,1.0,1.0,1.0,1.0,1.0,35.0,
2023-09-10 00:17:56.738,0.5315076,0.036955167,0.13385749,0.6969049,-0.04558301,-0.37069362,-0.43788013,0.2132514,0.4116164,0.04627957,-0.07441449,1.0388395,0.17198119,0.009529195,-0.04045236,0.52090824,-0.28068087,-0.2467268,-0.3356333,0.35965475,790.54944,792.96704,787.326,780.4762,715.6044,0.125,-0.20556640625,0.97509765625,4.912261962890625,-1.457977294921875,-0.79254150390625,1.0,1.0,1.0,1.0,1.0,35.0,
2023-09-10 00:17:56.792,0.5315076,0.036955167,0.13385749,0.6969049,-0.04558301,-0.37069362,-0.43788013,0.2132514,0.4116164,0.04627957,-0.07441449,1.0388395,0.17198119,0.009529195,-0.04045236,0.52090824,-0.28068087,-0.2467268,-0.3356333,0.35965475,801.8315,796.99634,800.2198,807.47253,577.3993,0.12518310546875,-0.21038818359375,0.9737548828125,4.508514404296875,-1.4654541015625,-0.456085205078125,1.0,1.0,1.0,1.0,1.0,35.0,
2023-09-10 00:17:56.794,0.5250832,-0.014524351,0.10291784,0.6534362,-0.07143859,-0.37624362,-0.4369971,0.2208898,0.35888693,0.04627957,-0.07441449,1.0358973,0.17419158,-0.015331094,-0.049262088,0.48198926,-0.28077847,-0.2727636,-0.3321802,0.36499313,793.7729,789.34064,795.78754,803.44324,760.32965,0.12518310546875,-0.21038818359375,0.9737548828125,4.508514404296875,-1.4654541015625,-0.456085205078125,1.0,1.0,1.0,1.0,1.0,35.0,
2023-09-10 00:17:56.827,0.5250832,-0.014524351,0.10291784,0.6534362,-0.07143859,-0.37624362,-0.4369971,0.2208898,0.35888693,0.04627957,-0.07441449,1.0358973,0.17419158,-0.015331094,-0.049262088,0.48198926,-0.28077847,-0.2727636,-0.3321802,0.36499313,806.6667,792.96704,794.57874,814.7253,759.5238,0.1201171875,-0.20953369140625,0.9710693359375,3.93280029296875,-1.98883056640625,-0.0897216796875,1.0,1.0,1.0,1.0,1.0,35.0,
2023-09-10 00:17:56.862,0.5250832,-0.014524351,0.10291784,0.6534362,-0.07143859,-0.37624362,-0.4369971,0.2208898,0.35888693,0.04627957,-0.07441449,1.0358973,0.17419158,-0.015331094,-0.049262088,0.48198926,-0.28077847,-0.2727636,-0.3321802,0.36499313,792.1612,803.0403,796.1905,792.96704,681.75824,0.11236572265625,-0.2132568359375,0.96673583984375,4.05242919921875,-1.7047119140625,-0.755157470703125,1.0,1.0,1.0,1.0,1.0,35.0,
2023-09-10 00:17:56.865,0.52251166,-0.060225386,0.077283844,0.6261799,-0.07619902,-0.3815307,-0.43516216,0.22787808,0.3012733,0.037780292,-0.07441449,1.030174,0.16684398,-0.03069921,-0.07068749,0.458343,-0.27979067,-0.3094861,-0.31988242,0.36937815,788.1319,800.2198,788.93774,775.64105,848.97437,0.11236572265625,-0.2132568359375,0.96673583984375,4.05242919921875,-1.7047119140625,-0.755157470703125,1.0,1.0,1.0,1.0,1.0,35.0,
2023-09-10 00:17:56.972,0.52251166,-0.060225386,0.077283844,0.6261799,-0.07619902,-0.3815307,-0.43516216,0.22787808,0.3012733,0.037780292,-0.07441449,1.030174,0.16684398,-0.03069921,-0.07068749,0.458343,-0.27979067,-0.3094861,-0.31988242,0.36937815,807.0696,797.8022,797.8022,805.4579,819.5604,0.124267578125,-0.217529296875,0.966064453125,4.47113037109375,-2.3028564453125,-2.130889892578125,1.0,1.0,1.0,1.0,1.0,35.0,
2023-09-10 00:17:56.977,0.5153574,-0.091854304,0.05545774,0.6188261,-0.07722269,-0.37711596,-0.43403804,0.23103657,0.28945878,0.03148698,-0.07519008,1.030174,0.14988245,-0.039241523,-0.10327978,0.44894958,-0.27763525,-0.34864822,-0.306962,0.36457378,790.9524,802.6374,793.36993,794.17584,753.8828,0.124267578125,-0.217529296875,0.966064453125,4.47113037109375,-2.3028564453125,-2.130889892578125,1.0,1.0,1.0,1.0,1.0,35.0,
2023-09-10 00:17:57.008,0.5153574,-0.091854304,0.05545774,0.6188261,-0.07722269,-0.37711596,-0.43403804,0.23103657,0.28945878,0.03148698,-0.07519008,1.030174,0.14988245,-0.039241523,-0.10327978,0.44894958,-0.27763525,-0.34864822,-0.306962,0.36457378,780.87915,795.38464,796.5934,782.49084,803.0403,0.12371826171875,-0.2086181640625,0.9688720703125,5.106658935546875,-2.52716064453125,-1.06170654296875,1.0,1.0,1.0,1.0,1.0,35.0,
2023-09-10 00:17:57.046,0.5153574,-0.091854304,0.05545774,0.6188261,-0.07722269,-0.37711596,-0.43403804,0.23103657,0.28945878,0.03148698,-0.07519008,1.030174,0.14988245,-0.039241523,-0.10327978,0.44894958,-0.27763525,-0.34864822,-0.306962,0.36457378,800.2198,796.1905,802.23444,815.9341,774.83514,0.12921142578125,-0.2071533203125,0.9678955078125,5.704803466796875,-3.147735595703125,0.7476806640625,1.0,1.0,1.0,1.0,1.0,35.0,
2023-09-10 00:17:57.051,0.49918458,-0.10113128,0.03901111,0.6228321,-0.077901214,-0.36098537,-0.42567524,0.2327807,0.2858384,0.03910032,-0.073300295,1.030174,0.12491293,-0.048064925,-0.14092661,0.44173592,-0.27492335,-0.3801593,-0.30191246,0.3485232,779.67035,793.7729,803.8461,784.10254,581.8315,0.12921142578125,-0.2071533203125,0.9678955078125,5.704803466796875,-3.147735595703125,0.7476806640625,1.0,1.0,1.0,1.0,1.0,35.0,
2023-09-10 00:17:57.117,0.49918458,-0.10113128,0.03901111,0.6228321,-0.077901214,-0.36098537,-0.42567524,0.2327807,0.2858384,0.03910032,-0.073300295,1.030174,0.12491293,-0.048064925,-0.14092661,0.44173592,-0.27492335,-0.3801593,-0.30191246,0.3485232,803.0403,799.011,809.89014,812.71063,773.22345,0.1251220703125,-0.2060546875,0.9652099609375,4.583282470703125,-3.596343994140625,0.770111083984375,1.0,1.0,1.0,1.0,1.0,35.0,
2023-09-10 00:17:57.167,0.47373873,-0.08897103,0.026520185,0.6246937,-0.07706173,-0.33824545,-0.40827924,0.23761232,0.28187725,0.04552167,-0.06959638,1.030174,0.09842437,-0.058825307,-0.17682754,0.4303162,-0.2708962,-0.39987117,-0.30815512,0.32839298,791.75824,800.6227,792.96704,790.14655,1022.23444,0.1251220703125,-0.2060546875,0.9652099609375,4.583282470703125,-3.596343994140625,0.770111083984375,1.0,1.0,1.0,1.0,1.0,35.0,
2023-09-10 00:17:57.202,0.47373873,-0.08897103,0.026520185,0.6246937,-0.07706173,-0.33824545,-0.40827924,0.23761232,0.28187725,0.04552167,-0.06959638,1.030174,0.09842437,-0.058825307,-0.17682754,0.4303162,-0.2708962,-0.39987117,-0.30815512,0.32839298,801.8315,798.60803,792.5641,801.4286,734.5421,0.1258544921875,-0.21240234375,0.97479248046875,4.658050537109375,-3.170166015625,-0.91217041015625,1.0,1.0,1.0,1.0,1.0,35.0,
2023-09-10 00:17:57.241,0.47373873,-0.08897103,0.026520185,0.6246937,-0.07706173,-0.33824545,-0.40827924,0.23761232,0.28187725,0.04552167,-0.06959638,1.030174,0.09842437,-0.058825307,-0.17682754,0.4303162,-0.2708962,-0.39987117,-0.30815512,0.32839298,807.47253,795.38464,792.1612,813.91943,761.53845,0.1318359375,-0.2095947265625,0.9705810546875,5.21881103515625,-2.639312744140625,-0.979461669921875,1.0,1.0,1.0,1.0,1.0,35.0,
2023-09-10 00:17:57.283,0.47373873,-0.08897103,0.026520185,0.6246937,-0.07706173,-0.33824545,-0.40827924,0.23761232,0.28187725,0.04552167,-0.06959638,1.030174,0.09842437,-0.058825307,-0.17682754,0.4303162,-0.2708962,-0.39987117,-0.30815512,0.32839298,790.54944,793.7729,790.9524,783.2967,641.8681,0.128662109375,-0.20733642578125,0.96868896484375,5.38330078125,-3.058013916015625,0.336456298828125,1.0,1.0,1.0,1.0,1.0,35.0,
2023-09-10 00:17:57.284,0.4367009,-0.07079546,0.0140838595,0.61190665,-0.07167297,-0.31615186,-0.3897916,0.2442281,0.27968433,0.041889835,-0.06959638,1.030174,0.07707886,-0.067593984,-0.20441273,0.41982794,-0.26380983,-0.4127262,-0.3228569,0.31407207,799.41394,797.3993,796.1905,793.7729,657.5824,0.128662109375,-0.20733642578125,0.96868896484375,5.38330078125,-3.058013916015625,0.336456298828125,1.0,1.0,1.0,1.0,1.0,35.0,
2023-09-10 00:17:57.333,0.4367009,-0.07079546,0.0140838595,0.61190665,-0.07167297,-0.31615186,-0.3897916,0.2442281,0.27968433,0.041889835,-0.06959638,1.030174,0.07707886,-0.067593984,-0.20441273,0.41982794,-0.26380983,-0.4127262,-0.3228569,0.31407207,812.71063,800.2198,806.6667,812.71063,859.0476,0.13360595703125,-0.2037353515625,0.97015380859375,4.83001708984375,-2.400054931640625,-0.19439697265625,1.0,1.0,1.0,1.0,1.0,35.0,
2023-09-10 00:17:57.385,0.4367009,-0.07079546,0.0140838595,0.61190665,-0.07167297,-0.31615186,-0.3897916,0.2442281,0.27968433,0.041889835,-0.06959638,1.030174,0.07707886,-0.067593984,-0.20441273,0.41982794,-0.26380983,-0.4127262,-0.3228569,0.31407207,796.1905,794.9817,800.2198,803.8461,971.8681,0.1246337890625,-0.210693359375,0.966552734375,3.75335693359375,-3.57391357421875,-0.426177978515625,1.0,1.0,1.0,1.0,1.0,35.0,
2023-09-10 00:17:57.387,0.39126608,-0.05559144,0.010287684,0.57177895,-0.06423434,-0.30110842,-0.3669838,0.25057232,0.27900347,0.033974867,-0.04172678,1.030174,0.063192226,-0.0737482,-0.21789394,0.4187576,-0.25115782,-0.42667016,-0.34016007,0.3061171,806.6667,793.36993,801.02563,809.4872,789.7436,0.1246337890625,-0.210693359375,0.966552734375,3.75335693359375,-3.57391357421875,-0.426177978515625,1.0,1.0,1.0,1.0,1.0,35.0,
2023-09-10 00:17:57.509,0.39126608,-0.05559144,0.010287684,0.57177895,-0.06423434,-0.30110842,-0.3669838,0.25057232,0.27900347,0.033974867,-0.04172678,1.030174,0.063192226,-0.0737482,-0.21789394,0.4187576,-0.25115782,-0.42667016,-0.34016007,0.3061171,795.38464,792.5641,788.93774,811.50183,753.0769,0.133056640625,-0.2103271484375,0.9659423828125,5.1739501953125,-3.132781982421875,-2.265472412109375,1.0,1.0,1.0,1.0,1.0,35.0,
2023-09-10 00:17:57.513,0.3517566,-0.04650892,0.014415518,0.5029571,-0.053463094,-0.29776686,-0.32537514,0.2583723,0.27900347,0.033974867,0.06860131,1.0255607,0.055008132,-0.08352977,-0.21502438,0.4309207,-0.23339038,-0.44507483,-0.35564575,0.29668134,801.02563,790.54944,792.96704,788.1319,780.87915,0.133056640625,-0.2103271484375,0.9659423828125,5.1739501953125,-3.132781982421875,-2.265472412109375,1.0,1.0,1.0,1.0,1.0,35.0,
2023-09-10 00:17:57.554,0.3517566,-0.04650892,0.014415518,0.5029571,-0.053463094,-0.29776686,-0.32537514,0.2583723,0.27900347,0.033974867,0.06860131,1.0255607,0.055008132,-0.08352977,-0.21502438,0.4309207,-0.23339038,-0.44507483,-0.35564575,0.29668134,795.38464,800.2198,801.4286,800.6227,704.7253,0.1278076171875,-0.20831298828125,0.97637939453125,5.495452880859375,-1.622467041015625,-1.973876953125,1.0,1.0,1.0,1.0,1.0,35.0,
2023-09-10 00:17:57.588,0.3517566,-0.04650892,0.014415518,0.5029571,-0.053463094,-0.29776686,-0.32537514,0.2583723,0.27900347,0.033974867,0.06860131,1.0255607,0.055008132,-0.08352977,-0.21502438,0.4309207,-0.23339038,-0.44507483,-0.35564575,0.29668134,775.64105,795.38464,792.5641,784.5055,656.3736,0.1357421875,-0.2137451171875,0.97808837890625,3.18511962890625,-3.06549072265625,-0.351409912109375,1.0,1.0,1.0,1.0,1.0,35.0,
2023-09-10 00:17:57.592,0.34123522,-0.04184136,0.024626398,0.42452073,-0.036335535,-0.30450854,-0.26016584,0.26906914,0.2817604,0.033974867,0.18051969,1.0168064,0.051146727,-0.10237725,-0.20155339,0.45197755,-0.21034387,-0.46585506,-0.36779338,0.27933636,806.6667,798.60803,795.78754,810.696,778.46155,0.1357421875,-0.2137451171875,0.97808837890625,3.18511962890625,-3.06549072265625,-0.351409912109375,1.0,1.0,1.0,1.0,1.0,35.0,
2023-09-10 00:17:57.635,0.34123522,-0.04184136,0.024626398,0.42452073,-0.036335535,-0.30450854,-0.26016584,0.26906914,0.2817604,0.033974867,0.18051969,1.0168064,0.051146727,-0.10237725,-0.20155339,0.45197755,-0.21034387,-0.46585506,-0.36779338,0.27933636,803.8461,799.011,796.99634,815.9341,780.07324,0.12762451171875,-0.20733642578125,0.9522705078125,4.59075927734375,-1.592559814453125,0.620574951171875,1.0,1.0,1.0,1.0,1.0,35.0,
2023-09-10 00:17:57.676,0.36901492,-0.0347278,0.03467724,0.3599574,-0.009346819,-0.31427196,-0.18612921,0.2796617,0.2901813,0.033974867,0.25343838,1.0257741,0.048429225,-0.12615207,-0.18597345,0.475415,-0.17986588,-0.48470372,-0.3755231,0.25375405,805.8608,798.60803,799.81683,827.2161,1127.8022,0.12762451171875,-0.20733642578125,0.9522705078125,4.59075927734375,-1.592559814453125,0.620574951171875,1.0,1.0,1.0,1.0,1.0,35.0,
2023-09-10 00:17:57.728,0.36901492,-0.0347278,0.03467724,0.3599574,-0.009346819,-0.31427196,-0.18612921,0.2796617,0.2901813,0.033974867,0.25343838,1.0257741,0.048429225,-0.12615207,-0.18597345,0.475415,-0.17986588,-0.48470372,-0.3755231,0.25375405,796.99634,801.02563,798.60803,788.1319,678.5348,0.08203125,-0.1912841796875,0.97222900390625,7.97027587890625,-1.143951416015625,-2.594451904296875,1.0,1.0,1.0,1.0,1.0,35.0,
2023-09-10 00:17:57.762,0.36901492,-0.0347278,0.03467724,0.3599574,-0.009346819,-0.31427196,-0.18612921,0.2796617,0.2901813,0.033974867,0.25343838,1.0257741,0.048429225,-0.12615207,-0.18597345,0.475415,-0.17986588,-0.48470372,-0.3755231,0.25375405,803.44324,797.8022,796.1905,822.381,919.4872,0.1087646484375,-0.2030029296875,0.9796142578125,3.745880126953125,-3.686065673828125,-7.289886474609375,1.0,1.0,1.0,1.0,1.0,35.0,
2023-09-10 00:17:57.769,0.42441353,-0.018088358,0.046618458,0.33620477,0.029621568,-0.31983575,-0.12112747,0.28227577,0.30065483,0.033974867,0.27048,1.0216632,0.041087925,-0.14337455,-0.17520754,0.49861085,-0.14451809,-0.49934334,-0.3791825,0.22567904,805.05493,801.8315,799.41394,811.0989,882.8205,0.1087646484375,-0.2030029296875,0.9796142578125,3.745880126953125,-3.686065673828125,-7.289886474609375,1.0,1.0,1.0,1.0,1.0,35.0,
2023-09-10 00:17:57.818,0.42441353,-0.018088358,0.046618458,0.33620477,0.029621568,-0.31983575,-0.12112747,0.28227577,0.30065483,0.033974867,0.27048,1.0216632,0.041087925,-0.14337455,-0.17520754,0.49861085,-0.14451809,-0.49934334,-0.3791825,0.22567904,797.3993,804.65204,801.8315,809.0842,807.0696,0.17388916015625,-0.2239990234375,0.9644775390625,0.07476806640625,-10.048828125,-1.86920166015625,1.0,1.0,1.0,1.0,1.0,35.0,
2023-09-10 00:17:57.864,0.42441353,-0.018088358,0.046618458,0.33620477,0.029621568,-0.31983575,-0.12112747,0.28227577,0.30065483,0.033974867,0.27048,1.0216632,0.041087925,-0.14337455,-0.17520754,0.49861085,-0.14451809,-0.49934334,-0.3791825,0.22567904,781.685,801.02563,805.8608,789.34064,734.1392,0.18328857421875,-0.23760986328125,0.94879150390625,3.06549072265625,-7.559051513671875,5.87677001953125,1.0,1.0,1.0,1.0,1.0,35.0,
2023-09-10 00:17:57.910,0.42441353,-0.018088358,0.046618458,0.33620477,0.029621568,-0.31983575,-0.12112747,0.28227577,0.30065483,0.033974867,0.27048,1.0216632,0.041087925,-0.14337455,-0.17520754,0.49861085,-0.14451809,-0.49934334,-0.3791825,0.22567904,792.1612,796.99634,793.7729,791.3553,709.5604,0.17596435546875,-0.218505859375,0.9637451171875,8.471221923828125,-4.912261962890625,5.091705322265625,1.0,1.0,1.0,1.0,1.0,35.0,
2023-09-10 00:17:57.911,0.47542182,0.008330733,0.060064122,0.3412246,0.07736476,-0.3230382,-0.07125058,0.27469945,0.30196548,0.033974867,0.2743149,1.0205152,0.0249766,-0.14753479,-0.17404978,0.5222466,-0.11201298,-0.5101599,-0.3813084,0.2017417,785.31134,799.011,791.3553,784.10254,800.6227,0.17596435546875,-0.218505859375,0.9637451171875,8.471221923828125,-4.912261962890625,5.091705322265625,1.0,1.0,1.0,1.0,1.0,35.0,
2023-09-10 00:17:58.035,0.47542182,0.008330733,0.060064122,0.3412246,0.07736476,-0.3230382,-0.07125058,0.27469945,0.30196548,0.033974867,0.2743149,1.0205152,0.0249766,-0.14753479,-0.17404978,0.5222466,-0.11201298,-0.5101599,-0.3813084,0.2017417,795.78754,800.2198,795.78754,792.96704,638.24176,0.1463623046875,-0.19635009765625,0.97589111328125,10.250701904296877,1.801910400390625,3.050537109375,1.0,1.0,1.0,1.0,1.0,35.0,
2023-09-10 00:17:58.037,0.50477403,0.027749505,0.07061535,0.3511939,0.12192335,-0.33319777,-0.03680506,0.26310858,0.3090254,0.022347238,0.2768241,1.0176286,0.0021492487,-0.14386183,-0.18339778,0.5462143,-0.08977775,-0.5193521,-0.38589957,0.18672566,786.9231,796.5934,788.1319,795.38464,730.5128,0.1463623046875,-0.19635009765625,0.97589111328125,10.250701904296877,1.801910400390625,3.050537109375,1.0,1.0,1.0,1.0,1.0,35.0,
2023-09-10 00:17:58.098,0.50477403,0.027749505,0.07061535,0.3511939,0.12192335,-0.33319777,-0.03680506,0.26310858,0.3090254,0.022347238,0.2768241,1.0176286,0.0021492487,-0.14386183,-0.18339778,0.5462143,-0.08977775,-0.5193521,-0.38589957,0.18672566,804.65204,792.5641,794.17584,811.9048,797.3993,0.13311767578125,-0.217529296875,0.958251953125,6.512298583984375,4.5758056640625,-0.2392578125,1.0,1.0,1.0,1.0,1.0,35.0,
2023-09-10 00:17:58.114,0.50477403,0.027749505,0.07061535,0.3511939,0.12192335,-0.33319777,-0.03680506,0.26310858,0.3090254,0.022347238,0.2768241,1.0176286,0.0021492487,-0.14386183,-0.18339778,0.5462143,-0.08977775,-0.5193521,-0.38589957,0.18672566,784.90845,792.1612,788.1319,791.3553,763.95605,0.09783935546875,-0.22259521484375,0.96826171875,8.157196044921875,5.360870361328125,-2.930908203125,1.0,1.0,1.0,1.0,1.0,35.0,
2023-09-10 00:17:58.118,0.513181,0.031023871,0.07488991,0.35750833,0.15326713,-0.35503718,-0.01714286,0.25437948,0.3072382,-0.031204838,0.2799408,0.99694216,-0.01836939,-0.14092463,-0.19919045,0.56893635,-0.078804225,-0.5277885,-0.39598963,0.18246974,790.54944,805.8608,785.7143,796.5934,836.8865,0.09783935546875,-0.22259521484375,0.96826171875,8.157196044921875,5.360870361328125,-2.930908203125,1.0,1.0,1.0,1.0,1.0,35.0,
2023-09-10 00:17:58.179,0.513181,0.031023871,0.07488991,0.35750833,0.15326713,-0.35503718,-0.01714286,0.25437948,0.3072382,-0.031204838,0.2799408,0.99694216,-0.01836939,-0.14092463,-0.19919045,0.56893635,-0.078804225,-0.5277885,-0.39598963,0.18246974,795.78754,796.5934,789.34064,786.52014,873.95605,0.14654541015625,-0.18560791015625,0.9837646484375,9.428253173828123,0.695343017578125,-0.710296630859375,1.0,1.0,1.0,1.0,1.0,35.0,
2023-09-10 00:17:58.264,0.5096554,0.018322973,0.07880058,0.36560497,0.16978072,-0.38517287,-0.009504537,0.2549927,0.27809113,-0.12179793,0.2799408,0.9328,-0.02330976,-0.1410414,-0.2125881,0.5881167,-0.075966604,-0.53450036,-0.41358638,0.18530612,783.2967,807.8755,796.1905,784.5055,1079.4506,0.14654541015625,-0.18560791015625,0.9837646484375,9.428253173828123,0.695343017578125,-0.710296630859375,1.0,1.0,1.0,1.0,1.0,35.0,
2023-09-10 00:17:58.272,0.5096554,0.018322973,0.07880058,0.36560497,0.16978072,-0.38517287,-0.009504537,0.2549927,0.27809113,-0.12179793,0.2799408,0.9328,-0.02330976,-0.1410414,-0.2125881,0.5881167,-0.075966604,-0.53450036,-0.41358638,0.18530612,778.0586,805.8608,796.5934,792.5641,664.0293,0.12701416015625,-0.166748046875,0.980224609375,7.364654541015625,-0.067291259765625,2.28790283203125,1.0,1.0,1.0,1.0,1.0,35.0,
2023-09-10 00:17:58.324,0.5096554,0.018322973,0.07880058,0.36560497,0.16978072,-0.38517287,-0.009504537,0.2549927,0.27809113,-0.12179793,0.2799408,0.9328,-0.02330976,-0.1410414,-0.2125881,0.5881167,-0.075966604,-0.53450036,-0.41358638,0.18530612,783.69965,816.337,783.2967,768.3883,629.3773,0.09747314453125,-0.15338134765625,0.97723388671875,7.155303955078125,2.43743896484375,2.04864501953125,1.0,1.0,1.0,1.0,1.0,35.0,
2023-09-10 00:17:58.330,0.50413644,-0.004413674,0.08545244,0.37938833,0.17573479,-0.41582948,-0.008687123,0.26462474,0.23231433,-0.1845261,0.28425303,0.86264855,-0.0041377544,-0.14049141,-0.2155022,0.6013666,-0.0794486,-0.53918123,-0.44193473,0.18827598,776.4469,805.4579,783.69965,774.0293,753.8828,0.09747314453125,-0.15338134765625,0.97723388671875,7.155303955078125,2.43743896484375,2.04864501953125,1.0,1.0,1.0,1.0,1.0,35.0,
2023-09-10 00:17:58.392,0.50413644,-0.004413674,0.08545244,0.37938833,0.17573479,-0.41582948,-0.008687123,0.26462474,0.23231433,-0.1845261,0.28425303,0.86264855,-0.0041377544,-0.14049141,-0.2155022,0.6013666,-0.0794486,-0.53918123,-0.44193473,0.18827598,790.9524,801.4286,781.28204,777.6557,756.30035,0.07379150390625,-0.15679931640625,0.9720458984375,3.342132568359375,1.532745361328125,-2.332763671875,1.0,1.0,1.0,1.0,1.0,35.0,
2023-09-10 00:17:58.409,0.50413644,-0.004413674,0.08545244,0.37938833,0.17573479,-0.41582948,-0.008687123,0.26462474,0.23231433,-0.1845261,0.28425303,0.86264855,-0.0041377544,-0.14049141,-0.2155022,0.6013666,-0.0794486,-0.53918123,-0.44193473,0.18827598,792.1612,805.05493,790.9524,780.4762,649.5238,0.07525634765625,-0.1654052734375,0.9931640625,2.03369140625,-2.474822998046875,-4.53094482421875,1.0,1.0,1.0,1.0,1.0,35.0,
2023-09-10 00:17:58.420,0.507617,-0.018183373,0.094776735,0.39116046,0.17522603,-0.44187322,-0.0075126467,0.27686402,0.21274824,-0.2031166,0.28768086,0.83167565,0.035104197,-0.13493294,-0.2063731,0.61124384,-0.08810758,-0.54038453,-0.4818469,0.18894088,784.5055,798.20514,798.20514,782.0879,614.4689,0.07525634765625,-0.1654052734375,0.9931640625,2.03369140625,-2.474822998046875,-4.53094482421875,1.0,1.0,1.0,1.0,1.0,35.0,
