TimeStamp,Delta_TP9,Delta_AF7,Delta_AF8,Delta_TP10,Theta_TP9,Theta_AF7,Theta_AF8,Theta_TP10,Alpha_TP9,Alpha_AF7,Alpha_AF8,Alpha_TP10,Beta_TP9,Beta_AF7,Beta_AF8,Beta_TP10,Gamma_TP9,Gamma_AF7,Gamma_AF8,Gamma_TP10,RAW_TP9,RAW_AF7,RAW_AF8,RAW_TP10,AUX_RIGHT,Accelerometer_X,Accelerometer_Y,Accelerometer_Z,Gyro_X,Gyro_Y,Gyro_Z,HeadBandOn,HSI_TP9,HSI_AF7,HSI_AF8,HSI_TP10,Battery,Elements
2023-09-09 23:56:48.439,0.7967431,0.05895601,0.21261173,0.67798185,0.7886082,-0.030523423,0.12802482,0.93189114,0.9864115,0.08467094,0.23843852,1.055132,0.44559067,-0.18887423,0.044045176,0.52665967,-0.24366562,-0.25363103,-0.4571949,0.058497425,786.1172,815.5311,778.86444,751.4652,683.36993,0.1373291015625,0.10003662109375,0.97576904296875,4.493560791015625,-3.132781982421875,-0.291595458984375,1.0,1.0,1.0,1.0,1.0,40.0,
2023-09-09 23:56:48.483,0.7967431,0.05895601,0.21261173,0.67798185,0.7886082,-0.030523423,0.12802482,0.93189114,0.9864115,0.08467094,0.23843852,1.055132,0.44559067,-0.18887423,0.044045176,0.52665967,-0.24366562,-0.25363103,-0.4571949,0.058497425,793.7729,797.3993,796.1905,805.4579,792.5641,0.1412353515625,0.09375,0.98126220703125,4.85992431640625,-2.355194091796875,-0.9271240234375,1.0,1.0,1.0,1.0,1.0,40.0,
2023-09-09 23:56:48.492,0.7979423,0.09493836,0.2376985,0.6792963,0.76450104,0.0104002515,0.13084485,0.90841454,0.9864115,0.08467094,0.23965155,1.0625691,0.43504384,-0.18503523,0.052567147,0.51476705,-0.22809562,-0.26199424,-0.44335893,0.053748634,796.5934,799.011,798.60803,778.46155,785.31134,0.1412353515625,0.09375,0.98126220703125,4.85992431640625,-2.355194091796875,-0.9271240234375,1.0,1.0,1.0,1.0,1.0,40.0,
2023-09-09 23:56:48.538,0.7979423,0.09493836,0.2376985,0.6792963,0.76450104,0.0104002515,0.13084485,0.90841454,0.9864115,0.08467094,0.23965155,1.0625691,0.43504384,-0.18503523,0.052567147,0.51476705,-0.22809562,-0.26199424,-0.44335893,0.053748634,816.7399,774.83514,809.4872,828.4249,712.7839,0.14520263671875,0.1015625,0.97943115234375,4.777679443359375,-1.71966552734375,-1.338348388671875,1.0,1.0,1.0,1.0,1.0,40.0,
2023-09-09 23:56:48.546,0.8223908,0.14214085,0.26575246,0.7304188,0.7441483,0.0409718,0.14424248,0.8949066,0.99239045,0.08975386,0.25436503,1.0667481,0.4285385,-0.17495073,0.057027973,0.5033717,-0.21478732,-0.28147736,-0.42752388,0.060907226,830.4396,784.90845,801.8315,823.1868,672.8938,0.14520263671875,0.1015625,0.97943115234375,4.777679443359375,-1.71966552734375,-1.338348388671875,1.0,1.0,1.0,1.0,1.0,40.0,
2023-09-09 23:56:48.553,0.8223908,0.14214085,0.26575246,0.7304188,0.7441483,0.0409718,0.14424248,0.8949066,0.99239045,0.08975386,0.25436503,1.0667481,0.4285385,-0.17495073,0.057027973,0.5033717,-0.21478732,-0.28147736,-0.42752388,0.060907226,836.4835,786.9231,804.65204,822.7839,743.00366,0.13446044921875,0.10205078125,0.9793701171875,4.329071044921875,-2.340240478515625,-0.336456298828125,1.0,1.0,1.0,1.0,1.0,40.0,
2023-09-09 23:56:48.589,0.8223908,0.14214085,0.26575246,0.7304188,0.7441483,0.0409718,0.14424248,0.8949066,0.99239045,0.08975386,0.25436503,1.0667481,0.4285385,-0.17495073,0.057027973,0.5033717,-0.21478732,-0.28147736,-0.42752388,0.060907226,777.25275,781.685,799.011,786.1172,729.707,0.1409912109375,0.09893798828125,0.97637939453125,5.2337646484375,-2.370147705078125,-0.306549072265625,1.0,1.0,1.0,1.0,1.0,40.0,
2023-09-09 23:56:48.624,0.8223908,0.14214085,0.26575246,0.7304188,0.7441483,0.0409718,0.14424248,0.8949066,0.99239045,0.08975386,0.25436503,1.0667481,0.4285385,-0.17495073,0.057027973,0.5033717,-0.21478732,-0.28147736,-0.42752388,0.060907226,818.7546,798.60803,795.78754,813.91943,764.35895,0.13995361328125,0.1055908203125,0.98065185546875,5.27862548828125,-2.85614013671875,0.261688232421875,1.0,1.0,1.0,1.0,1.0,40.0,
2023-09-09 23:56:48.625,0.8819363,0.21896943,0.3124757,0.7304188,0.7258213,0.063224815,0.17859954,0.8949066,1.000981,0.10284596,0.27687362,1.0667481,0.42762455,-0.14972323,0.06260058,0.5033717,-0.20516652,-0.30810836,-0.4124318,0.060907226,830.4396,794.9817,793.36993,814.3223,724.0659,0.13995361328125,0.1055908203125,0.98065185546875,5.27862548828125,-2.85614013671875,0.261688232421875,1.0,1.0,1.0,1.0,1.0,40.0,
2023-09-09 23:56:48.704,0.8819363,0.21896943,0.3124757,0.7304188,0.7258213,0.063224815,0.17859954,0.8949066,1.000981,0.10284596,0.27687362,1.0667481,0.42762455,-0.14972323,0.06260058,0.5033717,-0.20516652,-0.30810836,-0.4124318,0.060907226,828.022,802.23444,791.3553,814.3223,715.2015,0.135498046875,0.10711669921875,0.97723388671875,4.0972900390625,-2.76641845703125,-0.157012939453125,1.0,1.0,1.0,1.0,1.0,40.0,
2023-09-09 23:56:48.745,0.8819363,0.32797277,0.38237375,0.7304188,0.7258213,0.07847051,0.22950067,0.8949066,1.000981,0.1556598,0.285796,1.0667481,0.42762455,-0.1053019,0.07220433,0.5033717,-0.20516652,-0.3296191,-0.3987349,0.060907226,819.9634,800.6227,796.99634,816.337,728.49817,0.135498046875,0.10711669921875,0.97723388671875,4.0972900390625,-2.76641845703125,-0.157012939453125,1.0,1.0,1.0,1.0,1.0,40.0,
2023-09-09 23:56:48.788,0.8819363,0.32797277,0.38237375,0.7304188,0.7258213,0.07847051,0.22950067,0.8949066,1.000981,0.1556598,0.285796,1.0667481,0.42762455,-0.1053019,0.07220433,0.5033717,-0.20516652,-0.3296191,-0.3987349,0.060907226,818.7546,798.20514,791.75824,796.1905,667.25275,0.1441650390625,0.09832763671875,0.97418212890625,4.47113037109375,-3.760833740234375,-1.323394775390625,1.0,1.0,1.0,1.0,1.0,40.0,
2023-09-09 23:56:48.827,0.8819363,0.32797277,0.38237375,0.7304188,0.7258213,0.07847051,0.22950067,0.8949066,1.000981,0.1556598,0.285796,1.0667481,0.42762455,-0.1053019,0.07220433,0.5033717,-0.20516652,-0.3296191,-0.3987349,0.060907226,822.7839,796.5934,796.1905,795.78754,715.2015,0.14788818359375,0.10394287109375,0.97601318359375,4.702911376953125,-3.745880126953125,-1.00189208984375,1.0,1.0,1.0,1.0,1.0,40.0,
2023-09-09 23:56:48.830,0.7769717,0.45185587,0.46371442,0.6051525,0.6090572,0.085376546,0.27988976,0.7976873,0.91334695,0.24357301,0.34538528,1.0166806,0.38070086,-0.0511273,0.08442607,0.44835848,-0.21714678,-0.3338012,-0.38636836,0.056720592,816.337,797.8022,801.02563,806.26373,790.9524,0.14788818359375,0.10394287109375,0.97601318359375,4.702911376953125,-3.745880126953125,-1.00189208984375,1.0,1.0,1.0,1.0,1.0,40.0,
2023-09-09 23:56:48.876,0.7769717,0.45185587,0.46371442,0.6051525,0.6090572,0.085376546,0.27988976,0.7976873,0.91334695,0.24357301,0.34538528,1.0166806,0.38070086,-0.0511273,0.08442607,0.44835848,-0.21714678,-0.3338012,-0.38636836,0.056720592,784.90845,786.9231,801.8315,789.7436,637.8388,0.1402587890625,0.10394287109375,0.98193359375,4.658050537109375,-1.966400146484375,-0.657958984375,1.0,1.0,1.0,1.0,1.0,40.0,
2023-09-09 23:56:48.931,0.7769717,0.45185587,0.46371442,0.6051525,0.6090572,0.085376546,0.27988976,0.7976873,0.91334695,0.24357301,0.34538528,1.0166806,0.38070086,-0.0511273,0.08442607,0.44835848,-0.21714678,-0.3338012,-0.38636836,0.056720592,834.4689,798.20514,794.17584,824.3956,716.4103,0.13677978515625,0.10003662109375,0.97735595703125,4.8748779296875,-1.816864013671875,-0.538330078125,1.0,1.0,1.0,1.0,1.0,40.0,
2023-09-09 23:56:48.934,0.70480484,0.56406516,0.536577,0.5127767,0.48160753,0.08370299,0.31510368,0.6782307,0.77493095,0.26956812,0.382955,0.89901036,0.32897612,-0.002780222,0.09543443,0.38686892,-0.21770175,-0.31999967,-0.37709206,0.06285437,808.68134,798.20514,794.17584,810.696,748.6447,0.13677978515625,0.10003662109375,0.97735595703125,4.8748779296875,-1.816864013671875,-0.538330078125,1.0,1.0,1.0,1.0,1.0,40.0,
2023-09-09 23:56:48.998,0.70480484,0.56406516,0.536577,0.5127767,0.48160753,0.08370299,0.31510368,0.6782307,0.77493095,0.26956812,0.382955,0.89901036,0.32897612,-0.002780222,0.09543443,0.38686892,-0.21770175,-0.31999967,-0.37709206,0.06285437,788.5348,790.9524,802.23444,805.4579,628.97437,0.13427734375,0.10009765625,0.97589111328125,4.964599609375,-2.19818115234375,-0.785064697265625,1.0,1.0,1.0,1.0,1.0,40.0,
2023-09-09 23:56:49.003,0.69097775,0.64541245,0.58720803,0.48066697,0.3839655,0.078982,0.32905447,0.5709813,0.6690607,0.269352,0.382955,0.74956715,0.28816104,0.031106332,0.10191705,0.3315152,-0.21061882,-0.30004463,-0.37417996,0.079184264,804.65204,796.1905,805.8608,807.8755,734.94507,0.13427734375,0.10009765625,0.97589111328125,4.964599609375,-2.19818115234375,-0.785064697265625,1.0,1.0,1.0,1.0,1.0,40.0,
2023-09-09 23:56:49.068,0.69097775,0.64541245,0.58720803,0.48066697,0.3839655,0.078982,0.32905447,0.5709813,0.6690607,0.269352,0.382955,0.74956715,0.28816104,0.031106332,0.10191705,0.3315152,-0.21061882,-0.30004463,-0.37417996,0.079184264,826.4103,794.9817,799.41394,832.0513,895.31134,0.1409912109375,0.1063232421875,0.97222900390625,4.38140869140625,-4.269256591796875,-0.889739990234375,1.0,1.0,1.0,1.0,1.0,40.0,
2023-09-09 23:56:49.135,0.69097775,0.64541245,0.58720803,0.48066697,0.3839655,0.078982,0.32905447,0.5709813,0.6690607,0.269352,0.382955,0.74956715,0.28816104,0.031106332,0.10191705,0.3315152,-0.21061882,-0.30004463,-0.37417996,0.079184264,815.5311,799.011,799.41394,818.3516,744.21246,0.14178466796875,0.09765625,0.9774169921875,3.87298583984375,-4.007568359375,-0.545806884765625,1.0,1.0,1.0,1.0,1.0,40.0,
2023-09-09 23:56:49.143,0.7172662,0.6937667,0.6123895,0.48967335,0.33845812,0.07571462,0.3205078,0.51220834,0.65011317,0.2619896,0.37674347,0.7118999,0.2679911,0.04990449,0.10402782,0.29021683,-0.20483576,-0.28710386,-0.37705848,0.09582833,789.7436,804.65204,799.011,794.17584,741.79486,0.14178466796875,0.09765625,0.9774169921875,3.87298583984375,-4.007568359375,-0.545806884765625,1.0,1.0,1.0,1.0,1.0,40.0,
2023-09-09 23:56:49.175,0.7172662,0.6937667,0.6123895,0.48967335,0.33845812,0.07571462,0.3205078,0.51220834,0.65011317,0.2619896,0.37674347,0.7118999,0.2679911,0.04990449,0.10402782,0.29021683,-0.20483576,-0.28710386,-0.37705848,0.09582833,780.07324,801.02563,796.99634,780.4762,598.7546,0.14825439453125,0.0975341796875,0.9755859375,4.314117431640625,-3.94775390625,-1.36077880859375,1.0,1.0,1.0,1.0,1.0,40.0,
2023-09-09 23:56:49.214,0.7172662,0.6937667,0.6123895,0.48967335,0.33845812,0.07571462,0.3205078,0.51220834,0.65011317,0.2619896,0.37674347,0.7118999,0.2679911,0.04990449,0.10402782,0.29021683,-0.20483576,-0.28710386,-0.37705848,0.09582833,828.8278,797.8022,788.93774,802.23444,657.1795,0.14947509765625,0.0997314453125,0.97650146484375,4.5458984375,-1.128997802734375,-1.562652587890625,1.0,1.0,1.0,1.0,1.0,40.0,
2023-09-09 23:56:49.248,0.7775867,0.71294564,0.6163118,0.51970094,0.3591207,0.07160929,0.29307526,0.50467503,0.72563416,0.25659382,0.36742076,0.7108006,0.25200906,0.057776317,0.104553334,0.26628196,-0.13386886,-0.28626624,-0.37945524,0.096161425,747.4359,802.23444,784.90845,763.5531,793.36993,0.14947509765625,0.0997314453125,0.97650146484375,4.5458984375,-1.128997802734375,-1.562652587890625,1.0,1.0,1.0,1.0,1.0,40.0,
2023-09-09 23:56:49.348,0.7775867,0.71294564,0.6163118,0.51970094,0.3591207,0.07160929,0.29307526,0.50467503,0.72563416,0.25659382,0.36742076,0.7108006,0.25200906,0.057776317,0.104553334,0.26628196,-0.13386886,-0.28626624,-0.37945524,0.096161425,725.6777,801.02563,787.326,733.3333,585.05493,0.14471435546875,0.09637451171875,0.975830078125,4.299163818359375,0.485992431640625,-1.86920166015625,1.0,1.0,1.0,1.0,1.0,40.0,
2023-09-09 23:56:49.357,0.7775867,0.71294564,0.6163118,0.51970094,0.3591207,0.07160929,0.29307526,0.50467503,0.72563416,0.25659382,0.36742076,0.7108006,0.25200906,0.057776317,0.104553334,0.26628196,-0.13386886,-0.28626624,-0.37945524,0.096161425,809.89014,799.011,794.9817,801.8315,694.65204,0.1396484375,0.099853515625,0.97552490234375,5.301055908203125,0.2093505859375,-1.7047119140625,1.0,1.0,1.0,1.0,1.0,40.0,
2023-09-09 23:56:49.359,0.81429434,0.71233684,0.608509,0.5641525,0.3710895,0.060099658,0.2530417,0.51714325,0.72563416,0.25659382,0.3649706,0.7108006,0.2621535,0.059832927,0.10595253,0.2609008,-0.12629339,-0.29522964,-0.37615943,0.074526794,755.4945,797.8022,798.20514,773.22345,691.8315,0.1396484375,0.099853515625,0.97552490234375,5.301055908203125,0.2093505859375,-1.7047119140625,1.0,1.0,1.0,1.0,1.0,40.0,
2023-09-09 23:56:49.394,0.81429434,0.71233684,0.608509,0.5641525,0.3710895,0.060099658,0.2530417,0.51714325,0.72563416,0.25659382,0.3649706,0.7108006,0.2621535,0.059832927,0.10595253,0.2609008,-0.12629339,-0.29522964,-0.37615943,0.074526794,790.14655,800.6227,793.7729,802.23444,846.55676,0.134521484375,0.099365234375,0.974365234375,4.747772216796875,-1.57012939453125,-0.740203857421875,1.0,1.0,1.0,1.0,1.0,40.0,
2023-09-09 23:56:49.424,0.81429434,0.71233684,0.608509,0.5641525,0.3710895,0.060099658,0.2530417,0.51714325,0.72563416,0.25659382,0.3649706,0.7108006,0.2621535,0.059832927,0.10595253,0.2609008,-0.12629339,-0.29522964,-0.37615943,0.074526794,786.1172,800.6227,799.011,791.75824,707.5458,0.1292724609375,0.10052490234375,0.97552490234375,4.18701171875,-4.628143310546875,0.059814453125,1.0,1.0,1.0,1.0,1.0,40.0,
2023-09-09 23:56:49.427,0.8538748,0.7025662,0.60153544,0.6140518,0.37792358,0.0403675,0.21256776,0.5235954,0.72563416,0.25659382,0.36040026,0.7108006,0.27730173,0.06148668,0.109030455,0.27454448,-0.110890105,-0.3073283,-0.3685443,0.040385485,780.87915,800.6227,798.20514,779.2674,634.61536,0.1292724609375,0.10052490234375,0.97552490234375,4.18701171875,-4.628143310546875,0.059814453125,1.0,1.0,1.0,1.0,1.0,40.0,
2023-09-09 23:56:49.509,0.8538748,0.7025662,0.60153544,0.6140518,0.37792358,0.0403675,0.21256776,0.5235954,0.72563416,0.25659382,0.36040026,0.7108006,0.27730173,0.06148668,0.109030455,0.27454448,-0.110890105,-0.3073283,-0.3685443,0.040385485,825.2015,798.20514,788.5348,810.696,752.674,0.13641357421875,0.10107421875,0.97491455078125,3.828125,-5.988922119140625,-0.49346923828125,1.0,1.0,1.0,1.0,1.0,40.0,
2023-09-09 23:56:49.577,0.8983386,0.69249046,0.6103276,0.66809326,0.37503865,0.018720876,0.1837911,0.5223391,0.72563416,0.25575736,0.3505507,0.71048397,0.2910202,0.06564776,0.11162219,0.30260396,-0.0846567,-0.3165952,-0.3627307,0.015134246,775.2381,793.7729,791.3553,780.87915,779.67035,0.13641357421875,0.10107421875,0.97491455078125,3.828125,-5.988922119140625,-0.49346923828125,1.0,1.0,1.0,1.0,1.0,40.0,
2023-09-09 23:56:49.618,0.8983386,0.69249046,0.6103276,0.66809326,0.37503865,0.018720876,0.1837911,0.5223391,0.72563416,0.25575736,0.3505507,0.71048397,0.2910202,0.06564776,0.11162219,0.30260396,-0.0846567,-0.3165952,-0.3627307,0.015134246,786.1172,788.93774,794.9817,804.2491,639.0476,0.14599609375,0.0992431640625,0.97564697265625,4.18701171875,-5.72723388671875,-0.8673095703125,1.0,1.0,1.0,1.0,1.0,40.0,
2023-09-09 23:56:49.654,0.8983386,0.69249046,0.6103276,0.66809326,0.37503865,0.018720876,0.1837911,0.5223391,0.72563416,0.25575736,0.3505507,0.71048397,0.2910202,0.06564776,0.11162219,0.30260396,-0.0846567,-0.3165952,-0.3627307,0.015134246,840.9158,796.1905,792.1612,816.7399,730.5128,0.15631103515625,0.09893798828125,0.98468017578125,5.286102294921875,-0.61309814453125,-0.814971923828125,1.0,1.0,1.0,1.0,1.0,40.0,
2023-09-09 23:56:49.659,0.94721687,0.6860688,0.63117874,0.73026896,0.37380868,-0.0010883503,0.17119232,0.5267392,0.72563416,0.25490043,0.34892815,0.7046978,0.2983419,0.07149136,0.109973654,0.3324071,-0.049679764,-0.3205805,-0.36455226,0.014306175,802.6374,794.17584,790.9524,800.2198,981.13556,0.15631103515625,0.09893798828125,0.98468017578125,5.286102294921875,-0.61309814453125,-0.814971923828125,1.0,1.0,1.0,1.0,1.0,40.0,
2023-09-09 23:56:49.669,0.94721687,0.6860688,0.63117874,0.73026896,0.37380868,-0.0010883503,0.17119232,0.5267392,0.72563416,0.25490043,0.34892815,0.7046978,0.2983419,0.07149136,0.109973654,0.3324071,-0.049679764,-0.3205805,-0.36455226,0.014306175,782.8938,790.9524,789.7436,788.93774,722.0513,0.14434814453125,0.1024169921875,0.979248046875,4.702911376953125,3.835601806640625,-0.83740234375,1.0,1.0,1.0,1.0,1.0,40.0,
2023-09-09 23:56:49.723,0.94721687,0.6860688,0.63117874,0.73026896,0.37380868,-0.0010883503,0.17119232,0.5267392,0.72563416,0.25490043,0.34892815,0.7046978,0.2983419,0.07149136,0.109973654,0.3324071,-0.049679764,-0.3205805,-0.36455226,0.014306175,784.10254,790.54944,786.52014,797.3993,874.7619,0.13189697265625,0.0955810546875,0.97528076171875,4.717864990234375,3.12530517578125,-0.979461669921875,1.0,1.0,1.0,1.0,1.0,40.0,
2023-09-09 23:56:49.731,1.0015707,0.6855544,0.6504934,0.73026896,0.38719353,-0.020804036,0.17018919,0.5267392,0.72563416,0.25490043,0.35471606,0.7046978,0.29954112,0.07545261,0.102118835,0.3324071,-0.013353971,-0.31965005,-0.37509373,0.014306175,823.1868,794.9817,786.52014,808.2784,666.4469,0.13189697265625,0.0955810546875,0.97528076171875,4.717864990234375,3.12530517578125,-0.979461669921875,1.0,1.0,1.0,1.0,1.0,40.0,
2023-09-09 23:56:49.836,1.0015707,0.6855544,0.6504934,0.73026896,0.38719353,-0.020804036,0.17018919,0.5267392,0.72563416,0.25490043,0.35471606,0.7046978,0.29954112,0.07545261,0.102118835,0.3324071,-0.013353971,-0.31965005,-0.37509373,0.014306175,782.49084,794.9817,800.6227,790.9524,703.5165,0.12872314453125,0.09661865234375,0.9793701171875,4.77020263671875,-0.650482177734375,-1.1962890625,1.0,1.0,1.0,1.0,1.0,40.0,
2023-09-09 23:56:49.889,1.0015707,0.6855544,0.6504934,0.73026896,0.38719353,-0.020804036,0.17018919,0.5267392,0.72563416,0.25490043,0.35471606,0.7046978,0.29954112,0.07545261,0.102118835,0.3324071,-0.013353971,-0.31965005,-0.37509373,0.014306175,806.6667,787.72894,796.5934,809.89014,662.8205,0.1256103515625,0.095703125,0.974853515625,4.194488525390625,-5.106658935546875,-0.04486083984375,1.0,1.0,1.0,1.0,1.0,40.0,
2023-09-09 23:56:49.890,1.0638218,0.68599546,0.6596505,0.73026896,0.41121176,-0.046503764,0.17179509,0.5267392,0.72563416,0.25490043,0.36687982,0.7046978,0.29959673,0.07441279,0.090158924,0.3324071,0.018828284,-0.31364855,-0.39259014,0.014306175,843.3333,794.57874,792.1612,830.0366,716.0073,0.1256103515625,0.095703125,0.974853515625,4.194488525390625,-5.106658935546875,-0.04486083984375,1.0,1.0,1.0,1.0,1.0,40.0,
2023-09-09 23:56:49.923,1.0638218,0.68599546,0.6596505,0.73026896,0.41121176,-0.046503764,0.17179509,0.5267392,0.72563416,0.25490043,0.36687982,0.7046978,0.29959673,0.07441279,0.090158924,0.3324071,0.018828284,-0.31364855,-0.39259014,0.014306175,833.663,807.0696,785.31134,812.3077,686.1905,0.12841796875,0.0958251953125,0.97430419921875,4.418792724609375,-7.43194580078125,-0.059814453125,1.0,1.0,1.0,1.0,1.0,40.0,
2023-09-09 23:56:49.960,1.0638218,0.68599546,0.6596505,0.73026896,0.41121176,-0.046503764,0.17179509,0.5267392,0.72563416,0.25490043,0.36687982,0.7046978,0.29959673,0.07441279,0.090158924,0.3324071,0.018828284,-0.31364855,-0.39259014,0.014306175,780.87915,803.44324,786.52014,788.1319,670.4762,0.13824462890625,0.09356689453125,0.97052001953125,4.912261962890625,-6.98333740234375,-0.418701171875,1.0,1.0,1.0,1.0,1.0,40.0,
2023-09-09 23:56:49.962,1.0638218,0.6831093,0.6580517,0.73026896,0.41121176,-0.079226404,0.16768275,0.5267392,0.72563416,0.25490043,0.3674739,0.7046978,0.29959673,0.067892656,0.08035106,0.3324071,0.018828284,-0.3027378,-0.4137665,0.014306175,826.4103,799.41394,791.3553,816.7399,685.78754,0.13824462890625,0.09356689453125,0.97052001953125,4.912261962890625,-6.98333740234375,-0.418701171875,1.0,1.0,1.0,1.0,1.0,40.0,
2023-09-09 23:56:49.994,1.0638218,0.6831093,0.6580517,0.73026896,0.41121176,-0.079226404,0.16768275,0.5267392,0.72563416,0.25490043,0.3674739,0.7046978,0.29959673,0.067892656,0.08035106,0.3324071,0.018828284,-0.3027378,-0.4137665,0.014306175,787.72894,794.57874,788.93774,793.7729,715.2015,0.14532470703125,0.1009521484375,0.98651123046875,5.084228515625,-2.803802490234375,-1.248626708984375,1.0,1.0,1.0,1.0,1.0,40.0,
2023-09-09 23:56:50.054,1.0638218,0.6764088,0.6512307,0.73026896,0.41121176,-0.115007475,0.1512895,0.5267392,0.72563416,0.25490043,0.3674739,0.7046978,0.29959673,0.054359168,0.07624524,0.3324071,0.018828284,-0.28933558,-0.43705714,0.014306175,813.91943,792.96704,785.31134,815.12823,897.72894,0.14532470703125,0.1009521484375,0.98651123046875,5.084228515625,-2.803802490234375,-1.248626708984375,1.0,1.0,1.0,1.0,1.0,40.0,
2023-09-09 23:56:50.087,1.0638218,0.6764088,0.6512307,0.73026896,0.41121176,-0.115007475,0.1512895,0.5267392,0.72563416,0.25490043,0.3674739,0.7046978,0.29959673,0.054359168,0.07624524,0.3324071,0.018828284,-0.28933558,-0.43705714,0.014306175,773.6264,800.2198,787.326,785.7143,724.4689,0.1412353515625,0.10101318359375,0.977783203125,4.8748779296875,-0.037384033203125,-1.45050048828125,1.0,1.0,1.0,1.0,1.0,40.0,
2023-09-09 23:56:50.157,1.0638218,0.6764088,0.6512307,0.73026896,0.41121176,-0.115007475,0.1512895,0.5267392,0.72563416,0.25490043,0.3674739,0.7046978,0.29959673,0.054359168,0.07624524,0.3324071,0.018828284,-0.28933558,-0.43705714,0.014306175,802.23444,799.81683,792.96704,804.2491,674.90845,0.14312744140625,0.10125732421875,0.9815673828125,4.747772216796875,0.28411865234375,-1.68975830078125,1.0,1.0,1.0,1.0,1.0,40.0,
2023-09-09 23:56:50.162,1.0638218,0.6569905,0.63348037,0.73026896,0.41121176,-0.15604524,0.11851465,0.5267392,0.72563416,0.25490043,0.36706123,0.7046978,0.29959673,0.031901207,0.076014474,0.3324071,0.018828284,-0.27821735,-0.46292984,0.014306175,815.9341,792.5641,788.5348,820.3663,1037.1428,0.14312744140625,0.10125732421875,0.9815673828125,4.747772216796875,0.28411865234375,-1.68975830078125,1.0,1.0,1.0,1.0,1.0,40.0,
2023-09-09 23:56:50.196,1.0638218,0.6569905,0.63348037,0.73026896,0.41121176,-0.15604524,0.11851465,0.5267392,0.72563416,0.25490043,0.36706123,0.7046978,0.29959673,0.031901207,0.076014474,0.3324071,0.018828284,-0.27821735,-0.46292984,0.014306175,819.9634,794.17584,786.9231,810.696,774.43225,0.13720703125,0.099609375,0.984619140625,4.867401123046875,-0.261688232421875,-0.8074951171875,1.0,1.0,1.0,1.0,1.0,40.0,
2023-09-09 23:56:50.251,1.0638218,0.6569905,0.63348037,0.73026896,0.41121176,-0.15604524,0.11851465,0.5267392,0.72563416,0.25490043,0.36706123,0.7046978,0.29959673,0.031901207,0.076014474,0.3324071,0.018828284,-0.27821735,-0.46292984,0.014306175,768.3883,794.9817,788.5348,773.22345,757.50916,0.13568115234375,0.0987548828125,0.97491455078125,5.27862548828125,-1.024322509765625,-0.261688232421875,1.0,1.0,1.0,1.0,1.0,40.0,
2023-09-09 23:56:50.256,1.0638218,0.6144103,0.59819406,0.73026896,0.41121176,-0.20531622,0.07249798,0.5267392,0.72563416,0.25490043,0.35272735,0.7046978,0.29959673,-0.0012203973,0.0745166,0.3324071,0.018828284,-0.27540287,-0.4904756,0.014306175,794.9817,790.54944,784.10254,790.14655,732.9304,0.13568115234375,0.0987548828125,0.97491455078125,5.27862548828125,-1.024322509765625,-0.261688232421875,1.0,1.0,1.0,1.0,1.0,40.0,
2023-09-09 23:56:50.356,1.0638218,0.6144103,0.59819406,0.73026896,0.41121176,-0.20531622,0.07249798,0.5267392,0.72563416,0.25490043,0.35272735,0.7046978,0.29959673,-0.0012203973,0.0745166,0.3324071,0.018828284,-0.27540287,-0.4904756,0.014306175,815.12823,792.96704,793.36993,825.6044,697.47253,0.12774658203125,0.09893798828125,0.97918701171875,5.106658935546875,-2.788848876953125,0.127105712890625,1.0,1.0,1.0,1.0,1.0,40.0,
2023-09-09 23:56:50.363,1.0638218,0.53990483,0.54259175,0.73026896,0.41121176,-0.25840616,0.024811888,0.5267392,0.72563416,0.23737507,0.33159065,0.7046978,0.29959673,-0.042556975,0.06806275,0.3324071,0.018828284,-0.28301382,-0.515744,0.014306175,772.4176,778.46155,814.3223,786.1172,740.58606,0.12774658203125,0.09893798828125,0.97918701171875,5.106658935546875,-2.788848876953125,0.127105712890625,1.0,1.0,1.0,1.0,1.0,40.0,
2023-09-09 23:56:50.404,1.0638218,0.53990483,0.54259175,0.73026896,0.41121176,-0.25840616,0.024811888,0.5267392,0.72563416,0.23737507,0.33159065,0.7046978,0.29959673,-0.042556975,0.06806275,0.3324071,0.018828284,-0.28301382,-0.515744,0.014306175,738.1685,786.52014,812.3077,760.7326,709.9634,0.12628173828125,0.10272216796875,0.97406005859375,4.5458984375,-4.7552490234375,-0.059814453125,1.0,1.0,1.0,1.0,1.0,40.0,
2023-09-09 23:56:50.477,1.0638218,0.53990483,0.54259175,0.73026896,0.41121176,-0.25840616,0.024811888,0.5267392,0.72563416,0.23737507,0.33159065,0.7046978,0.29959673,-0.042556975,0.06806275,0.3324071,0.018828284,-0.28301382,-0.515744,0.014306175,803.8461,790.54944,798.60803,797.3993,690.2198,0.1317138671875,0.101318359375,0.97918701171875,4.83001708984375,-4.209442138671875,-0.456085205078125,1.0,1.0,1.0,1.0,1.0,40.0,
2023-09-09 23:56:50.509,1.0638218,0.53990483,0.54259175,0.73026896,0.41121176,-0.25840616,0.024811888,0.5267392,0.72563416,0.23737507,0.33159065,0.7046978,0.29959673,-0.042556975,0.06806275,0.3324071,0.018828284,-0.28301382,-0.515744,0.014306175,807.0696,789.7436,790.9524,810.293,864.2857,0.13671875,0.10601806640625,0.97430419921875,5.076751708984375,-2.22808837890625,-0.500946044921875,1.0,1.0,1.0,1.0,1.0,40.0,
2023-09-09 23:56:50.510,1.0638218,0.43191946,0.47529522,0.73026896,0.41121176,-0.29953218,-0.009831996,0.5267392,0.72563416,0.1362705,0.26239806,0.7046978,0.29959673,-0.085262164,0.056135807,0.3324071,0.018828284,-0.29714465,-0.53370893,0.014306175,780.07324,794.17584,791.3553,794.57874,759.5238,0.13671875,0.10601806640625,0.97430419921875,5.076751708984375,-2.22808837890625,-0.500946044921875,1.0,1.0,1.0,1.0,1.0,40.0,
2023-09-09 23:56:50.526,1.0638218,0.43191946,0.47529522,0.73026896,0.41121176,-0.29953218,-0.009831996,0.5267392,0.72563416,0.1362705,0.26239806,0.7046978,0.29959673,-0.085262164,0.056135807,0.3324071,0.018828284,-0.29714465,-0.53370893,0.014306175,768.7912,793.7729,798.60803,783.69965,663.22345,0.14093017578125,0.10528564453125,0.973876953125,5.046844482421875,-0.216827392578125,-0.59814453125,1.0,1.0,1.0,1.0,1.0,40.0,
2023-09-09 23:56:50.557,1.0638218,0.30234566,0.4193954,0.73026896,0.41121176,-0.31777728,-0.016921049,0.5267392,0.72563416,-0.009843489,0.16501445,0.7046978,0.29959673,-0.12065874,0.04345876,0.3324071,0.018828284,-0.3103663,-0.54306066,0.014306175,776.4469,794.57874,795.38464,792.96704,867.1062,0.14093017578125,0.10528564453125,0.973876953125,5.046844482421875,-0.216827392578125,-0.59814453125,1.0,1.0,1.0,1.0,1.0,40.0,
2023-09-09 23:56:50.653,1.0638218,0.30234566,0.4193954,0.73026896,0.41121176,-0.31777728,-0.016921049,0.5267392,0.72563416,-0.009843489,0.16501445,0.7046978,0.29959673,-0.12065874,0.04345876,0.3324071,0.018828284,-0.3103663,-0.54306066,0.014306175,807.0696,795.78754,790.14655,796.99634,696.26373,0.1309814453125,0.10968017578125,0.9803466796875,5.38330078125,0.8673095703125,0.261688232421875,1.0,1.0,1.0,1.0,1.0,40.0,
2023-09-09 23:56:50.692,1.0638218,0.30234566,0.4193954,0.73026896,0.41121176,-0.31777728,-0.016921049,0.5267392,0.72563416,-0.009843489,0.16501445,0.7046978,0.29959673,-0.12065874,0.04345876,0.3324071,0.018828284,-0.3103663,-0.54306066,0.014306175,775.2381,801.02563,794.57874,782.8938,579.011,0.12542724609375,0.10101318359375,0.979248046875,5.151519775390625,-0.725250244140625,-0.2392578125,1.0,1.0,1.0,1.0,1.0,40.0,
2023-09-09 23:56:50.699,1.0638218,0.18329716,0.39807716,0.73026896,0.41121176,-0.3146657,0.012761449,0.5267392,0.72563416,-0.115711235,0.12936273,0.7046978,0.29959673,-0.14350802,0.03415005,0.3324071,0.018828284,-0.3196422,-0.55089384,0.014306175,770.40295,792.5641,791.3553,778.86444,780.87915,0.12542724609375,0.10101318359375,0.979248046875,5.151519775390625,-0.725250244140625,-0.2392578125,1.0,1.0,1.0,1.0,1.0,40.0,
2023-09-09 23:56:50.724,1.0638218,0.18329716,0.39807716,0.73026896,0.41121176,-0.3146657,0.012761449,0.5267392,0.72563416,-0.115711235,0.12936273,0.7046978,0.29959673,-0.14350802,0.03415005,0.3324071,0.018828284,-0.3196422,-0.55089384,0.014306175,826.0073,801.02563,803.0403,818.7546,684.57874,0.12640380859375,0.10235595703125,0.98095703125,4.42626953125,-3.24493408203125,-0.456085205078125,1.0,1.0,1.0,1.0,1.0,40.0,
2023-09-09 23:56:50.759,1.0638218,0.18329716,0.39807716,0.73026896,0.41121176,-0.3146657,0.012761449,0.5267392,0.72563416,-0.115711235,0.12936273,0.7046978,0.29959673,-0.14350802,0.03415005,0.3324071,0.018828284,-0.3196422,-0.55089384,0.014306175,796.1905,799.81683,794.17584,792.1612,759.12085,0.13018798828125,0.100830078125,0.982421875,4.11224365234375,-4.598236083984375,-0.545806884765625,1.0,1.0,1.0,1.0,1.0,40.0,
2023-09-09 23:56:50.763,1.0638218,0.12953067,0.40957737,1.0065525,0.41121176,-0.2997794,0.06687345,0.8169495,0.72563416,-0.08869604,0.1332741,0.9911746,0.29959673,-0.15501942,0.027068613,0.4324586,0.018828284,-0.3283137,-0.56754595,0.123131625,721.6484,809.4872,779.67035,722.4542,641.4652,0.13018798828125,0.100830078125,0.982421875,4.11224365234375,-4.598236083984375,-0.545806884765625,1.0,1.0,1.0,1.0,1.0,40.0,
2023-09-09 23:56:50.870,1.0638218,0.12953067,0.40957737,1.0065525,0.41121176,-0.2997794,0.06687345,0.8169495,0.72563416,-0.08869604,0.1332741,0.9911746,0.29959673,-0.15501942,0.027068613,0.4324586,0.018828284,-0.3283137,-0.56754595,0.123131625,779.67035,806.6667,787.72894,772.4176,740.989,0.13165283203125,0.09912109375,0.98028564453125,4.493560791015625,-4.71038818359375,-0.964508056640625,1.0,1.0,1.0,1.0,1.0,40.0,
2023-09-09 23:56:50.877,1.0638218,0.15847468,0.4302567,1.0065525,0.41121176,-0.2783158,0.12054882,0.8169495,0.72563416,-0.023898074,0.16979417,0.9911746,0.29959673,-0.16024166,0.018509535,0.4324586,0.018828284,-0.33955067,-0.5931324,0.123131625,767.5824,797.3993,791.3553,778.86444,822.381,0.13165283203125,0.09912109375,0.98028564453125,4.493560791015625,-4.71038818359375,-0.964508056640625,1.0,1.0,1.0,1.0,1.0,40.0,
2023-09-09 23:56:50.915,1.0638218,0.15847468,0.4302567,1.0065525,0.41121176,-0.2783158,0.12054882,0.8169495,0.72563416,-0.023898074,0.16979417,0.9911746,0.29959673,-0.16024166,0.018509535,0.4324586,0.018828284,-0.33955067,-0.5931324,0.123131625,782.8938,794.57874,795.38464,796.1905,734.1392,0.13360595703125,0.09796142578125,0.9747314453125,4.05242919921875,-4.717864990234375,-1.016845703125,1.0,1.0,1.0,1.0,1.0,40.0,
2023-09-09 23:56:50.949,1.0638218,0.15847468,0.4302567,1.0065525,0.41121176,-0.2783158,0.12054882,0.8169495,0.72563416,-0.023898074,0.16979417,0.9911746,0.29959673,-0.16024166,0.018509535,0.4324586,0.018828284,-0.33955067,-0.5931324,0.123131625,772.8205,794.57874,791.3553,780.07324,655.56775,0.13897705078125,0.10223388671875,0.9736328125,4.867401123046875,-3.03558349609375,-0.485992431640625,1.0,1.0,1.0,1.0,1.0,40.0,
2023-09-09 23:56:50.957,1.0638218,0.21363422,0.43375963,1.0065525,0.41121176,-0.24964102,0.15671931,0.8169495,0.72563416,0.066675246,0.18390566,0.9911746,0.29959673,-0.16431394,0.0074151885,0.4324586,0.018828284,-0.35065737,-0.61266094,0.123131625,810.696,802.6374,794.17584,814.3223,1093.956,0.13897705078125,0.10223388671875,0.9736328125,4.867401123046875,-3.03558349609375,-0.485992431640625,1.0,1.0,1.0,1.0,1.0,40.0,
2023-09-09 23:56:50.989,1.0638218,0.21363422,0.43375963,1.0065525,0.41121176,-0.24964102,0.15671931,0.8169495,0.72563416,0.066675246,0.18390566,0.9911746,0.29959673,-0.16431394,0.0074151885,0.4324586,0.018828284,-0.35065737,-0.61266094,0.123131625,829.6337,804.2491,793.7729,823.9927,880.0,0.1368408203125,0.10400390625,0.9732666015625,5.031890869140625,-0.291595458984375,-0.3887939453125,1.0,1.0,1.0,1.0,1.0,40.0,
2023-09-09 23:56:51.061,1.0638218,0.21363422,0.43375963,1.0065525,0.41121176,-0.24964102,0.15671931,0.8169495,0.72563416,0.066675246,0.18390566,0.9911746,0.29959673,-0.16431394,0.0074151885,0.4324586,0.018828284,-0.35065737,-0.61266094,0.123131625,796.5934,803.8461,802.6374,796.1905,699.89014,0.137939453125,0.10302734375,0.97198486328125,4.90478515625,2.04864501953125,-0.58319091796875,1.0,1.0,1.0,1.0,1.0,40.0,
2023-09-09 23:56:51.102,1.0638218,0.27441108,0.40674376,1.0065525,0.41121176,-0.19615988,0.17571953,0.8169495,0.72563416,0.17341712,0.18423657,0.9911746,0.29959673,-0.16896643,-0.0019394726,0.4324586,0.018828284,-0.3580755,-0.6074343,0.123131625,807.47253,790.9524,790.54944,805.4579,689.011,0.137939453125,0.10302734375,0.97198486328125,4.90478515625,2.04864501953125,-0.58319091796875,1.0,1.0,1.0,1.0,1.0,40.0,
2023-09-09 23:56:51.139,1.0638218,0.27441108,0.40674376,1.0065525,0.41121176,-0.19615988,0.17571953,0.8169495,0.72563416,0.17341712,0.18423657,0.9911746,0.29959673,-0.16896643,-0.0019394726,0.4324586,0.018828284,-0.3580755,-0.6074343,0.123131625,838.0952,794.9817,809.0842,826.0073,693.8461,0.12353515625,0.1007080078125,0.978759765625,5.540313720703125,1.09161376953125,0.40374755859375,1.0,1.0,1.0,1.0,1.0,40.0,
2023-09-09 23:56:51.171,1.0638218,0.27441108,0.40674376,1.0065525,0.41121176,-0.19615988,0.17571953,0.8169495,0.72563416,0.17341712,0.18423657,0.9911746,0.29959673,-0.16896643,-0.0019394726,0.4324586,0.018828284,-0.3580755,-0.6074343,0.123131625,791.75824,787.72894,794.9817,805.05493,697.8755,0.11407470703125,0.10589599609375,0.979736328125,5.031890869140625,-2.190704345703125,0.1495361328125,1.0,1.0,1.0,1.0,1.0,40.0,
2023-09-09 23:56:51.173,1.0638218,0.33808857,0.36890438,1.0065525,0.41121176,-0.10652815,0.18916982,0.8169495,0.72563416,0.2963077,0.17497,0.9911746,0.29959673,-0.17285752,-0.0048328834,0.4324586,0.018828284,-0.36312732,-0.5762376,0.123131625,833.2601,791.75824,800.2198,827.2161,687.3993,0.11407470703125,0.10589599609375,0.979736328125,5.031890869140625,-2.190704345703125,0.1495361328125,1.0,1.0,1.0,1.0,1.0,40.0,
2023-09-09 23:56:51.204,1.0638218,0.33808857,0.36890438,1.0065525,0.41121176,-0.10652815,0.18916982,0.8169495,0.72563416,0.2963077,0.17497,0.9911746,0.29959673,-0.17285752,-0.0048328834,0.4324586,0.018828284,-0.36312732,-0.5762376,0.123131625,785.7143,792.1612,797.8022,784.5055,802.6374,0.1234130859375,0.10791015625,0.9779052734375,4.29168701171875,-3.760833740234375,-0.441131591796875,1.0,1.0,1.0,1.0,1.0,40.0,
2023-09-09 23:56:51.270,1.0638218,0.33808857,0.36890438,1.0065525,0.41121176,-0.10652815,0.18916982,0.8169495,0.72563416,0.2963077,0.17497,0.9911746,0.29959673,-0.17285752,-0.0048328834,0.4324586,0.018828284,-0.36312732,-0.5762376,0.123131625,823.5897,790.54944,795.78754,818.7546,780.4762,0.123779296875,0.10028076171875,0.97967529296875,4.7552490234375,-3.386993408203125,-0.22430419921875,1.0,1.0,1.0,1.0,1.0,40.0,
2023-09-09 23:56:51.273,1.0638218,0.39547512,0.35013676,1.0065525,0.41121176,-0.005388346,0.20248736,0.8169495,0.72563416,0.3849157,0.16502213,0.9911746,0.29959673,-0.17380376,6.517796e-05,0.4324586,0.018828284,-0.36835656,-0.536935,0.123131625,819.15753,796.99634,801.4286,819.15753,759.92676,0.123779296875,0.10028076171875,0.97967529296875,4.7552490234375,-3.386993408203125,-0.22430419921875,1.0,1.0,1.0,1.0,1.0,40.0,
2023-09-09 23:56:51.301,1.0638218,0.39547512,0.35013676,1.0065525,0.41121176,-0.005388346,0.20248736,0.8169495,0.72563416,0.3849157,0.16502213,0.9911746,0.29959673,-0.17380376,6.517796e-05,0.4324586,0.018828284,-0.36835656,-0.536935,0.123131625,778.0586,801.8315,800.2198,794.57874,759.5238,0.1171875,0.10406494140625,0.97760009765625,4.987030029296875,-3.09539794921875,-0.34393310546875,1.0,1.0,1.0,1.0,1.0,40.0,
2023-09-09 23:56:51.375,1.0638218,0.43602362,0.35802904,1.0065525,0.41121176,0.078090906,0.2141125,0.8169495,0.72563416,0.4023404,0.14981191,0.9911746,0.29959673,-0.17090109,0.011178811,0.4324586,0.018828284,-0.37261215,-0.50551146,0.123131625,826.0073,796.99634,797.8022,824.3956,1139.8901,0.1171875,0.10406494140625,0.97760009765625,4.987030029296875,-3.09539794921875,-0.34393310546875,1.0,1.0,1.0,1.0,1.0,40.0,
2023-09-09 23:56:51.403,1.0638218,0.43602362,0.35802904,1.0065525,0.41121176,0.078090906,0.2141125,0.8169495,0.72563416,0.4023404,0.14981191,0.9911746,0.29959673,-0.17090109,0.011178811,0.4324586,0.018828284,-0.37261215,-0.50551146,0.123131625,823.5897,792.96704,794.9817,816.7399,706.7399,0.1243896484375,0.107177734375,0.97943115234375,4.964599609375,-3.69354248046875,-0.336456298828125,1.0,1.0,1.0,1.0,1.0,40.0,
2023-09-09 23:56:51.475,1.0638218,0.43602362,0.35802904,1.0065525,0.41121176,0.078090906,0.2141125,0.8169495,0.72563416,0.4023404,0.14981191,0.9911746,0.29959673,-0.17090109,0.011178811,0.4324586,0.018828284,-0.37261215,-0.50551146,0.123131625,773.22345,803.44324,802.23444,788.93774,593.1135,0.12652587890625,0.1107177734375,0.97589111328125,4.35150146484375,-5.345916748046875,-0.13458251953125,1.0,1.0,1.0,1.0,1.0,40.0,
2023-09-09 23:56:51.482,1.0638218,0.46161413,0.38429385,1.0065525,0.41121176,0.12908383,0.22218046,0.8169495,0.72563416,0.40348795,0.15898594,0.9911746,0.29959673,-0.16504112,0.023755688,0.4324586,0.018828284,-0.3700616,-0.4873414,0.123131625,813.91943,797.8022,790.54944,796.99634,895.7143,0.12652587890625,0.1107177734375,0.97589111328125,4.35150146484375,-5.345916748046875,-0.13458251953125,1.0,1.0,1.0,1.0,1.0,40.0,
2023-09-09 23:56:51.514,1.0638218,0.46161413,0.38429385,1.0065525,0.41121176,0.12908383,0.22218046,0.8169495,0.72563416,0.40348795,0.15898594,0.9911746,0.29959673,-0.16504112,0.023755688,0.4324586,0.018828284,-0.3700616,-0.4873414,0.123131625,792.96704,794.17584,793.7729,788.1319,684.9817,0.1287841796875,0.1080322265625,0.97698974609375,4.119720458984375,-4.179534912109375,-0.40374755859375,1.0,1.0,1.0,1.0,1.0,40.0,
2023-09-09 23:56:51.557,1.0638218,0.46161413,0.38429385,1.0065525,0.41121176,0.12908383,0.22218046,0.8169495,0.72563416,0.40348795,0.15898594,0.9911746,0.29959673,-0.16504112,0.023755688,0.4324586,0.018828284,-0.3700616,-0.4873414,0.123131625,822.7839,795.78754,794.9817,811.9048,751.8681,0.1405029296875,0.102783203125,0.98114013671875,4.0972900390625,-2.27294921875,-1.375732421875,1.0,1.0,1.0,1.0,1.0,40.0,
2023-09-09 23:56:51.563,1.0638218,0.47640753,0.41000724,1.0065525,0.41121176,0.15250199,0.22386654,0.8169495,0.72563416,0.40348795,0.1976956,0.9911746,0.29959673,-0.15840964,0.031015996,0.4324586,0.018828284,-0.35755154,-0.47847423,0.123131625,801.8315,799.41394,796.1905,799.011,770.40295,0.1405029296875,0.102783203125,0.98114013671875,4.0972900390625,-2.27294921875,-1.375732421875,1.0,1.0,1.0,1.0,1.0,40.0,
2023-09-09 23:56:51.657,1.0638218,0.47640753,0.41000724,1.0065525,0.41121176,0.15250199,0.22386654,0.8169495,0.72563416,0.40348795,0.1976956,0.9911746,0.29959673,-0.15840964,0.031015996,0.4324586,0.018828284,-0.35755154,-0.47847423,0.123131625,815.12823,806.26373,799.41394,805.8608,726.08057,0.13385009765625,0.10455322265625,0.97955322265625,4.074859619140625,-1.652374267578125,-2.1234130859375,1.0,1.0,1.0,1.0,1.0,40.0,
2023-09-09 23:56:51.690,1.0638218,0.47640753,0.41000724,1.0065525,0.41121176,0.15250199,0.22386654,0.8169495,0.72563416,0.40348795,0.1976956,0.9911746,0.29959673,-0.15840964,0.031015996,0.4324586,0.018828284,-0.35755154,-0.47847423,0.123131625,823.5897,801.4286,796.1905,815.5311,721.6484,0.1312255859375,0.10418701171875,0.9754638671875,4.3963623046875,-1.1065673828125,-1.816864013671875,1.0,1.0,1.0,1.0,1.0,40.0,
2023-09-09 23:56:51.691,1.0638218,0.48576298,0.42535216,1.0065525,0.41121176,0.16093044,0.215542,0.8169495,0.72563416,0.40348795,0.21081011,0.9911746,0.29959673,-0.15429157,0.027941762,0.4324586,0.018828284,-0.3398475,-0.4708972,0.123131625,793.7729,798.20514,794.57874,789.7436,729.304,0.1312255859375,0.10418701171875,0.9754638671875,4.3963623046875,-1.1065673828125,-1.816864013671875,1.0,1.0,1.0,1.0,1.0,40.0,
2023-09-09 23:56:51.731,1.0638218,0.48576298,0.42535216,1.0065525,0.41121176,0.16093044,0.215542,0.8169495,0.72563416,0.40348795,0.21081011,0.9911746,0.29959673,-0.15429157,0.027941762,0.4324586,0.018828284,-0.3398475,-0.4708972,0.123131625,770.0,798.20514,792.96704,771.6117,746.2271,0.13116455078125,0.1031494140625,0.98052978515625,4.0972900390625,-1.682281494140625,-2.130889892578125,1.0,1.0,1.0,1.0,1.0,40.0,
2023-09-09 23:56:51.820,1.0638218,0.48576298,0.42535216,1.0065525,0.41121176,0.16093044,0.215542,0.8169495,0.72563416,0.40348795,0.21081011,0.9911746,0.29959673,-0.15429157,0.027941762,0.4324586,0.018828284,-0.3398475,-0.4708972,0.123131625,801.8315,796.99634,796.1905,799.011,676.1172,0.1304931640625,0.10302734375,0.9862060546875,4.0972900390625,-1.24114990234375,-1.7645263671875,1.0,1.0,1.0,1.0,1.0,40.0,
2023-09-09 23:56:51.823,1.0638218,0.4881501,0.43202388,1.0065525,0.41121176,0.16481397,0.19577418,0.8169495,0.72563416,0.40348795,0.21183106,0.9911746,0.29959673,-0.15476485,0.014868666,0.4324586,0.018828284,-0.32399154,-0.46000373,0.123131625,770.40295,798.60803,796.1905,786.52014,889.2674,0.1304931640625,0.10302734375,0.9862060546875,4.0972900390625,-1.24114990234375,-1.7645263671875,1.0,1.0,1.0,1.0,1.0,40.0,
2023-09-09 23:56:51.860,1.0638218,0.4881501,0.43202388,1.0065525,0.41121176,0.16481397,0.19577418,0.8169495,0.72563416,0.40348795,0.21183106,0.9911746,0.29959673,-0.15476485,0.014868666,0.4324586,0.018828284,-0.32399154,-0.46000373,0.123131625,817.1429,793.36993,797.8022,803.8461,684.9817,0.12274169921875,0.10125732421875,0.9739990234375,4.882354736328125,-1.31591796875,-1.263580322265625,1.0,1.0,1.0,1.0,1.0,40.0,
2023-09-09 23:56:51.872,1.0638218,0.48340642,0.43186694,1.0065525,0.41121176,0.1673456,0.16978984,0.8169495,0.72563416,0.40348795,0.21183106,0.9911746,0.29959673,-0.16144323,-0.0032048149,0.4324586,0.018828284,-0.31537282,-0.44702226,0.123131625,776.4469,797.3993,795.38464,786.1172,1121.3553,0.12274169921875,0.10125732421875,0.9739990234375,4.882354736328125,-1.31591796875,-1.263580322265625,1.0,1.0,1.0,1.0,1.0,40.0,
2023-09-09 23:56:51.913,1.0638218,0.48340642,0.43186694,1.0065525,0.41121176,0.1673456,0.16978984,0.8169495,0.72563416,0.40348795,0.21183106,0.9911746,0.29959673,-0.16144323,-0.0032048149,0.4324586,0.018828284,-0.31537282,-0.44702226,0.123131625,820.7692,792.1612,799.011,817.5458,673.69965,0.1224365234375,0.10211181640625,0.98284912109375,4.41131591796875,-2.280426025390625,-1.48040771484375,1.0,1.0,1.0,1.0,1.0,40.0,
2023-09-09 23:56:51.978,1.0638218,0.48340642,0.43186694,1.0065525,0.41121176,0.1673456,0.16978984,0.8169495,0.72563416,0.40348795,0.21183106,0.9911746,0.29959673,-0.16144323,-0.0032048149,0.4324586,0.018828284,-0.31537282,-0.44702226,0.123131625,848.5714,785.7143,798.20514,846.1539,762.74725,0.1187744140625,0.10235595703125,0.97698974609375,4.209442138671875,-3.192596435546875,-0.770111083984375,1.0,1.0,1.0,1.0,1.0,40.0,
2023-09-09 23:56:51.981,1.0638218,0.4779096,0.42766058,1.0065525,0.41121176,0.17082442,0.14707536,0.8169495,0.72563416,0.40348795,0.21183106,0.9911746,0.29959673,-0.17366207,-0.019920852,0.4324586,0.018828284,-0.31698686,-0.43657959,0.123131625,785.31134,793.36993,800.6227,803.44324,823.5897,0.1187744140625,0.10235595703125,0.97698974609375,4.209442138671875,-3.192596435546875,-0.770111083984375,1.0,1.0,1.0,1.0,1.0,40.0,
2023-09-09 23:56:52.049,1.0638218,0.4779096,0.42766058,1.0065525,0.41121176,0.17082442,0.14707536,0.8169495,0.72563416,0.40348795,0.21183106,0.9911746,0.29959673,-0.17366207,-0.019920852,0.4324586,0.018828284,-0.31698686,-0.43657959,0.123131625,774.0293,797.3993,794.9817,792.96704,793.36993,0.1229248046875,0.0985107421875,0.97491455078125,4.32159423828125,-4.007568359375,-1.308441162109375,1.0,1.0,1.0,1.0,1.0,40.0,
2023-09-09 23:56:52.086,1.0638218,0.4779096,0.42766058,1.0065525,0.41121176,0.17082442,0.14707536,0.8169495,0.72563416,0.40348795,0.21183106,0.9911746,0.29959673,-0.17366207,-0.019920852,0.4324586,0.018828284,-0.31698686,-0.43657959,0.123131625,813.5165,796.99634,796.1905,812.71063,712.7839,0.1236572265625,0.099853515625,0.97967529296875,4.254302978515625,-3.3795166015625,-1.68975830078125,1.0,1.0,1.0,1.0,1.0,40.0,
2023-09-09 23:56:52.093,1.0638218,0.47676587,0.4136268,1.0065525,0.41121176,0.17528404,0.12804203,0.8169495,0.72563416,0.40348795,0.21183106,0.9911746,0.29959673,-0.18952471,-0.035544578,0.4324586,0.018828284,-0.32919782,-0.4316649,0.123131625,759.5238,792.96704,796.1905,782.49084,583.8461,0.1236572265625,0.099853515625,0.97967529296875,4.254302978515625,-3.3795166015625,-1.68975830078125,1.0,1.0,1.0,1.0,1.0,40.0,
2023-09-09 23:56:52.158,1.0638218,0.47676587,0.4136268,1.0065525,0.41121176,0.17528404,0.12804203,0.8169495,0.72563416,0.40348795,0.21183106,0.9911746,0.29959673,-0.18952471,-0.035544578,0.4324586,0.018828284,-0.32919782,-0.4316649,0.123131625,759.5238,792.1612,790.9524,775.64105,650.32965,0.12786865234375,0.0994873046875,0.973876953125,4.314117431640625,-3.21502685546875,-0.710296630859375,1.0,1.0,1.0,1.0,1.0,45.0,
2023-09-09 23:56:52.167,1.0638218,0.47591317,0.38111293,1.0065525,0.41121176,0.1821919,0.09849577,0.8169495,0.72563416,0.40348795,0.21183106,0.9911746,0.29959673,-0.20645308,-0.05304584,0.4324586,0.018828284,-0.34693256,-0.43049803,0.123131625,784.10254,803.8461,793.7729,792.1612,707.1429,0.12786865234375,0.0994873046875,0.973876953125,4.314117431640625,-3.21502685546875,-0.710296630859375,1.0,1.0,1.0,1.0,1.0,45.0,
2023-09-09 23:56:52.204,1.0638218,0.47591317,0.38111293,1.0065525,0.41121176,0.1821919,0.09849577,0.8169495,0.72563416,0.40348795,0.21183106,0.9911746,0.29959673,-0.20645308,-0.05304584,0.4324586,0.018828284,-0.34693256,-0.43049803,0.123131625,817.9487,800.6227,794.9817,811.9048,666.04395,0.1297607421875,0.09930419921875,0.97772216796875,4.867401123046875,-3.865509033203125,-0.426177978515625,1.0,1.0,1.0,1.0,1.0,45.0,
2023-09-09 23:56:52.278,1.0638218,0.47591317,0.38111293,1.0065525,0.41121176,0.1821919,0.09849577,0.8169495,0.72563416,0.40348795,0.21183106,0.9911746,0.29959673,-0.20645308,-0.05304584,0.4324586,0.018828284,-0.34693256,-0.43049803,0.123131625,797.8022,791.75824,790.9524,790.14655,691.02563,0.132568359375,0.10162353515625,0.9796142578125,4.9346923828125,-3.46923828125,-0.04486083984375,1.0,1.0,1.0,1.0,1.0,45.0,
2023-09-09 23:56:52.319,1.0638218,0.47591317,0.38111293,1.0065525,0.41121176,0.1821919,0.09849577,0.8169495,0.72563416,0.40348795,0.21183106,0.9911746,0.29959673,-0.20645308,-0.05304584,0.4324586,0.018828284,-0.34693256,-0.43049803,0.123131625,767.1795,792.96704,792.96704,775.64105,724.4689,0.13067626953125,0.10272216796875,0.97821044921875,4.538421630859375,-2.863616943359375,-0.3289794921875,1.0,1.0,1.0,1.0,1.0,45.0,
2023-09-09 23:56:52.320,1.0638218,0.46753523,0.32909003,1.0065525,0.41121176,0.19406393,0.04554389,0.8169495,0.72563416,0.41089496,0.21183106,0.9911746,0.29959673,-0.22178365,-0.07193753,0.4324586,0.018828284,-0.3611678,-0.42909405,0.123131625,792.96704,793.7729,793.36993,794.57874,747.8388,0.13067626953125,0.10272216796875,0.97821044921875,4.538421630859375,-2.863616943359375,-0.3289794921875,1.0,1.0,1.0,1.0,1.0,45.0,
2023-09-09 23:56:52.361,1.0638218,0.46753523,0.32909003,1.0065525,0.41121176,0.19406393,0.04554389,0.8169495,0.72563416,0.41089496,0.21183106,0.9911746,0.29959673,-0.22178365,-0.07193753,0.4324586,0.018828284,-0.3611678,-0.42909405,0.123131625,822.381,800.2198,796.99634,819.15753,771.6117,0.12957763671875,0.10467529296875,0.97735595703125,4.957122802734375,-2.729034423828125,-0.545806884765625,1.0,1.0,1.0,1.0,1.0,45.0,
2023-09-09 23:56:52.409,1.0438544,0.44234085,0.26583374,1.2180187,0.5411231,0.21069528,-0.02679942,0.84400785,0.48424983,0.4178469,0.20216702,0.5371458,0.13984922,-0.23457417,-0.08912384,0.1765392,-0.39742452,-0.36469623,-0.42786315,-0.40270275,802.6374,791.3553,794.9817,810.696,680.54944,0.12957763671875,0.10467529296875,0.97735595703125,4.957122802734375,-2.729034423828125,-0.545806884765625,1.0,1.0,1.0,1.0,1.0,45.0,
2023-09-09 23:56:52.442,1.0438544,0.44234085,0.26583374,1.2180187,0.5411231,0.21069528,-0.02679942,0.84400785,0.48424983,0.4178469,0.20216702,0.5371458,0.13984922,-0.23457417,-0.08912384,0.1765392,-0.39742452,-0.36469623,-0.42786315,-0.40270275,775.64105,795.38464,792.5641,797.8022,673.2967,0.1328125,0.09991455078125,0.976318359375,4.673004150390625,-2.743988037109375,-0.9869384765625,1.0,1.0,1.0,1.0,1.0,45.0,
2023-09-09 23:56:52.497,1.0438544,0.44234085,0.26583374,1.2180187,0.5411231,0.21069528,-0.02679942,0.84400785,0.48424983,0.4178469,0.20216702,0.5371458,0.13984922,-0.23457417,-0.08912384,0.1765392,-0.39742452,-0.36469623,-0.42786315,-0.40270275,790.9524,811.0989,788.5348,782.8938,675.31134,0.1351318359375,0.09967041015625,0.9808349609375,4.68048095703125,-2.58697509765625,-1.054229736328125,1.0,1.0,1.0,1.0,1.0,45.0,
2023-09-09 23:56:52.500,1.0438544,0.40740046,0.2171061,1.2180187,0.5411231,0.22453457,-0.099161826,0.84400785,0.48424983,0.4178469,0.18137088,0.5371458,0.13984922,-0.24541421,-0.10475399,0.1765392,-0.39742452,-0.35974383,-0.43338823,-0.40270275,759.5238,813.5165,784.90845,742.6007,748.24176,0.1351318359375,0.09967041015625,0.9808349609375,4.68048095703125,-2.58697509765625,-1.054229736328125,1.0,1.0,1.0,1.0,1.0,45.0,
2023-09-09 23:56:52.556,1.0438544,0.40740046,0.2171061,1.2180187,0.5411231,0.22453457,-0.099161826,0.84400785,0.48424983,0.4178469,0.18137088,0.5371458,0.13984922,-0.24541421,-0.10475399,0.1765392,-0.39742452,-0.35974383,-0.43338823,-0.40270275,754.2857,809.89014,785.7143,751.06226,666.8498,0.13238525390625,0.1075439453125,0.97283935546875,4.777679443359375,-2.85614013671875,-0.814971923828125,1.0,1.0,1.0,1.0,1.0,45.0,
2023-09-09 23:56:52.595,1.0438544,0.40740046,0.2171061,1.2180187,0.5411231,0.22453457,-0.099161826,0.84400785,0.48424983,0.4178469,0.18137088,0.5371458,0.13984922,-0.24541421,-0.10475399,0.1765392,-0.39742452,-0.35974383,-0.43338823,-0.40270275,762.74725,798.20514,789.7436,766.77655,647.50916,0.1319580078125,0.10247802734375,0.98077392578125,4.964599609375,-2.4822998046875,-0.31402587890625,1.0,1.0,1.0,1.0,1.0,45.0,
2023-09-09 23:56:52.600,1.0438544,0.3599077,0.19347426,1.2180187,0.5411231,0.22239971,-0.15478468,0.84400785,0.48424983,0.4178469,0.16706958,0.5371458,0.13984922,-0.2556761,-0.12342214,0.1765392,-0.39742452,-0.35489303,-0.4532436,-0.40270275,821.978,794.9817,793.7729,810.293,704.7253,0.1319580078125,0.10247802734375,0.98077392578125,4.964599609375,-2.4822998046875,-0.31402587890625,1.0,1.0,1.0,1.0,1.0,45.0,
2023-09-09 23:56:52.728,1.0438544,0.3599077,0.19347426,1.2180187,0.5411231,0.22239971,-0.15478468,0.84400785,0.48424983,0.4178469,0.16706958,0.5371458,0.13984922,-0.2556761,-0.12342214,0.1765392,-0.39742452,-0.35489303,-0.4532436,-0.40270275,802.23444,796.5934,793.36993,802.23444,712.381,0.13079833984375,0.10321044921875,0.978515625,4.5758056640625,-2.691650390625,-0.456085205078125,1.0,1.0,1.0,1.0,1.0,45.0,
2023-09-09 23:56:52.738,1.0438544,0.29706553,0.17475583,1.2180187,0.5411231,0.19924194,-0.20232935,0.84400785,0.48424983,0.40132248,0.16447385,0.5371458,0.13984922,-0.2614551,-0.14733264,0.1765392,-0.39742452,-0.35574687,-0.48801324,-0.40270275,842.52747,799.41394,794.17584,838.49817,1161.2454,0.13079833984375,0.10321044921875,0.978515625,4.5758056640625,-2.691650390625,-0.456085205078125,1.0,1.0,1.0,1.0,1.0,45.0,
2023-09-09 23:56:52.771,1.0438544,0.29706553,0.17475583,1.2180187,0.5411231,0.19924194,-0.20232935,0.84400785,0.48424983,0.40132248,0.16447385,0.5371458,0.13984922,-0.2614551,-0.14733264,0.1765392,-0.39742452,-0.35574687,-0.48801324,-0.40270275,773.6264,786.52014,799.81683,790.54944,711.1722,0.1309814453125,0.10223388671875,0.9805908203125,4.2767333984375,-2.444915771484375,-0.7476806640625,1.0,1.0,1.0,1.0,1.0,45.0,
2023-09-09 23:56:52.791,1.0438544,0.29706553,0.17475583,1.2180187,0.5411231,0.19924194,-0.20232935,0.84400785,0.48424983,0.40132248,0.16447385,0.5371458,0.13984922,-0.2614551,-0.14733264,0.1765392,-0.39742452,-0.35574687,-0.48801324,-0.40270275,834.0659,796.1905,790.14655,820.7692,736.9597,0.13348388671875,0.10113525390625,0.97454833984375,4.194488525390625,-2.75146484375,-0.82244873046875,1.0,1.0,1.0,1.0,1.0,45.0,
2023-09-09 23:56:52.804,1.0438544,0.23350646,0.13809165,1.2180187,0.5411231,0.1715355,-0.25222936,0.84400785,0.48424983,0.34888935,0.16100523,0.5371458,0.13984922,-0.2571797,-0.17284805,0.1765392,-0.39742452,-0.3628814,-0.5277694,-0.40270275,828.8278,803.0403,809.0842,822.381,868.315,0.13348388671875,0.10113525390625,0.97454833984375,4.194488525390625,-2.75146484375,-0.82244873046875,1.0,1.0,1.0,1.0,1.0,45.0,
2023-09-09 23:56:52.833,1.0438544,0.23350646,0.13809165,1.2180187,0.5411231,0.1715355,-0.25222936,0.84400785,0.48424983,0.34888935,0.16100523,0.5371458,0.13984922,-0.2571797,-0.17284805,0.1765392,-0.39742452,-0.3628814,-0.5277694,-0.40270275,796.5934,807.0696,809.0842,806.26373,707.5458,0.13262939453125,0.10260009765625,0.97607421875,4.553375244140625,-2.205657958984375,-0.82244873046875,1.0,1.0,1.0,1.0,1.0,45.0,
2023-09-09 23:56:52.866,1.0438544,0.23350646,0.13809165,1.2180187,0.5411231,0.1715355,-0.25222936,0.84400785,0.48424983,0.34888935,0.16100523,0.5371458,0.13984922,-0.2571797,-0.17284805,0.1765392,-0.39742452,-0.3628814,-0.5277694,-0.40270275,784.5055,809.89014,802.6374,795.38464,586.26373,0.12939453125,0.10186767578125,0.98052978515625,4.44122314453125,-2.100982666015625,-1.248626708984375,1.0,1.0,1.0,1.0,1.0,45.0,
2023-09-09 23:56:52.930,1.0438544,0.19880979,0.096156985,1.2180187,0.5411231,0.16174653,-0.2954272,0.84400785,0.48424983,0.2616535,0.15849915,0.5371458,0.13984922,-0.24008673,-0.19616264,0.1765392,-0.39742452,-0.37511894,-0.5560801,-0.40270275,809.0842,804.2491,809.0842,817.9487,844.94507,0.12939453125,0.10186767578125,0.98052978515625,4.44122314453125,-2.100982666015625,-1.248626708984375,1.0,1.0,1.0,1.0,1.0,45.0,
2023-09-09 23:56:52.968,1.0438544,0.19880979,0.096156985,1.2180187,0.5411231,0.16174653,-0.2954272,0.84400785,0.48424983,0.2616535,0.15849915,0.5371458,0.13984922,-0.24008673,-0.19616264,0.1765392,-0.39742452,-0.37511894,-0.5560801,-0.40270275,777.6557,802.6374,795.38464,780.87915,707.1429,0.13189697265625,0.0975341796875,0.979736328125,4.77020263671875,-2.654266357421875,-0.725250244140625,1.0,1.0,1.0,1.0,1.0,45.0,
2023-09-09 23:56:53.020,1.0438544,0.19880979,0.096156985,1.2180187,0.5411231,0.16174653,-0.2954272,0.84400785,0.48424983,0.2616535,0.15849915,0.5371458,0.13984922,-0.24008673,-0.19616264,0.1765392,-0.39742452,-0.37511894,-0.5560801,-0.40270275,791.3553,798.60803,803.0403,794.57874,570.9524,0.13568115234375,0.09930419921875,0.979248046875,5.121612548828125,-2.818756103515625,0.01495361328125,1.0,1.0,1.0,1.0,1.0,45.0,
2023-09-09 23:56:53.022,1.2547832,0.1953857,0.06590356,1.2180187,0.83787096,0.17692596,-0.31665665,0.84400785,1.029087,0.21219085,0.15429364,0.5371458,0.2568629,-0.21362112,-0.21644725,0.1765392,-0.2362768,-0.39322427,-0.5631206,-0.40270275,800.6227,795.38464,810.696,815.5311,790.14655,0.13568115234375,0.09930419921875,0.979248046875,5.121612548828125,-2.818756103515625,0.01495361328125,1.0,1.0,1.0,1.0,1.0,45.0,
2023-09-09 23:56:53.059,1.2547832,0.1953857,0.06590356,1.2180187,0.83787096,0.17692596,-0.31665665,0.84400785,1.029087,0.21219085,0.15429364,0.5371458,0.2568629,-0.21362112,-0.21644725,0.1765392,-0.2362768,-0.39322427,-0.5631206,-0.40270275,865.89746,796.1905,796.1905,853.4066,738.97437,0.12921142578125,0.1021728515625,0.982177734375,5.0244140625,-2.624359130859375,0.186920166015625,1.0,1.0,1.0,1.0,1.0,45.0,
2023-09-09 23:56:53.088,1.2547832,0.1953857,0.06590356,1.2180187,0.83787096,0.17692596,-0.31665665,0.84400785,1.029087,0.21219085,0.15429364,0.5371458,0.2568629,-0.21362112,-0.21644725,0.1765392,-0.2362768,-0.39322427,-0.5631206,-0.40270275,793.36993,799.011,799.81683,808.2784,797.3993,0.13055419921875,0.1016845703125,0.97674560546875,4.8748779296875,-2.43743896484375,0.082244873046875,1.0,1.0,1.0,1.0,1.0,45.0,
2023-09-09 23:56:53.090,1.2547832,0.211126,0.07026643,1.2180187,0.83787096,0.201797,-0.3074267,0.84400785,1.029087,0.18947986,0.11400545,0.5371458,0.2568629,-0.1862888,-0.23358384,0.1765392,-0.2362768,-0.42040983,-0.55345464,-0.40270275,799.81683,795.38464,798.60803,809.89014,838.0952,0.13055419921875,0.1016845703125,0.97674560546875,4.8748779296875,-2.43743896484375,0.082244873046875,1.0,1.0,1.0,1.0,1.0,45.0,
2023-09-09 23:56:53.127,1.2547832,0.211126,0.07026643,1.2180187,0.83787096,0.201797,-0.3074267,0.84400785,1.029087,0.18947986,0.11400545,0.5371458,0.2568629,-0.1862888,-0.23358384,0.1765392,-0.2362768,-0.42040983,-0.55345464,-0.40270275,805.05493,792.96704,794.17584,801.02563,602.7839,0.131103515625,0.1029052734375,0.98492431640625,5.03936767578125,-2.684173583984375,0.04486083984375,1.0,1.0,1.0,1.0,1.0,45.0,
2023-09-09 23:56:53.236,1.2547832,0.2372239,0.124547824,1.2180187,0.83787096,0.22178963,-0.27877748,0.84400785,1.029087,0.18401685,0.13247265,0.5371458,0.2568629,-0.16601925,-0.24354048,0.1765392,-0.2362768,-0.45739028,-0.5404531,-0.40270275,776.8498,797.8022,797.3993,795.38464,1150.3663,0.131103515625,0.1029052734375,0.98492431640625,5.03936767578125,-2.684173583984375,0.04486083984375,1.0,1.0,1.0,1.0,1.0,45.0,
2023-09-09 23:56:53.270,1.2547832,0.2372239,0.124547824,1.2180187,0.83787096,0.22178963,-0.27877748,0.84400785,1.029087,0.18401685,0.13247265,0.5371458,0.2568629,-0.16601925,-0.24354048,0.1765392,-0.2362768,-0.45739028,-0.5404531,-0.40270275,774.0293,793.7729,791.75824,788.93774,682.96704,0.13507080078125,0.10009765625,0.97943115234375,4.538421630859375,-3.3197021484375,-0.231781005859375,1.0,1.0,1.0,1.0,1.0,45.0,
2023-09-09 23:56:53.278,1.2547832,0.2372239,0.124547824,1.2180187,0.83787096,0.22178963,-0.27877748,0.84400785,1.029087,0.18401685,0.13247265,0.5371458,0.2568629,-0.16601925,-0.24354048,0.1765392,-0.2362768,-0.45739028,-0.5404531,-0.40270275,816.7399,800.2198,795.78754,813.5165,610.4396,0.134521484375,0.0999755859375,0.9769287109375,4.598236083984375,-2.1832275390625,-0.19439697265625,1.0,1.0,1.0,1.0,1.0,45.0,
2023-09-09 23:56:53.283,1.2547832,0.27564785,0.19419916,1.2180187,0.83787096,0.232581,-0.25052878,0.84400785,1.029087,0.18092754,0.21941647,0.5371458,0.2568629,-0.15531506,-0.24083944,0.1765392,-0.2362768,-0.49807626,-0.5341735,-0.40270275,780.4762,789.34064,796.99634,811.50183,628.1685,0.134521484375,0.0999755859375,0.9769287109375,4.598236083984375,-2.1832275390625,-0.19439697265625,1.0,1.0,1.0,1.0,1.0,45.0,
2023-09-09 23:56:53.334,1.2547832,0.27564785,0.19419916,1.2180187,0.83787096,0.232581,-0.25052878,0.84400785,1.029087,0.18092754,0.21941647,0.5371458,0.2568629,-0.15531506,-0.24083944,0.1765392,-0.2362768,-0.49807626,-0.5341735,-0.40270275,828.022,795.38464,795.38464,821.5751,700.293,0.13397216796875,0.09771728515625,0.98260498046875,5.03936767578125,-2.534637451171875,0.052337646484375,1.0,1.0,1.0,1.0,1.0,45.0,
2023-09-09 23:56:53.393,1.2547832,0.27564785,0.19419916,1.2180187,0.83787096,0.232581,-0.25052878,0.84400785,1.029087,0.18092754,0.21941647,0.5371458,0.2568629,-0.15531506,-0.24083944,0.1765392,-0.2362768,-0.49807626,-0.5341735,-0.40270275,769.59705,798.20514,794.9817,784.10254,715.6044,0.1298828125,0.10223388671875,0.9844970703125,5.061798095703125,-3.177642822265625,0.411224365234375,1.0,1.0,1.0,1.0,1.0,45.0,
2023-09-09 23:56:53.402,1.2547832,0.31626096,0.25019944,1.2180187,0.83787096,0.23589021,-0.23891674,0.84400785,1.029087,0.17944543,0.2828943,0.5371458,0.2568629,-0.1490107,-0.22435802,0.1765392,-0.2362768,-0.5305513,-0.53677106,-0.40270275,795.38464,794.9817,798.20514,804.2491,599.15753,0.1298828125,0.10223388671875,0.9844970703125,5.061798095703125,-3.177642822265625,0.411224365234375,1.0,1.0,1.0,1.0,1.0,45.0,
2023-09-09 23:56:53.471,1.2547832,0.31626096,0.25019944,1.2180187,0.83787096,0.23589021,-0.23891674,0.84400785,1.029087,0.17944543,0.2828943,0.5371458,0.2568629,-0.1490107,-0.22435802,0.1765392,-0.2362768,-0.5305513,-0.53677106,-0.40270275,823.1868,790.9524,795.78754,820.7692,795.38464,0.132568359375,0.1026611328125,0.97186279296875,5.181427001953125,-2.684173583984375,0.35888671875,1.0,1.0,1.0,1.0,1.0,45.0,
2023-09-09 23:56:53.526,1.2547832,0.31626096,0.25019944,1.2180187,0.83787096,0.23589021,-0.23891674,0.84400785,1.029087,0.17944543,0.2828943,0.5371458,0.2568629,-0.1490107,-0.22435802,0.1765392,-0.2362768,-0.5305513,-0.53677106,-0.40270275,772.4176,795.38464,795.38464,784.5055,707.9487,0.1336669921875,0.1068115234375,0.9788818359375,4.942169189453125,-2.609405517578125,0.441131591796875,1.0,1.0,1.0,1.0,1.0,45.0,
2023-09-09 23:56:53.527,1.2547832,0.3444248,0.2788944,1.2180187,0.83787096,0.23121314,-0.24732223,0.84400785,1.029087,0.16654484,0.29656717,0.5371458,0.2568629,-0.13816214,-0.19830996,0.1765392,-0.2362768,-0.5434924,-0.54523814,-0.40270275,787.72894,795.78754,794.57874,789.34064,637.03296,0.1336669921875,0.1068115234375,0.9788818359375,4.942169189453125,-2.609405517578125,0.441131591796875,1.0,1.0,1.0,1.0,1.0,45.0,
2023-09-09 23:56:53.566,1.2547832,0.3444248,0.2788944,1.2180187,0.83787096,0.23121314,-0.24732223,0.84400785,1.029087,0.16654484,0.29656717,0.5371458,0.2568629,-0.13816214,-0.19830996,0.1765392,-0.2362768,-0.5434924,-0.54523814,-0.40270275,815.12823,799.011,796.99634,812.71063,664.43225,0.13116455078125,0.10357666015625,0.98175048828125,4.523468017578125,-2.99072265625,0.052337646484375,1.0,1.0,1.0,1.0,1.0,45.0,
2023-09-09 23:56:53.605,1.2547832,0.3444248,0.2788944,1.2180187,0.83787096,0.23121314,-0.24732223,0.84400785,1.029087,0.16654484,0.29656717,0.5371458,0.2568629,-0.13816214,-0.19830996,0.1765392,-0.2362768,-0.5434924,-0.54523814,-0.40270275,803.8461,783.69965,795.78754,799.81683,770.80585,0.133544921875,0.1038818359375,0.97332763671875,4.747772216796875,-3.013153076171875,-0.73272705078125,1.0,1.0,1.0,1.0,1.0,45.0,
2023-09-09 23:56:53.607,1.2804192,0.35344562,0.2897917,1.2180187,0.9200263,0.22070464,-0.26455596,0.84400785,1.030094,0.17131093,0.30220178,0.5371458,0.31649542,-0.12013559,-0.16515546,0.1765392,-0.15219796,-0.53646713,-0.5529151,-0.40270275,796.5934,790.14655,796.1905,791.3553,743.00366,0.133544921875,0.1038818359375,0.97332763671875,4.747772216796875,-3.013153076171875,-0.73272705078125,1.0,1.0,1.0,1.0,1.0,45.0,
2023-09-09 23:56:53.657,1.2804192,0.35344562,0.2897917,1.2180187,0.9200263,0.22070464,-0.26455596,0.84400785,1.030094,0.17131093,0.30220178,0.5371458,0.31649542,-0.12013559,-0.16515546,0.1765392,-0.15219796,-0.53646713,-0.5529151,-0.40270275,779.67035,801.4286,802.6374,790.54944,643.0769,0.13250732421875,0.10516357421875,0.978271484375,4.448699951171875,-2.429962158203125,-0.500946044921875,1.0,1.0,1.0,1.0,1.0,45.0,
2023-09-09 23:56:53.734,1.2755264,0.352388,0.2946354,1.2180187,0.96491486,0.20682342,-0.26682135,0.84400785,1.0303576,0.22443135,0.31750232,0.5371458,0.34481505,-0.099175386,-0.12820408,0.1765392,-0.05563943,-0.5190761,-0.5553725,-0.40270275,821.1722,799.81683,808.2784,830.84247,953.3333,0.13250732421875,0.10516357421875,0.978271484375,4.448699951171875,-2.429962158203125,-0.500946044921875,1.0,1.0,1.0,1.0,1.0,45.0,
2023-09-09 23:56:53.770,1.2755264,0.352388,0.2946354,1.2180187,0.96491486,0.20682342,-0.26682135,0.84400785,1.0303576,0.22443135,0.31750232,0.5371458,0.34481505,-0.099175386,-0.12820408,0.1765392,-0.05563943,-0.5190761,-0.5553725,-0.40270275,781.28204,811.0989,790.9524,782.8938,746.63007,0.1356201171875,0.09832763671875,0.97509765625,5.196380615234375,-2.758941650390625,-0.28411865234375,1.0,1.0,1.0,1.0,1.0,45.0,
2023-09-09 23:56:53.830,1.2755264,0.352388,0.2946354,1.2180187,0.96491486,0.20682342,-0.26682135,0.84400785,1.0303576,0.22443135,0.31750232,0.5371458,0.34481505,-0.099175386,-0.12820408,0.1765392,-0.05563943,-0.5190761,-0.5553725,-0.40270275,747.8388,801.8315,790.9524,772.4176,730.9158,0.13287353515625,0.1021728515625,0.97650146484375,5.263671875,-2.452392578125,0.097198486328125,1.0,1.0,1.0,1.0,1.0,45.0,
2023-09-09 23:56:53.835,1.2313792,0.3585515,0.2955244,1.2180187,0.9880875,0.19181685,-0.23917338,0.84400785,1.0303576,0.27522996,0.3686645,0.5371458,0.3588499,-0.07978244,-0.093238726,0.1765392,0.033851486,-0.50204706,-0.5530723,-0.40270275,804.65204,808.68134,788.93774,799.41394,686.5934,0.13287353515625,0.1021728515625,0.97650146484375,5.263671875,-2.452392578125,0.097198486328125,1.0,1.0,1.0,1.0,1.0,45.0,
2023-09-09 23:56:53.868,1.2313792,0.3585515,0.2955244,1.2180187,0.9880875,0.19181685,-0.23917338,0.84400785,1.0303576,0.27522996,0.3686645,0.5371458,0.3588499,-0.07978244,-0.093238726,0.1765392,0.033851486,-0.50204706,-0.5530723,-0.40270275,815.12823,807.8755,795.38464,808.68134,812.71063,0.13592529296875,0.10406494140625,0.97845458984375,4.643096923828125,-2.669219970703125,0.2093505859375,1.0,1.0,1.0,1.0,1.0,45.0,
2023-09-09 23:56:53.907,1.2313792,0.3585515,0.2955244,1.2180187,0.9880875,0.19181685,-0.23917338,0.84400785,1.0303576,0.27522996,0.3686645,0.5371458,0.3588499,-0.07978244,-0.093238726,0.1765392,0.033851486,-0.50204706,-0.5530723,-0.40270275,800.2198,800.6227,796.99634,795.78754,762.3443,0.13232421875,0.104736328125,0.977783203125,5.0244140625,-2.998199462890625,-0.34393310546875,1.0,1.0,1.0,1.0,1.0,45.0,
2023-09-09 23:56:53.914,1.1485326,0.38074255,0.29690665,1.2180187,1.0177284,0.18106814,-0.18414547,0.84400785,1.0123141,0.28929645,0.40834233,0.5371458,0.38075158,-0.06259835,-0.0649381,0.1765392,0.10311759,-0.49033564,-0.54830515,-0.40270275,834.0659,801.4286,792.96704,809.0842,695.8608,0.13232421875,0.104736328125,0.977783203125,5.0244140625,-2.998199462890625,-0.34393310546875,1.0,1.0,1.0,1.0,1.0,45.0,
2023-09-09 23:56:53.982,1.1485326,0.38074255,0.29690665,1.2180187,1.0177284,0.18106814,-0.18414547,0.84400785,1.0123141,0.28929645,0.40834233,0.5371458,0.38075158,-0.06259835,-0.0649381,0.1765392,0.10311759,-0.49033564,-0.54830515,-0.40270275,827.619,797.8022,791.75824,818.3516,703.91943,0.13623046875,0.1036376953125,0.97686767578125,4.68048095703125,-3.087921142578125,-1.12152099609375,1.0,1.0,1.0,1.0,1.0,45.0,
2023-09-09 23:56:53.989,1.125563,0.42517284,0.3038519,1.2180187,1.0460355,0.17902538,-0.11483679,0.84400785,1.0123141,0.319206,0.4145294,0.5371458,0.3988604,-0.04638069,-0.042407885,0.1765392,0.101718225,-0.48218337,-0.54004574,-0.40270275,829.6337,801.4286,791.3553,815.12823,770.0,0.13623046875,0.1036376953125,0.97686767578125,4.68048095703125,-3.087921142578125,-1.12152099609375,1.0,1.0,1.0,1.0,1.0,45.0,
2023-09-09 23:56:54.033,1.125563,0.42517284,0.3038519,1.2180187,1.0460355,0.17902538,-0.11483679,0.84400785,1.0123141,0.319206,0.4145294,0.5371458,0.3988604,-0.04638069,-0.042407885,0.1765392,0.101718225,-0.48218337,-0.54004574,-0.40270275,805.4579,799.41394,790.9524,799.011,657.1795,0.13934326171875,0.102294921875,0.97430419921875,4.867401123046875,-2.67669677734375,-0.829925537109375,1.0,1.0,1.0,1.0,1.0,45.0,
2023-09-09 23:56:54.146,1.125563,0.42517284,0.3038519,1.2180187,1.0460355,0.17902538,-0.11483679,0.84400785,1.0123141,0.319206,0.4145294,0.5371458,0.3988604,-0.04638069,-0.042407885,0.1765392,0.101718225,-0.48218337,-0.54004574,-0.40270275,763.5531,788.1319,792.96704,778.46155,587.0696,0.1346435546875,0.10150146484375,0.97882080078125,4.807586669921875,-2.85614013671875,-0.710296630859375,1.0,1.0,1.0,1.0,1.0,45.0,
2023-09-09 23:56:54.157,1.125563,0.42517284,0.3038519,1.2180187,1.0460355,0.17902538,-0.11483679,0.84400785,1.0123141,0.319206,0.4145294,0.5371458,0.3988604,-0.04638069,-0.042407885,0.1765392,0.101718225,-0.48218337,-0.54004574,-0.40270275,830.4396,791.3553,791.75824,819.15753,691.8315,0.1368408203125,0.10302734375,0.9774169921875,4.8150634765625,-2.73651123046875,-0.94207763671875,1.0,1.0,1.0,1.0,1.0,45.0,
2023-09-09 23:56:54.157,1.1340224,0.48496938,0.3182328,0.9546858,1.0947357,0.18316877,-0.047090933,1.1764613,1.0201607,0.37240312,0.4145294,1.0488847,0.44369006,-0.028500827,-0.022496883,0.64818627,0.09837744,-0.47212374,-0.52325624,0.14507243,818.7546,793.36993,792.96704,815.12823,917.8755,0.1368408203125,0.10302734375,0.9774169921875,4.8150634765625,-2.73651123046875,-0.94207763671875,1.0,1.0,1.0,1.0,1.0,45.0,
2023-09-09 23:56:54.217,1.1340224,0.48496938,0.3182328,0.9546858,1.0947357,0.18316877,-0.047090933,1.1764613,1.0201607,0.37240312,0.4145294,1.0488847,0.44369006,-0.028500827,-0.022496883,0.64818627,0.09837744,-0.47212374,-0.52325624,0.14507243,776.04395,792.1612,791.75824,791.75824,879.59705,0.1378173828125,0.103515625,0.9749755859375,4.74029541015625,-2.1533203125,-1.016845703125,1.0,1.0,1.0,1.0,1.0,45.0,
2023-09-09 23:56:54.250,1.152492,0.54272765,0.33592832,0.99912125,1.1322163,0.17948417,0.0064110314,1.2283486,1.0247067,0.40650395,0.4145294,1.063352,0.48723269,-0.00849498,-0.006039427,0.7219351,0.092607565,-0.4576146,-0.4973666,0.1965259,794.17584,799.011,796.1905,803.8461,763.95605,0.1378173828125,0.103515625,0.9749755859375,4.74029541015625,-2.1533203125,-1.016845703125,1.0,1.0,1.0,1.0,1.0,45.0,
2023-09-09 23:56:54.264,1.152492,0.54272765,0.33592832,0.99912125,1.1322163,0.17948417,0.0064110314,1.2283486,1.0247067,0.40650395,0.4145294,1.063352,0.48723269,-0.00849498,-0.006039427,0.7219351,0.092607565,-0.4576146,-0.4973666,0.1965259,839.304,797.3993,801.02563,828.022,749.85345,0.13385009765625,0.11004638671875,0.98199462890625,4.792633056640625,-2.31781005859375,-0.0,1.0,1.0,1.0,1.0,1.0,45.0,
2023-09-09 23:56:54.295,1.152492,0.54272765,0.33592832,0.99912125,1.1322163,0.17948417,0.0064110314,1.2283486,1.0247067,0.40650395,0.4145294,1.063352,0.48723269,-0.00849498,-0.006039427,0.7219351,0.092607565,-0.4576146,-0.4973666,0.1965259,780.07324,796.5934,793.7729,778.86444,738.97437,0.13372802734375,0.1085205078125,0.97613525390625,4.14215087890625,-3.45428466796875,-0.6280517578125,1.0,1.0,1.0,1.0,1.0,45.0,
2023-09-09 23:56:54.298,1.1644335,0.5785083,0.34753466,1.0125462,1.143119,0.1510126,0.03961948,1.2368708,1.0276394,0.41942114,0.4156999,1.0649947,0.50878394,0.011238378,0.0020723925,0.75390977,0.07724559,-0.44172487,-0.4701254,0.22522888,783.69965,795.38464,791.3553,782.8938,711.5751,0.13372802734375,0.1085205078125,0.97613525390625,4.14215087890625,-3.45428466796875,-0.6280517578125,1.0,1.0,1.0,1.0,1.0,45.0,
2023-09-09 23:56:54.366,1.1644335,0.5785083,0.34753466,1.0125462,1.143119,0.1510126,0.03961948,1.2368708,1.0276394,0.41942114,0.4156999,1.0649947,0.50878394,0.011238378,0.0020723925,0.75390977,0.07724559,-0.44172487,-0.4701254,0.22522888,782.0879,796.5934,795.38464,787.72894,639.45056,0.1314697265625,0.10577392578125,0.97723388671875,4.044952392578125,-3.372039794921875,-1.7047119140625,1.0,1.0,1.0,1.0,1.0,45.0,
2023-09-09 23:56:54.400,1.1644335,0.5785083,0.34753466,1.0125462,1.143119,0.1510126,0.03961948,1.2368708,1.0276394,0.41942114,0.4156999,1.0649947,0.50878394,0.011238378,0.0020723925,0.75390977,0.07724559,-0.44172487,-0.4701254,0.22522888,794.17584,784.10254,794.57874,792.1612,691.02563,0.1385498046875,0.1024169921875,0.97540283203125,3.9178466796875,-3.349609375,-1.263580322265625,1.0,1.0,1.0,1.0,1.0,45.0,
2023-09-09 23:56:54.404,1.1601647,0.5896682,0.3425336,0.99731046,1.1287551,0.092251554,0.05513847,1.2124645,1.0295731,0.41942114,0.4159423,1.0649947,0.5060357,0.024756648,0.00022672182,0.7457811,0.051691934,-0.42975074,-0.45154443,0.23071165,770.0,793.7729,795.78754,785.7143,780.4762,0.1385498046875,0.1024169921875,0.97540283203125,3.9178466796875,-3.349609375,-1.263580322265625,1.0,1.0,1.0,1.0,1.0,45.0,
2023-09-09 23:56:54.527,1.1601647,0.5896682,0.3425336,0.99731046,1.1287551,0.092251554,0.05513847,1.2124645,1.0295731,0.41942114,0.4159423,1.0649947,0.5060357,0.024756648,0.00022672182,0.7457811,0.051691934,-0.42975074,-0.45154443,0.23071165,792.96704,797.8022,801.4286,809.0842,637.03296,0.13287353515625,0.09710693359375,0.97454833984375,3.6785888671875,-3.15521240234375,-1.27105712890625,1.0,1.0,1.0,1.0,1.0,45.0,
2023-09-09 23:56:54.533,1.0291148,0.58297837,0.31958476,0.96519214,1.0739319,0.015106457,0.06328977,1.1737175,0.8385744,0.41660425,0.4159423,1.0649947,0.48442462,0.027297603,-0.007371385,0.7135541,0.011688337,-0.42436427,-0.44502905,0.21925911,762.3443,790.9524,795.38464,776.4469,989.59705,0.13287353515625,0.09710693359375,0.97454833984375,3.6785888671875,-3.15521240234375,-1.27105712890625,1.0,1.0,1.0,1.0,1.0,45.0,
2023-09-09 23:56:54.565,1.0291148,0.58297837,0.31958476,0.96519214,1.0739319,0.015106457,0.06328977,1.1737175,0.8385744,0.41660425,0.4159423,1.0649947,0.48442462,0.027297603,-0.007371385,0.7135541,0.011688337,-0.42436427,-0.44502905,0.21925911,826.0073,794.17584,796.99634,807.0696,689.41394,0.1400146484375,0.09783935546875,0.969970703125,4.269256591796875,-3.775787353515625,-0.37384033203125,1.0,1.0,1.0,1.0,1.0,45.0,
2023-09-09 23:56:54.594,1.0291148,0.58297837,0.31958476,0.96519214,1.0739319,0.015106457,0.06328977,1.1737175,0.8385744,0.41660425,0.4159423,1.0649947,0.48442462,0.027297603,-0.007371385,0.7135541,0.011688337,-0.42436427,-0.44502905,0.21925911,779.67035,791.3553,801.02563,789.7436,782.8938,0.14227294921875,0.10076904296875,0.98004150390625,4.53094482421875,-4.747772216796875,0.276641845703125,1.0,1.0,1.0,1.0,1.0,45.0,
2023-09-09 23:56:54.602,1.0045615,0.5665354,0.27752364,0.9266186,1.0466008,-0.054552205,0.070666164,1.1363443,0.8670157,0.41660425,0.41482344,1.0649947,0.467686,0.020492032,-0.014762372,0.675836,-0.015054945,-0.42337507,-0.44739977,0.19889717,768.7912,795.38464,790.9524,784.90845,835.6777,0.14227294921875,0.10076904296875,0.98004150390625,4.53094482421875,-4.747772216796875,0.276641845703125,1.0,1.0,1.0,1.0,1.0,45.0,
2023-09-09 23:56:54.632,1.0045615,0.5665354,0.27752364,0.9266186,1.0466008,-0.054552205,0.070666164,1.1363443,0.8670157,0.41660425,0.41482344,1.0649947,0.467686,0.020492032,-0.014762372,0.675836,-0.015054945,-0.42337507,-0.44739977,0.19889717,797.8022,798.60803,791.75824,798.20514,799.81683,0.14508056640625,0.1055908203125,0.977294921875,4.897308349609375,-4.2169189453125,0.28411865234375,1.0,1.0,1.0,1.0,1.0,45.0,
2023-09-09 23:56:54.699,1.0045615,0.5665354,0.27752364,0.9266186,1.0466008,-0.054552205,0.070666164,1.1363443,0.8670157,0.41660425,0.41482344,1.0649947,0.467686,0.020492032,-0.014762372,0.675836,-0.015054945,-0.42337507,-0.44739977,0.19889717,832.0513,804.65204,796.5934,820.3663,740.18317,0.14617919921875,0.099365234375,0.9759521484375,4.3365478515625,-4.284210205078125,0.35888671875,1.0,1.0,1.0,1.0,1.0,45.0,
2023-09-09 23:56:54.746,0.9790301,0.54438865,0.20991993,0.89048946,1.02799,-0.093279794,0.07608412,1.1063421,0.92369455,0.41725573,0.41482344,1.0663596,0.45675892,0.012002465,-0.020826725,0.6446238,-0.03126334,-0.4227046,-0.45285618,0.17605907,767.98535,803.0403,795.78754,782.0879,601.978,0.14617919921875,0.099365234375,0.9759521484375,4.3365478515625,-4.284210205078125,0.35888671875,1.0,1.0,1.0,1.0,1.0,45.0,
2023-09-09 23:56:54.784,0.9790301,0.54438865,0.20991993,0.89048946,1.02799,-0.093279794,0.07608412,1.1063421,0.92369455,0.41725573,0.41482344,1.0663596,0.45675892,0.012002465,-0.020826725,0.6446238,-0.03126334,-0.4227046,-0.45285618,0.17605907,801.4286,796.99634,790.9524,788.5348,643.8828,0.149658203125,0.09991455078125,0.9783935546875,3.955230712890625,-3.745880126953125,-1.308441162109375,1.0,1.0,1.0,1.0,1.0,45.0,
2023-09-09 23:56:54.850,0.9790301,0.54438865,0.20991993,0.89048946,1.02799,-0.093279794,0.07608412,1.1063421,0.92369455,0.41725573,0.41482344,1.0663596,0.45675892,0.012002465,-0.020826725,0.6446238,-0.03126334,-0.4227046,-0.45285618,0.17605907,809.4872,792.96704,792.96704,809.89014,743.8095,0.1512451171875,0.09210205078125,0.9783935546875,3.985137939453125,-2.73651123046875,-0.456085205078125,1.0,1.0,1.0,1.0,1.0,45.0,
2023-09-09 23:56:54.853,0.95845616,0.51697916,0.124881245,0.86133385,1.016219,-0.0981124,0.07679453,1.0829505,0.9547798,0.41725573,0.41482344,1.0737573,0.44837877,0.009288384,-0.028286109,0.62243855,-0.039253198,-0.42175663,-0.45656958,0.15623029,780.4762,799.81683,793.7729,785.31134,647.9121,0.1512451171875,0.09210205078125,0.9783935546875,3.985137939453125,-2.73651123046875,-0.456085205078125,1.0,1.0,1.0,1.0,1.0,45.0,
2023-09-09 23:56:54.885,0.95845616,0.51697916,0.124881245,0.86133385,1.016219,-0.0981124,0.07679453,1.0829505,0.9547798,0.41725573,0.41482344,1.0737573,0.44837877,0.009288384,-0.028286109,0.62243855,-0.039253198,-0.42175663,-0.45656958,0.15623029,765.9707,794.9817,799.41394,780.07324,683.36993,0.1456298828125,0.09320068359375,0.97943115234375,3.506622314453125,-4.344024658203125,0.83740234375,1.0,1.0,1.0,1.0,1.0,45.0,
2023-09-09 23:56:54.921,0.95845616,0.51697916,0.124881245,0.86133385,1.016219,-0.0981124,0.07679453,1.0829505,0.9547798,0.41725573,0.41482344,1.0737573,0.44837877,0.009288384,-0.028286109,0.62243855,-0.039253198,-0.42175663,-0.45656958,0.15623029,792.5641,798.60803,786.9231,792.1612,741.39197,0.1522216796875,0.10113525390625,0.9825439453125,0.231781005859375,-8.3441162109375,3.446807861328125,1.0,1.0,1.0,1.0,1.0,45.0,
2023-09-09 23:56:54.925,0.9405709,0.4927425,0.039318904,0.8358052,1.0052115,-0.08120731,0.07368237,1.0630152,0.9628542,0.41725573,0.41293892,1.0794797,0.43797904,0.012957411,-0.038479693,0.6080819,-0.04534593,-0.42077938,-0.4575677,0.14130643,758.315,810.696,806.26373,754.68866,771.6117,0.1522216796875,0.10113525390625,0.9825439453125,0.231781005859375,-8.3441162109375,3.446807861328125,1.0,1.0,1.0,1.0,1.0,45.0,
2023-09-09 23:56:55.018,0.9405709,0.4927425,0.039318904,0.8358052,1.0052115,-0.08120731,0.07368237,1.0630152,0.9628542,0.41725573,0.41293892,1.0794797,0.43797904,0.012957411,-0.038479693,0.6080819,-0.04534593,-0.42077938,-0.4575677,0.14130643,640.2564,830.4396,811.50183,635.42126,758.315,0.1331787109375,0.0931396484375,0.9603271484375,-2.429962158203125,-15.140533447265623,6.766510009765625,1.0,1.0,1.0,1.0,1.0,45.0,
2023-09-09 23:56:55.065,0.9405709,0.48849478,-0.015900657,0.8358052,1.0052115,-0.052812986,0.07204776,1.0630152,0.9628542,0.41725573,0.37770444,1.0794797,0.43797904,0.01873802,-0.049067847,0.6080819,-0.04534593,-0.41857925,-0.4552845,0.14130643,701.9048,824.7985,810.293,688.60803,984.35895,0.1331787109375,0.0931396484375,0.9603271484375,-2.429962158203125,-15.140533447265623,6.766510009765625,1.0,1.0,1.0,1.0,1.0,45.0,
2023-09-09 23:56:55.073,0.9405709,0.48849478,-0.015900657,0.8358052,1.0052115,-0.052812986,0.07204776,1.0630152,0.9628542,0.41725573,0.37770444,1.0794797,0.43797904,0.01873802,-0.049067847,0.6080819,-0.04534593,-0.41857925,-0.4552845,0.14130643,772.8205,807.47253,799.41394,762.3443,673.2967,0.1453857421875,0.07781982421875,0.95147705078125,-0.478515625,-17.248992919921875,9.40582275390625,1.0,1.0,1.0,1.0,1.0,45.0,
2023-09-09 23:56:55.109,0.9405709,0.48849478,-0.015900657,0.8358052,1.0052115,-0.052812986,0.07204776,1.0630152,0.9628542,0.41725573,0.37770444,1.0794797,0.43797904,0.01873802,-0.049067847,0.6080819,-0.04534593,-0.41857925,-0.4552845,0.14130643,885.2381,798.60803,772.01465,880.40295,1010.54944,0.18408203125,0.0660400390625,0.96051025390625,-2.160797119140625,-24.621124267578125,13.989105224609377,1.0,1.0,1.0,1.0,1.0,45.0,
2023-09-09 23:56:55.114,0.93940437,0.5164609,-0.008048056,0.8358052,1.0092229,-0.011172941,0.08554452,1.0630152,0.9628542,0.41725573,0.30899125,1.0794797,0.43879968,0.025590574,-0.05623831,0.6080819,-0.04892009,-0.4098995,-0.44927764,0.14130643,906.99634,790.54944,772.4176,892.49084,747.4359,0.18408203125,0.0660400390625,0.96051025390625,-2.160797119140625,-24.621124267578125,13.989105224609377,1.0,1.0,1.0,1.0,1.0,45.0,
2023-09-09 23:56:55.160,0.93940437,0.5164609,-0.008048056,0.8358052,1.0092229,-0.011172941,0.08554452,1.0630152,0.9628542,0.41725573,0.30899125,1.0794797,0.43879968,0.025590574,-0.05623831,0.6080819,-0.04892009,-0.4098995,-0.44927764,0.14130643,842.9304,795.38464,774.0293,860.65936,589.0842,0.21417236328125,0.05419921875,0.9705810546875,-3.312225341796875,-23.13323974609375,15.454559326171877,1.0,1.0,1.0,1.0,1.0,45.0,
2023-09-09 23:56:55.199,0.93940437,0.5164609,-0.008048056,0.8358052,1.0092229,-0.011172941,0.08554452,1.0630152,0.9628542,0.41725573,0.30899125,1.0794797,0.43879968,0.025590574,-0.05623831,0.6080819,-0.04892009,-0.4098995,-0.44927764,0.14130643,860.65936,790.14655,773.22345,857.8388,639.0476,0.2568359375,0.05291748046875,1.0052490234375,-8.2244873046875,-17.77984619140625,11.5142822265625,1.0,1.0,1.0,1.0,1.0,45.0,
2023-09-09 23:56:55.205,0.952205,0.6016284,0.12746789,0.8358052,1.0203172,0.059767246,0.14290662,1.0630152,0.9628542,0.41725573,0.22400975,1.0794797,0.44694328,0.03712388,-0.057295393,0.6080819,-0.06495815,-0.39070815,-0.4389486,0.14130643,856.2271,800.6227,777.6557,834.0659,747.8388,0.2568359375,0.05291748046875,1.0052490234375,-8.2244873046875,-17.77984619140625,11.5142822265625,1.0,1.0,1.0,1.0,1.0,45.0,
2023-09-09 23:56:55.325,0.952205,0.6016284,0.12746789,0.8358052,1.0203172,0.059767246,0.14290662,1.0630152,0.9628542,0.41725573,0.22400975,1.0794797,0.44694328,0.03712388,-0.057295393,0.6080819,-0.06495815,-0.39070815,-0.4389486,0.14130643,784.90845,798.60803,778.86444,792.96704,661.6117,0.25,0.03375244140625,0.96209716796875,-14.213409423828123,-13.05450439453125,7.125396728515625,1.0,1.0,1.0,1.0,1.0,45.0,
2023-09-09 23:56:55.364,0.952205,0.6016284,0.12746789,0.8358052,1.0203172,0.059767246,0.14290662,1.0630152,0.9628542,0.41725573,0.22400975,1.0794797,0.44694328,0.03712388,-0.057295393,0.6080819,-0.06495815,-0.39070815,-0.4389486,0.14130643,838.0952,797.8022,788.1319,815.9341,736.55676,0.2322998046875,0.002197265625,0.92449951171875,-14.01153564453125,-11.0955810546875,2.893524169921875,1.0,1.0,1.0,1.0,1.0,45.0,
2023-09-09 23:56:55.365,0.97169846,0.7338909,0.39734912,0.84541273,1.0346632,0.16226436,0.26682332,1.0753839,0.9628542,0.41721088,0.14543928,1.0769305,0.4613272,0.055362135,-0.054137312,0.6194267,-0.09117776,-0.36566457,-0.42456356,0.150887,845.34796,798.60803,788.93774,828.022,811.9048,0.2322998046875,0.002197265625,0.92449951171875,-14.01153564453125,-11.0955810546875,2.893524169921875,1.0,1.0,1.0,1.0,1.0,45.0,
2023-09-09 23:56:55.409,0.97169846,0.7338909,0.39734912,0.84541273,1.0346632,0.16226436,0.26682332,1.0753839,0.9628542,0.41721088,0.14543928,1.0769305,0.4613272,0.055362135,-0.054137312,0.6194267,-0.09117776,-0.36566457,-0.42456356,0.150887,823.1868,803.8461,782.0879,815.5311,796.5934,0.25152587890625,-0.02166748046875,0.91778564453125,-13.56292724609375,-14.811553955078123,-1.876678466796875,1.0,1.0,1.0,1.0,1.0,45.0,
2023-09-09 23:56:55.444,0.97169846,0.7338909,0.39734912,0.84541273,1.0346632,0.16226436,0.26682332,1.0753839,0.9628542,0.41721088,0.14543928,1.0769305,0.4613272,0.055362135,-0.054137312,0.6194267,-0.09117776,-0.36566457,-0.42456356,0.150887,772.01465,793.7729,788.1319,780.07324,707.9487,0.28173828125,-0.054443359375,0.92120361328125,-8.605804443359375,-16.277008056640625,-5.86181640625,1.0,1.0,1.0,1.0,1.0,45.0,
2023-09-09 23:56:55.446,0.98835915,0.8673454,0.6776695,0.8436944,1.0418811,0.26167005,0.41351923,1.0785233,0.9628542,0.41702095,0.13275898,1.0593457,0.4753609,0.07656273,-0.05201669,0.62946796,-0.12078699,-0.3446696,-0.41072714,0.15996633,815.5311,797.8022,786.9231,807.47253,952.52747,0.28173828125,-0.054443359375,0.92120361328125,-8.605804443359375,-16.277008056640625,-5.86181640625,1.0,1.0,1.0,1.0,1.0,45.0,
2023-09-09 23:56:55.489,0.98835915,0.8673454,0.6776695,0.8436944,1.0418811,0.26167005,0.41351923,1.0785233,0.9628542,0.41702095,0.13275898,1.0593457,0.4753609,0.07656273,-0.05201669,0.62946796,-0.12078699,-0.3446696,-0.41072714,0.15996633,819.15753,795.78754,789.34064,796.5934,716.0073,0.3221435546875,-0.05950927734375,0.93310546875,-0.6878662109375,-13.196563720703123,-8.35906982421875,1.0,1.0,1.0,1.0,1.0,45.0,
2023-09-09 23:56:55.558,0.9884042,0.96689266,0.8837925,0.82036394,1.0257505,0.33150178,0.52928054,1.0559523,0.9572545,0.39645025,0.15669358,1.0367208,0.474892,0.09351463,-0.056656767,0.6247104,-0.15294024,-0.33397323,-0.40493903,0.15909344,793.36993,784.90845,796.1905,795.38464,805.8608,0.3221435546875,-0.05950927734375,0.93310546875,-0.6878662109375,-13.196563720703123,-8.35906982421875,1.0,1.0,1.0,1.0,1.0,45.0,
2023-09-09 23:56:55.612,0.9884042,0.96689266,0.8837925,0.82036394,1.0257505,0.33150178,0.52928054,1.0559523,0.9572545,0.39645025,0.15669358,1.0367208,0.474892,0.09351463,-0.056656767,0.6247104,-0.15294024,-0.33397323,-0.40493903,0.15909344,763.1502,786.9231,790.14655,760.7326,586.6667,0.36407470703125,-0.0601806640625,0.94970703125,1.6448974609375,-10.086212158203123,-9.151611328125,1.0,1.0,1.0,1.0,1.0,45.0,
2023-09-09 23:56:55.647,0.9884042,0.96689266,0.8837925,0.82036394,1.0257505,0.33150178,0.52928054,1.0559523,0.9572545,0.39645025,0.15669358,1.0367208,0.474892,0.09351463,-0.056656767,0.6247104,-0.15294024,-0.33397323,-0.40493903,0.15909344,811.0989,786.9231,788.5348,809.0842,653.95605,0.363525390625,-0.0484619140625,0.94970703125,2.5421142578125,-4.000091552734375,-7.259979248046875,1.0,1.0,1.0,1.0,1.0,45.0,
2023-09-09 23:56:55.651,0.95687526,1.020011,1.0091797,0.7614103,0.9728046,0.36505032,0.59539753,0.992814,0.92078626,0.35881802,0.2148016,0.9822701,0.44811615,0.099741094,-0.067662746,0.58654964,-0.19276926,-0.3322596,-0.41369426,0.13941112,786.1172,793.7729,794.9817,790.9524,764.35895,0.363525390625,-0.0484619140625,0.94970703125,2.5421142578125,-4.000091552734375,-7.259979248046875,1.0,1.0,1.0,1.0,1.0,45.0,
2023-09-09 23:56:55.683,0.95687526,1.020011,1.0091797,0.7614103,0.9728046,0.36505032,0.59539753,0.992814,0.92078626,0.35881802,0.2148016,0.9822701,0.44811615,0.099741094,-0.067662746,0.58654964,-0.19276926,-0.3322596,-0.41369426,0.13941112,794.57874,790.9524,801.4286,804.65204,764.7619,0.352294921875,-0.05389404296875,0.96136474609375,1.65985107421875,-4.74029541015625,-5.86181640625,1.0,1.0,1.0,1.0,1.0,45.0,
2023-09-09 23:56:55.712,0.95687526,1.020011,1.0091797,0.7614103,0.9728046,0.36505032,0.59539753,0.992814,0.92078626,0.35881802,0.2148016,0.9822701,0.44811615,0.099741094,-0.067662746,0.58654964,-0.19276926,-0.3322596,-0.41369426,0.13941112,775.2381,785.31134,794.57874,792.1612,719.2308,0.354736328125,-0.0552978515625,0.9461669921875,1.3458251953125,-8.755340576171875,-6.041259765625,1.0,1.0,1.0,1.0,1.0,45.0,
2023-09-09 23:56:55.719,0.8880233,1.0345027,1.0741794,0.66441035,0.88518274,0.37212816,0.6196258,0.88848764,0.8625397,0.33537897,0.2496405,0.9059215,0.39365667,0.093274534,-0.076608196,0.50345314,-0.2418891,-0.33375767,-0.43707323,0.0970682,786.9231,792.5641,801.8315,801.4286,755.4945,0.354736328125,-0.0552978515625,0.9461669921875,1.3458251953125,-8.755340576171875,-6.041259765625,1.0,1.0,1.0,1.0,1.0,45.0,
2023-09-09 23:56:55.820,0.8880233,1.0345027,1.0741794,0.66441035,0.88518274,0.37212816,0.6196258,0.88848764,0.8625397,0.33537897,0.2496405,0.9059215,0.39365667,0.093274534,-0.076608196,0.50345314,-0.2418891,-0.33375767,-0.43707323,0.0970682,780.87915,775.64105,793.7729,793.7729,720.4396,0.3587646484375,-0.05303955078125,0.9053955078125,4.2767333984375,-12.478790283203123,-6.153411865234375,1.0,1.0,1.0,1.0,1.0,45.0,
2023-09-09 23:56:55.828,0.7819878,1.0322851,1.1035326,0.5328199,0.79095405,0.3689583,0.6209276,0.76862395,0.8426348,0.27769375,0.2496405,0.85340625,0.3308056,0.07750235,-0.07355731,0.3869327,-0.27845782,-0.33315814,-0.46426654,0.037186135,764.7619,782.8938,801.4286,774.0293,899.7436,0.3587646484375,-0.05303955078125,0.9053955078125,4.2767333984375,-12.478790283203123,-6.153411865234375,1.0,1.0,1.0,1.0,1.0,45.0,
2023-09-09 23:56:55.872,0.7819878,1.0322851,1.1035326,0.5328199,0.79095405,0.3689583,0.6209276,0.76862395,0.8426348,0.27769375,0.2496405,0.85340625,0.3308056,0.07750235,-0.07355731,0.3869327,-0.27845782,-0.33315814,-0.46426654,0.037186135,775.64105,784.10254,775.2381,772.8205,592.3077,0.37237548828125,-0.0489501953125,0.9229736328125,6.616973876953125,-8.4039306640625,-6.901092529296875,1.0,1.0,1.0,1.0,1.0,45.0,
2023-09-09 23:56:55.913,0.7819878,1.0322851,1.1035326,0.5328199,0.79095405,0.3689583,0.6209276,0.76862395,0.8426348,0.27769375,0.2496405,0.85340625,0.3308056,0.07750235,-0.07355731,0.3869327,-0.27845782,-0.33315814,-0.46426654,0.037186135,819.15753,790.14655,784.10254,821.978,668.0586,0.37548828125,-0.04473876953125,0.91046142578125,8.321685791015625,-6.4599609375,-6.38519287109375,1.0,1.0,1.0,1.0,1.0,45.0,
2023-09-09 23:56:55.952,0.7819878,1.0322851,1.1035326,0.5328199,0.79095405,0.3689583,0.6209276,0.76862395,0.8426348,0.27769375,0.2496405,0.85340625,0.3308056,0.07750235,-0.07355731,0.3869327,-0.27845782,-0.33315814,-0.46426654,0.037186135,779.2674,788.93774,790.14655,786.9231,712.7839,0.37237548828125,-0.031982421875,0.90606689453125,9.532928466796877,-6.05621337890625,-5.5328369140625,1.0,1.0,1.0,1.0,1.0,45.0,
2023-09-09 23:56:55.953,0.66548747,1.0302185,1.1169587,0.40325284,0.74346125,0.36739653,0.6173007,0.69135684,0.831247,0.20122552,0.2496405,0.82325286,0.29350638,0.063616574,-0.05575793,0.28721267,-0.2760461,-0.32694528,-0.47053707,-0.026196824,761.53845,787.326,795.38464,774.43225,689.81683,0.37237548828125,-0.031982421875,0.90606689453125,9.532928466796877,-6.05621337890625,-5.5328369140625,1.0,1.0,1.0,1.0,1.0,45.0,
2023-09-09 23:56:56.004,0.66548747,1.0302185,1.1169587,0.40325284,0.74346125,0.36739653,0.6173007,0.69135684,0.831247,0.20122552,0.2496405,0.82325286,0.29350638,0.063616574,-0.05575793,0.28721267,-0.2760461,-0.32694528,-0.47053707,-0.026196824,779.2674,783.2967,796.99634,780.87915,593.5165,0.37408447265625,-0.03302001953125,0.93255615234375,12.261962890625,-5.81695556640625,-6.10107421875,1.0,1.0,1.0,1.0,1.0,45.0,
2023-09-09 23:56:56.090,0.5786832,1.0306863,1.1302279,0.3213561,0.76214945,0.36873335,0.61489797,0.6855721,0.8179688,0.16828258,0.2496405,0.7990619,0.29399318,0.06839124,-0.026015345,0.26150966,-0.23300046,-0.31044385,-0.43333367,-0.07566253,771.2088,788.1319,810.293,787.326,556.8498,0.37408447265625,-0.03302001953125,0.93255615234375,12.261962890625,-5.81695556640625,-6.10107421875,1.0,1.0,1.0,1.0,1.0,45.0,
2023-09-09 23:56:56.132,0.5786832,1.0306863,1.1302279,0.3213561,0.76214945,0.36873335,0.61489797,0.6855721,0.8179688,0.16828258,0.2496405,0.7990619,0.29399318,0.06839124,-0.026015345,0.26150966,-0.23300046,-0.31044385,-0.43333367,-0.07566253,778.46155,788.5348,809.89014,783.2967,680.14655,0.390869140625,-0.01104736328125,0.9266357421875,10.953521728515623,-3.506622314453125,-6.0113525390625,1.0,1.0,1.0,1.0,1.0,45.0,
2023-09-09 23:56:56.146,0.5786832,1.0306863,1.1302279,0.3213561,0.76214945,0.36873335,0.61489797,0.6855721,0.8179688,0.16828258,0.2496405,0.7990619,0.29399318,0.06839124,-0.026015345,0.26150966,-0.23300046,-0.31044385,-0.43333367,-0.07566253,782.0879,796.5934,806.26373,782.8938,648.315,0.38385009765625,-0.001220703125,0.9219970703125,9.607696533203123,-4.134674072265625,-1.592559814453125,1.0,1.0,1.0,1.0,1.0,45.0,
2023-09-09 23:56:56.150,0.5786832,1.0305547,1.145079,0.3213561,0.76214945,0.36991423,0.6156469,0.6855721,0.8179688,0.20046869,0.2496405,0.7990619,0.29399318,0.09936906,0.012413068,0.26150966,-0.23300046,-0.28145823,-0.35940778,-0.07566253,778.0586,794.17584,798.20514,784.10254,679.7436,0.38385009765625,-0.001220703125,0.9219970703125,9.607696533203123,-4.134674072265625,-1.592559814453125,1.0,1.0,1.0,1.0,1.0,45.0,
2023-09-09 23:56:56.202,0.5786832,1.0305547,1.145079,0.3213561,0.76214945,0.36991423,0.6156469,0.6855721,0.8179688,0.20046869,0.2496405,0.7990619,0.29399318,0.09936906,0.012413068,0.26150966,-0.23300046,-0.28145823,-0.35940778,-0.07566253,826.4103,800.6227,801.4286,829.6337,859.85345,0.380859375,0.0025634765625,0.93072509765625,7.843170166015625,-5.106658935546875,1.136474609375,1.0,1.0,1.0,1.0,1.0,45.0,
2023-09-09 23:56:56.254,0.5786832,1.0305547,1.145079,0.3213561,0.76214945,0.36991423,0.6156469,0.6855721,0.8179688,0.20046869,0.2496405,0.7990619,0.29399318,0.09936906,0.012413068,0.26150966,-0.23300046,-0.28145823,-0.35940778,-0.07566253,779.67035,788.93774,805.8608,788.1319,677.72894,0.37615966796875,0.00396728515625,0.91912841796875,5.405731201171875,-5.9515380859375,2.3028564453125,1.0,1.0,1.0,1.0,1.0,45.0,
2023-09-09 23:56:56.258,0.5786832,1.029957,1.1643654,0.3213561,0.76214945,0.36640903,0.6219561,0.6855721,0.8179688,0.244826,0.2496405,0.7990619,0.29399318,0.14375523,0.05497398,0.26150966,-0.23300046,-0.2461492,-0.28027853,-0.07566253,825.2015,819.9634,819.9634,829.6337,998.86444,0.37615966796875,0.00396728515625,0.91912841796875,5.405731201171875,-5.9515380859375,2.3028564453125,1.0,1.0,1.0,1.0,1.0,45.0,
2023-09-09 23:56:56.348,0.5786832,1.029957,1.1643654,0.3213561,0.76214945,0.36640903,0.6219561,0.6855721,0.8179688,0.244826,0.2496405,0.7990619,0.29399318,0.14375523,0.05497398,0.26150966,-0.23300046,-0.2461492,-0.28027853,-0.07566253,828.4249,806.26373,803.8461,823.9927,747.4359,0.37689208984375,-0.0035400390625,0.92071533203125,4.493560791015625,-4.628143310546875,1.218719482421875,1.0,1.0,1.0,1.0,1.0,45.0,
2023-09-09 23:56:56.358,0.5786832,1.0324142,1.1917487,0.3213561,0.76214945,0.3577268,0.6346787,0.6855721,0.8179688,0.23882586,0.2496405,0.7990619,0.29399318,0.18114984,0.09354258,0.26150966,-0.23300046,-0.21482293,-0.22049719,-0.07566253,812.3077,792.1612,793.36993,798.20514,922.3077,0.37689208984375,-0.0035400390625,0.92071533203125,4.493560791015625,-4.628143310546875,1.218719482421875,1.0,1.0,1.0,1.0,1.0,45.0,
2023-09-09 23:56:56.414,0.5786832,1.0324142,1.1917487,0.3213561,0.76214945,0.3577268,0.6346787,0.6855721,0.8179688,0.23882586,0.2496405,0.7990619,0.29399318,0.18114984,0.09354258,0.26150966,-0.23300046,-0.21482293,-0.22049719,-0.07566253,755.09155,785.31134,791.3553,766.3736,601.978,0.38134765625,-0.0028076171875,0.91571044921875,4.725341796875,-1.65985107421875,-0.83740234375,1.0,1.0,1.0,1.0,1.0,45.0,
2023-09-09 23:56:56.457,0.5786832,1.0324142,1.1917487,0.3213561,0.76214945,0.3577268,0.6346787,0.6855721,0.8179688,0.23882586,0.2496405,0.7990619,0.29399318,0.18114984,0.09354258,0.26150966,-0.23300046,-0.21482293,-0.22049719,-0.07566253,784.90845,788.93774,782.8938,788.1319,670.4762,0.3765869140625,-0.0008544921875,0.91107177734375,4.9945068359375,-0.91217041015625,-1.084136962890625,1.0,1.0,1.0,1.0,1.0,45.0,
2023-09-09 23:56:56.463,0.5786832,1.0372958,1.2209606,0.3213561,0.76214945,0.35241514,0.66072947,0.6855721,0.8179688,0.24226372,0.2496405,0.7990619,0.29399318,0.20353925,0.112864435,0.26150966,-0.23300046,-0.19213161,-0.20399038,-0.07566253,818.3516,794.17584,789.7436,818.7546,711.1722,0.3765869140625,-0.0008544921875,0.91107177734375,4.9945068359375,-0.91217041015625,-1.084136962890625,1.0,1.0,1.0,1.0,1.0,45.0,
2023-09-09 23:56:56.468,0.5786832,1.0372958,1.2209606,0.3213561,0.76214945,0.35241514,0.66072947,0.6855721,0.8179688,0.24226372,0.2496405,0.7990619,0.29399318,0.20353925,0.112864435,0.26150966,-0.23300046,-0.19213161,-0.20399038,-0.07566253,815.9341,795.38464,790.9524,816.337,791.75824,0.37554931640625,-0.0067138671875,0.924072265625,5.84686279296875,-0.777587890625,0.28411865234375,1.0,1.0,1.0,1.0,1.0,45.0,
2023-09-09 23:56:56.539,0.5786832,1.0372958,1.2209606,0.3213561,0.76214945,0.35241514,0.66072947,0.6855721,0.8179688,0.24226372,0.2496405,0.7990619,0.29399318,0.20353925,0.112864435,0.26150966,-0.23300046,-0.19213161,-0.20399038,-0.07566253,770.80585,787.326,796.1905,786.1172,908.20514,0.381103515625,-0.00372314453125,0.9124755859375,5.72723388671875,-0.560760498046875,-0.500946044921875,1.0,1.0,1.0,1.0,1.0,45.0,
2023-09-09 23:56:56.568,0.5786832,1.0459607,1.2521199,0.3213561,0.76214945,0.36711162,0.69038373,0.6855721,0.8179688,0.29686266,0.2496405,0.7990619,0.29399318,0.21801761,0.13092044,0.26150966,-0.23300046,-0.17564274,-0.18523753,-0.07566253,827.2161,795.78754,794.57874,807.0696,811.50183,0.381103515625,-0.00372314453125,0.9124755859375,5.72723388671875,-0.560760498046875,-0.500946044921875,1.0,1.0,1.0,1.0,1.0,45.0,
2023-09-09 23:56:56.619,0.5786832,1.0459607,1.2521199,0.3213561,0.76214945,0.36711162,0.69038373,0.6855721,0.8179688,0.29686266,0.2496405,0.7990619,0.29399318,0.21801761,0.13092044,0.26150966,-0.23300046,-0.17564274,-0.18523753,-0.07566253,822.381,799.41394,796.99634,813.5165,748.6447,0.37451171875,0.00384521484375,0.91693115234375,6.093597412109375,-0.95703125,-0.3289794921875,1.0,1.0,1.0,1.0,1.0,45.0,
2023-09-09 23:56:56.666,0.5786832,1.0459607,1.2521199,0.3213561,0.76214945,0.36711162,0.69038373,0.6855721,0.8179688,0.29686266,0.2496405,0.7990619,0.29399318,0.21801761,0.13092044,0.26150966,-0.23300046,-0.17564274,-0.18523753,-0.07566253,765.56775,789.7436,796.1905,780.4762,595.12823,0.3673095703125,0.00274658203125,0.92596435546875,6.160888671875,-0.620574951171875,-0.231781005859375,1.0,1.0,1.0,1.0,1.0,45.0,
2023-09-09 23:56:56.668,0.74368733,1.0565133,1.283978,0.3213561,0.51416177,0.40779623,0.7188518,0.6855721,0.39964536,0.36487228,0.2496405,0.7990619,0.17350864,0.2329387,0.1439208,0.26150966,-0.16036095,-0.16401944,-0.16604446,-0.07566253,827.2161,794.57874,799.41394,833.2601,858.24176,0.3673095703125,0.00274658203125,0.92596435546875,6.160888671875,-0.620574951171875,-0.231781005859375,1.0,1.0,1.0,1.0,1.0,45.0,
2023-09-09 23:56:56.704,0.74368733,1.0565133,1.283978,0.3213561,0.51416177,0.40779623,0.7188518,0.6855721,0.39964536,0.36487228,0.2496405,0.7990619,0.17350864,0.2329387,0.1439208,0.26150966,-0.16036095,-0.16401944,-0.16604446,-0.07566253,820.3663,800.2198,793.7729,814.7253,600.3663,0.36456298828125,0.005126953125,0.918701171875,6.280517578125,0.067291259765625,-1.71966552734375,1.0,1.0,1.0,1.0,1.0,45.0,
2023-09-09 23:56:56.733,0.74368733,1.0565133,1.283978,0.3213561,0.51416177,0.40779623,0.7188518,0.6855721,0.39964536,0.36487228,0.2496405,0.7990619,0.17350864,0.2329387,0.1439208,0.26150966,-0.16036095,-0.16401944,-0.16604446,-0.07566253,810.293,797.8022,794.17584,815.5311,718.022,0.354736328125,0.0079345703125,0.921142578125,7.020721435546875,-1.1065673828125,-2.280426025390625,1.0,1.0,1.0,1.0,1.0,45.0,
2023-09-09 23:56:56.736,0.81448764,1.0517707,1.3101994,0.8917608,0.59414107,0.4531356,0.7340786,0.5492421,0.44440958,0.388539,0.24891941,0.12452752,0.2216667,0.2453374,0.14782219,0.2335336,-0.10877417,-0.16136847,-0.1492786,0.040210478,830.4396,797.8022,785.7143,823.9927,1011.75824,0.354736328125,0.0079345703125,0.921142578125,7.020721435546875,-1.1065673828125,-2.280426025390625,1.0,1.0,1.0,1.0,1.0,45.0,
2023-09-09 23:56:56.804,0.81448764,1.0517707,1.3101994,0.8917608,0.59414107,0.4531356,0.7340786,0.5492421,0.44440958,0.388539,0.24891941,0.12452752,0.2216667,0.2453374,0.14782219,0.2335336,-0.10877417,-0.16136847,-0.1492786,0.040210478,771.6117,793.7729,792.1612,780.87915,679.7436,0.35601806640625,0.0130615234375,0.91729736328125,7.095489501953125,-0.97198486328125,-3.147735595703125,1.0,1.0,1.0,1.0,1.0,45.0,
2023-09-09 23:56:56.841,0.8581282,1.0122249,1.301809,0.98188865,0.6325957,0.47321537,0.6994228,0.60444295,0.48787278,0.39390424,0.26913035,0.1376325,0.24866076,0.24642287,0.1379856,0.24347503,-0.088331245,-0.17117529,-0.15797786,0.0505968,801.4286,794.57874,796.99634,803.44324,842.52747,0.35601806640625,0.0130615234375,0.91729736328125,7.095489501953125,-0.97198486328125,-3.147735595703125,1.0,1.0,1.0,1.0,1.0,45.0,
2023-09-09 23:56:56.898,0.8581282,1.0122249,1.301809,0.98188865,0.6325957,0.47321537,0.6994228,0.60444295,0.48787278,0.39390424,0.26913035,0.1376325,0.24866076,0.24642287,0.1379856,0.24347503,-0.088331245,-0.17117529,-0.15797786,0.0505968,809.4872,795.78754,796.99634,817.5458,755.89746,0.358642578125,0.021240234375,0.92376708984375,7.2674560546875,-1.562652587890625,-1.89910888671875,1.0,1.0,1.0,1.0,1.0,45.0,
2023-09-09 23:56:56.932,0.8581282,1.0122249,1.301809,0.98188865,0.6325957,0.47321537,0.6994228,0.60444295,0.48787278,0.39390424,0.26913035,0.1376325,0.24866076,0.24642287,0.1379856,0.24347503,-0.088331245,-0.17117529,-0.15797786,0.0505968,774.83514,793.7729,797.8022,780.07324,653.5531,0.3568115234375,0.01983642578125,0.92218017578125,6.68426513671875,-0.814971923828125,-0.7476806640625,1.0,1.0,1.0,1.0,1.0,45.0,
2023-09-09 23:56:56.937,0.86788213,0.92855024,1.25124,1.0325913,0.6348138,0.4578298,0.60665166,0.6239018,0.5235907,0.39638177,0.26102123,0.13969624,0.2573547,0.23476899,0.124938466,0.2443166,-0.09013073,-0.1894892,-0.17210129,0.062182683,751.4652,792.96704,781.685,742.1978,703.91943,0.3568115234375,0.01983642578125,0.92218017578125,6.68426513671875,-0.814971923828125,-0.7476806640625,1.0,1.0,1.0,1.0,1.0,45.0,
2023-09-09 23:56:57.000,0.86788213,0.92855024,1.25124,1.0325913,0.6348138,0.4578298,0.60665166,0.6239018,0.5235907,0.39638177,0.26102123,0.13969624,0.2573547,0.23476899,0.124938466,0.2443166,-0.09013073,-0.1894892,-0.17210129,0.062182683,798.60803,804.65204,778.86444,776.8498,820.7692,0.356201171875,0.02252197265625,0.92547607421875,6.220703125,-1.6448974609375,-0.0,1.0,1.0,1.0,1.0,1.0,45.0,
2023-09-09 23:56:57.033,0.86788213,0.92855024,1.25124,1.0325913,0.6348138,0.4578298,0.60665166,0.6239018,0.5235907,0.39638177,0.26102123,0.13969624,0.2573547,0.23476899,0.124938466,0.2443166,-0.09013073,-0.1894892,-0.17210129,0.062182683,780.07324,791.3553,789.7436,787.72894,748.24176,0.361572265625,0.01959228515625,0.92083740234375,6.183319091796875,-0.515899658203125,-0.5084228515625,1.0,1.0,1.0,1.0,1.0,45.0,
2023-09-09 23:56:57.039,0.85043234,0.8078941,1.1539316,1.0478115,0.6133679,0.41870955,0.45928884,0.61932564,0.55481374,0.39638177,0.2040778,0.16692692,0.25918257,0.21794362,0.11816864,0.2376394,-0.09445512,-0.20712662,-0.18292111,0.07191758,782.0879,792.5641,796.5934,778.0586,658.7912,0.361572265625,0.01959228515625,0.92083740234375,6.183319091796875,-0.515899658203125,-0.5084228515625,1.0,1.0,1.0,1.0,1.0,45.0,
2023-09-09 23:56:57.139,0.85043234,0.8078941,1.1539316,1.0478115,0.6133679,0.41870955,0.45928884,0.61932564,0.55481374,0.39638177,0.2040778,0.16692692,0.25918257,0.21794362,0.11816864,0.2376394,-0.09445512,-0.20712662,-0.18292111,0.07191758,831.2454,794.57874,798.20514,831.2454,701.50183,0.35675048828125,0.022216796875,0.91888427734375,5.78704833984375,1.6748046875,-2.0635986328125,1.0,1.0,1.0,1.0,1.0,45.0,
2023-09-09 23:56:57.192,0.85043234,0.8078941,1.1539316,1.0478115,0.6133679,0.41870955,0.45928884,0.61932564,0.55481374,0.39638177,0.2040778,0.16692692,0.25918257,0.21794362,0.11816864,0.2376394,-0.09445512,-0.20712662,-0.18292111,0.07191758,801.4286,804.65204,794.17584,803.0403,702.71063,0.35321044921875,0.01788330078125,0.92822265625,6.280517578125,4.246826171875,-3.9178466796875,1.0,1.0,1.0,1.0,1.0,45.0,
2023-09-09 23:56:57.193,0.82317317,0.6843283,1.0323118,1.0503906,0.5914693,0.38126183,0.29658797,0.6181858,0.5783304,0.39638177,0.17388545,0.31748176,0.26303107,0.20435615,0.12060747,0.23939212,-0.09151492,-0.21777818,-0.18115516,0.0874955,761.13556,811.0989,779.2674,759.92676,650.32965,0.35321044921875,0.01788330078125,0.92822265625,6.280517578125,4.246826171875,-3.9178466796875,1.0,1.0,1.0,1.0,1.0,45.0,
2023-09-09 23:56:57.252,0.82317317,0.6843283,1.0323118,1.0503906,0.5914693,0.38126183,0.29658797,0.6181858,0.5783304,0.39638177,0.17388545,0.31748176,0.26303107,0.20435615,0.12060747,0.23939212,-0.09151492,-0.21777818,-0.18115516,0.0874955,779.2674,797.8022,790.9524,787.326,652.74725,0.3494873046875,0.0279541015625,0.94580078125,7.274932861328125,7.110443115234375,-3.63372802734375,1.0,1.0,1.0,1.0,1.0,45.0,
2023-09-09 23:56:57.289,0.82317317,0.6843283,1.0323118,1.0503906,0.5914693,0.38126183,0.29658797,0.6181858,0.5783304,0.39638177,0.17388545,0.31748176,0.26303107,0.20435615,0.12060747,0.23939212,-0.09151492,-0.21777818,-0.18115516,0.0874955,833.663,800.6227,793.36993,828.8278,910.6227,0.3370361328125,0.03369140625,0.92755126953125,7.334747314453125,7.663726806640625,-2.908477783203125,1.0,1.0,1.0,1.0,1.0,45.0,
2023-09-09 23:56:57.292,0.8039198,0.603129,0.92696965,1.0534903,0.59632236,0.36328134,0.19773595,0.6477948,0.59109205,0.3929734,0.17002365,0.559348,0.27491248,0.19587746,0.12617482,0.26833066,-0.0799153,-0.22172737,-0.1640821,0.11756615,761.9414,794.9817,791.3553,776.8498,671.28204,0.3370361328125,0.03369140625,0.92755126953125,7.334747314453125,7.663726806640625,-2.908477783203125,1.0,1.0,1.0,1.0,1.0,45.0,
2023-09-09 23:56:57.323,0.8039198,0.603129,0.92696965,1.0534903,0.59632236,0.36328134,0.19773595,0.6477948,0.59109205,0.3929734,0.17002365,0.559348,0.27491248,0.19587746,0.12617482,0.26833066,-0.0799153,-0.22172737,-0.1640821,0.11756615,803.0403,792.96704,791.75824,794.17584,760.32965,0.31256103515625,0.03253173828125,0.93353271484375,7.095489501953125,3.970184326171875,-1.83929443359375,1.0,1.0,1.0,1.0,1.0,45.0,
2023-09-09 23:56:57.361,0.8023815,0.5633416,0.8638335,1.059006,0.63250065,0.36113578,0.19511166,0.703205,0.61356527,0.36330834,0.14154752,0.77222353,0.29532132,0.18973523,0.12808761,0.3194256,-0.06608536,-0.22137856,-0.1387369,0.15473635,780.87915,801.8315,799.41394,797.8022,606.4103,0.31256103515625,0.03253173828125,0.93353271484375,7.095489501953125,3.970184326171875,-1.83929443359375,1.0,1.0,1.0,1.0,1.0,45.0,
2023-09-09 23:56:57.411,0.8023815,0.5633416,0.8638335,1.059006,0.63250065,0.36113578,0.19511166,0.703205,0.61356527,0.36330834,0.14154752,0.77222353,0.29532132,0.18973523,0.12808761,0.3194256,-0.06608536,-0.22137856,-0.1387369,0.15473635,828.8278,799.011,795.38464,825.6044,706.337,0.3133544921875,0.04058837890625,0.94580078125,6.362762451171875,1.248626708984375,0.07476806640625,1.0,1.0,1.0,1.0,1.0,45.0,
2023-09-09 23:56:57.482,0.8023815,0.5633416,0.8638335,1.059006,0.63250065,0.36113578,0.19511166,0.703205,0.61356527,0.36330834,0.14154752,0.77222353,0.29532132,0.18973523,0.12808761,0.3194256,-0.06608536,-0.22137856,-0.1387369,0.15473635,786.9231,803.8461,796.5934,786.9231,670.4762,0.30426025390625,0.03997802734375,0.93902587890625,5.689849853515625,-0.919647216796875,1.0467529296875,1.0,1.0,1.0,1.0,1.0,45.0,
2023-09-09 23:56:57.488,0.8163705,0.5351663,0.8338599,1.0680068,0.6776316,0.36542773,0.23504908,0.7564039,0.6405282,0.33242303,0.16610272,0.82191664,0.317615,0.18300144,0.12302761,0.36957777,-0.05773159,-0.22039284,-0.11749375,0.18535331,808.68134,807.47253,794.9817,805.4579,674.10254,0.30426025390625,0.03997802734375,0.93902587890625,5.689849853515625,-0.919647216796875,1.0467529296875,1.0,1.0,1.0,1.0,1.0,45.0,
2023-09-09 23:56:57.523,0.8163705,0.5351663,0.8338599,1.0680068,0.6776316,0.36542773,0.23504908,0.7564039,0.6405282,0.33242303,0.16610272,0.82191664,0.317615,0.18300144,0.12302761,0.36957777,-0.05773159,-0.22039284,-0.11749375,0.18535331,781.28204,785.31134,816.337,796.5934,551.2088,0.299072265625,0.04229736328125,0.942626953125,4.478607177734375,-3.790740966796875,1.36077880859375,1.0,1.0,1.0,1.0,1.0,45.0,
2023-09-09 23:56:57.562,0.8163705,0.5351663,0.8338599,1.0680068,0.6776316,0.36542773,0.23504908,0.7564039,0.6405282,0.33242303,0.16610272,0.82191664,0.317615,0.18300144,0.12302761,0.36957777,-0.05773159,-0.22039284,-0.11749375,0.18535331,830.4396,780.87915,804.65204,827.619,899.34064,0.30047607421875,0.04168701171875,0.93524169921875,2.773895263671875,-5.60760498046875,-0.201873779296875,1.0,1.0,1.0,1.0,1.0,45.0,
2023-09-09 23:56:57.570,0.82977617,0.5145836,0.8044177,1.0745921,0.7083314,0.37438458,0.27324942,0.7866534,0.65031344,0.3528246,0.18168569,0.82191664,0.3330247,0.17041317,0.1071662,0.40080374,-0.056133848,-0.22502436,-0.11078851,0.20051824,801.02563,794.57874,805.4579,816.7399,977.1062,0.30047607421875,0.04168701171875,0.93524169921875,2.773895263671875,-5.60760498046875,-0.201873779296875,1.0,1.0,1.0,1.0,1.0,45.0,
2023-09-09 23:56:57.644,0.82977617,0.5145836,0.8044177,1.0745921,0.7083314,0.37438458,0.27324942,0.7866534,0.65031344,0.3528246,0.18168569,0.82191664,0.3330247,0.17041317,0.1071662,0.40080374,-0.056133848,-0.22502436,-0.11078851,0.20051824,788.1319,798.60803,803.8461,799.41394,641.8681,0.29949951171875,0.03619384765625,0.93408203125,2.953338623046875,-3.96270751953125,-2.280426025390625,1.0,1.0,1.0,1.0,1.0,45.0,
2023-09-09 23:56:57.651,0.83059764,0.5098173,0.7683889,1.0745921,0.71796614,0.38836125,0.2958601,0.7866534,0.65566146,0.40688014,0.19109012,0.82191664,0.33829382,0.14581823,0.07837377,0.40080374,-0.057423025,-0.23969467,-0.1227372,0.20051824,819.9634,796.5934,798.60803,813.5165,707.9487,0.29949951171875,0.03619384765625,0.93408203125,2.953338623046875,-3.96270751953125,-2.280426025390625,1.0,1.0,1.0,1.0,1.0,45.0,
2023-09-09 23:56:57.680,0.83059764,0.5098173,0.7683889,1.0745921,0.71796614,0.38836125,0.2958601,0.7866534,0.65566146,0.40688014,0.19109012,0.82191664,0.33829382,0.14581823,0.07837377,0.40080374,-0.057423025,-0.23969467,-0.1227372,0.20051824,828.022,801.02563,795.38464,828.4249,793.7729,0.32135009765625,0.03375244140625,0.93536376953125,3.985137939453125,-3.2000732421875,-4.373931884765625,1.0,1.0,1.0,1.0,1.0,45.0,
2023-09-09 23:56:57.773,0.83059764,0.5098173,0.7683889,1.0745921,0.71796614,0.38836125,0.2958601,0.7866534,0.65566146,0.40688014,0.19109012,0.82191664,0.33829382,0.14581823,0.07837377,0.40080374,-0.057423025,-0.23969467,-0.1227372,0.20051824,766.77655,791.75824,791.75824,778.86444,699.89014,0.3243408203125,0.03076171875,0.94415283203125,3.72344970703125,-3.2000732421875,-3.357086181640625,1.0,1.0,1.0,1.0,1.0,45.0,
2023-09-09 23:56:57.808,0.83059764,0.5098173,0.7683889,1.0745921,0.71796614,0.38836125,0.2958601,0.7866534,0.65566146,0.40688014,0.19109012,0.82191664,0.33829382,0.14581823,0.07837377,0.40080374,-0.057423025,-0.23969467,-0.1227372,0.20051824,774.0293,808.2784,781.28204,775.2381,657.5824,0.32110595703125,0.03082275390625,0.93780517578125,3.7384033203125,-2.220611572265625,-0.814971923828125,1.0,1.0,1.0,1.0,1.0,45.0,
2023-09-09 23:56:57.810,0.82095593,0.52176726,0.7210523,1.0745921,0.7114858,0.4104521,0.31091052,0.7866534,0.65566146,0.47329277,0.27804166,0.82191664,0.33599234,0.11030122,0.041921232,0.40080374,-0.052836947,-0.259691,-0.14827508,0.20051824,809.4872,816.337,778.0586,797.8022,758.71796,0.32110595703125,0.03082275390625,0.93780517578125,3.7384033203125,-2.220611572265625,-0.814971923828125,1.0,1.0,1.0,1.0,1.0,45.0,
2023-09-09 23:56:57.856,0.82095593,0.52176726,0.7210523,1.0745921,0.7114858,0.4104521,0.31091052,0.7866534,0.65566146,0.47329277,0.27804166,0.82191664,0.33599234,0.11030122,0.041921232,0.40080374,-0.052836947,-0.259691,-0.14827508,0.20051824,823.1868,798.20514,782.0879,813.5165,749.85345,0.31976318359375,0.0267333984375,0.93023681640625,3.416900634765625,-2.983245849609375,-0.411224365234375,1.0,1.0,1.0,1.0,1.0,45.0,
2023-09-09 23:56:57.900,0.8124916,0.54046565,0.65299064,1.0745921,0.7166864,0.44082478,0.3289758,0.7866534,0.595634,0.5392271,0.46455026,0.82191664,0.34322432,0.07583935,0.012625906,0.40080374,-0.026956506,-0.2741351,-0.1763942,0.20051824,830.0366,807.8755,788.5348,816.7399,767.1795,0.31976318359375,0.0267333984375,0.93023681640625,3.416900634765625,-2.983245849609375,-0.411224365234375,1.0,1.0,1.0,1.0,1.0,45.0,
2023-09-09 23:56:57.946,0.8124916,0.54046565,0.65299064,1.0745921,0.7166864,0.44082478,0.3289758,0.7866534,0.595634,0.5392271,0.46455026,0.82191664,0.34322432,0.07583935,0.012625906,0.40080374,-0.026956506,-0.2741351,-0.1763942,0.20051824,801.02563,794.9817,792.96704,801.8315,656.3736,0.324951171875,0.02691650390625,0.93792724609375,4.538421630859375,-2.325286865234375,0.43365478515625,1.0,1.0,1.0,1.0,1.0,45.0,
2023-09-09 23:56:57.998,0.8124916,0.54046565,0.65299064,1.0745921,0.7166864,0.44082478,0.3289758,0.7866534,0.595634,0.5392271,0.46455026,0.82191664,0.34322432,0.07583935,0.012625906,0.40080374,-0.026956506,-0.2741351,-0.1763942,0.20051824,826.0073,802.6374,789.34064,816.7399,807.0696,0.318115234375,0.03448486328125,0.9434814453125,4.897308349609375,-2.22808837890625,0.79254150390625,1.0,1.0,1.0,1.0,1.0,45.0,
2023-09-09 23:56:58.001,0.8026754,0.5612064,0.6945918,1.0805851,0.7130967,0.46998265,0.36215392,0.79619974,0.56145746,0.5826193,0.55554205,0.8248877,0.34734213,0.05487844,0.026809884,0.40229264,0.007361063,-0.27821448,-0.17361027,0.20659924,820.7692,793.7729,787.72894,816.7399,843.73627,0.318115234375,0.03448486328125,0.9434814453125,4.897308349609375,-2.22808837890625,0.79254150390625,1.0,1.0,1.0,1.0,1.0,45.0,
2023-09-09 23:56:58.034,0.8026754,0.5612064,0.6945918,1.0805851,0.7130967,0.46998265,0.36215392,0.79619974,0.56145746,0.5826193,0.55554205,0.8248877,0.34734213,0.05487844,0.026809884,0.40229264,0.007361063,-0.27821448,-0.17361027,0.20659924,777.6557,783.2967,811.0989,788.93774,803.44324,0.3182373046875,0.03228759765625,0.935546875,4.9945068359375,-1.502838134765625,-0.76263427734375,1.0,1.0,1.0,1.0,1.0,45.0,
2023-09-09 23:56:58.064,0.8026754,0.5612064,0.6945918,1.0805851,0.7130967,0.46998265,0.36215392,0.79619974,0.56145746,0.5826193,0.55554205,0.8248877,0.34734213,0.05487844,0.026809884,0.40229264,0.007361063,-0.27821448,-0.17361027,0.20659924,826.4103,793.36993,798.20514,834.87177,910.2198,0.31414794921875,0.03424072265625,0.93951416015625,5.03936767578125,-1.9140625,0.04486083984375,1.0,1.0,1.0,1.0,1.0,45.0,
2023-09-09 23:56:58.067,0.7866303,0.5584091,0.7375013,1.0817462,0.69922066,0.48057568,0.38151464,0.7949645,0.55895764,0.59081113,0.5673066,0.828464,0.3437821,0.044540454,0.042089444,0.40096822,0.03663377,-0.2776483,-0.17869318,0.21250623,828.022,797.3993,796.99634,837.28937,1014.9817,0.31414794921875,0.03424072265625,0.93951416015625,5.03936767578125,-1.9140625,0.04486083984375,1.0,1.0,1.0,1.0,1.0,45.0,
2023-09-09 23:56:58.167,0.7866303,0.5584091,0.7375013,1.0817462,0.69922066,0.48057568,0.38151464,0.7949645,0.55895764,0.59081113,0.5673066,0.828464,0.3437821,0.044540454,0.042089444,0.40096822,0.03663377,-0.2776483,-0.17869318,0.21250623,767.98535,786.1172,799.81683,775.2381,638.24176,0.310791015625,0.03326416015625,0.9378662109375,4.18701171875,-1.77947998046875,0.082244873046875,1.0,1.0,1.0,1.0,1.0,45.0,
2023-09-09 23:56:58.172,0.7579891,0.52286863,0.7741308,1.0758138,0.6743041,0.45657197,0.3849466,0.7831579,0.55811256,0.59081113,0.5713594,0.8330518,0.33011073,0.032093346,0.05618253,0.39810866,0.056669775,-0.2782912,-0.18435438,0.22412583,807.47253,792.96704,795.38464,812.3077,774.0293,0.310791015625,0.03326416015625,0.9378662109375,4.18701171875,-1.77947998046875,0.082244873046875,1.0,1.0,1.0,1.0,1.0,45.0,
2023-09-09 23:56:58.206,0.7579891,0.52286863,0.7741308,1.0758138,0.6743041,0.45657197,0.3849466,0.7831579,0.55811256,0.59081113,0.5713594,0.8330518,0.33011073,0.032093346,0.05618253,0.39810866,0.056669775,-0.2782912,-0.18435438,0.22412583,817.5458,796.99634,799.41394,805.4579,689.81683,0.31292724609375,0.0306396484375,0.93817138671875,3.87298583984375,-3.491668701171875,-0.5084228515625,1.0,1.0,1.0,1.0,1.0,45.0,
2023-09-09 23:56:58.257,0.7579891,0.52286863,0.7741308,1.0758138,0.6743041,0.45657197,0.3849466,0.7831579,0.55811256,0.59081113,0.5713594,0.8330518,0.33011073,0.032093346,0.05618253,0.39810866,0.056669775,-0.2782912,-0.18435438,0.22412583,817.5458,794.17584,795.78754,819.5604,770.80585,0.30938720703125,0.03509521484375,0.9359130859375,4.844970703125,-2.115936279296875,-0.082244873046875,1.0,1.0,1.0,1.0,1.0,45.0,
2023-09-09 23:56:58.264,0.7217168,0.46735686,0.7992099,1.06152,0.6450739,0.395811,0.37865585,0.7686773,0.55178744,0.5673691,0.57187104,0.8412477,0.30976385,0.013297598,0.06929774,0.39612088,0.06981517,-0.2774314,-0.18883593,0.24175291,785.7143,792.96704,786.1172,792.5641,701.50183,0.30938720703125,0.03509521484375,0.9359130859375,4.844970703125,-2.115936279296875,-0.082244873046875,1.0,1.0,1.0,1.0,1.0,45.0,
2023-09-09 23:56:58.307,0.7217168,0.46735686,0.7992099,1.06152,0.6450739,0.395811,0.37865585,0.7686773,0.55178744,0.5673691,0.57187104,0.8412477,0.30976385,0.013297598,0.06929774,0.39612088,0.06981517,-0.2774314,-0.18883593,0.24175291,758.71796,792.5641,783.69965,774.83514,736.9597,0.3114013671875,0.03326416015625,0.942138671875,4.844970703125,-2.923431396484375,-0.216827392578125,1.0,1.0,1.0,1.0,1.0,45.0,
2023-09-09 23:56:58.336,0.7217168,0.46735686,0.7992099,1.06152,0.6450739,0.395811,0.37865585,0.7686773,0.55178744,0.5673691,0.57187104,0.8412477,0.30976385,0.013297598,0.06929774,0.39612088,0.06981517,-0.2774314,-0.18883593,0.24175291,815.9341,798.20514,799.011,809.89014,698.2784,0.31689453125,0.0325927734375,0.94189453125,5.001983642578125,-3.3197021484375,0.097198486328125,1.0,1.0,1.0,1.0,1.0,45.0,
2023-09-09 23:56:58.410,0.6935651,0.4160309,0.77665555,1.042307,0.62576133,0.31689486,0.35598645,0.7644653,0.5486621,0.5409849,0.5640419,0.85045886,0.28886694,-0.004876242,0.08031731,0.39699522,0.081763476,-0.26896125,-0.18131258,0.2630226,773.6264,801.8315,793.7729,787.326,676.52014,0.31689453125,0.0325927734375,0.94189453125,5.001983642578125,-3.3197021484375,0.097198486328125,1.0,1.0,1.0,1.0,1.0,45.0,
2023-09-09 23:56:58.447,0.6935651,0.4160309,0.77665555,1.042307,0.62576133,0.31689486,0.35598645,0.7644653,0.5486621,0.5409849,0.5640419,0.85045886,0.28886694,-0.004876242,0.08031731,0.39699522,0.081763476,-0.26896125,-0.18131258,0.2630226,755.09155,791.75824,792.1612,765.16486,623.73627,0.31689453125,0.03338623046875,0.93719482421875,4.74029541015625,-2.572021484375,-0.1495361328125,1.0,1.0,1.0,1.0,1.0,45.0,
2023-09-09 23:56:58.484,0.6935651,0.4160309,0.77665555,1.042307,0.62576133,0.31689486,0.35598645,0.7644653,0.5486621,0.5409849,0.5640419,0.85045886,0.28886694,-0.004876242,0.08031731,0.39699522,0.081763476,-0.26896125,-0.18131258,0.2630226,816.7399,793.7729,794.9817,816.337,730.10986,0.314697265625,0.0294189453125,0.9383544921875,4.583282470703125,-2.4224853515625,-0.112152099609375,1.0,1.0,1.0,1.0,1.0,45.0,
2023-09-09 23:56:58.488,0.68922377,0.3898421,0.7524237,1.025257,0.6256208,0.25426483,0.3451344,0.7768401,0.5486621,0.537048,0.5634762,0.85059303,0.27131683,-0.015960505,0.089810416,0.40111437,0.089465514,-0.25426236,-0.1754238,0.28233674,761.9414,790.14655,792.5641,774.0293,718.8278,0.314697265625,0.0294189453125,0.9383544921875,4.583282470703125,-2.4224853515625,-0.112152099609375,1.0,1.0,1.0,1.0,1.0,45.0,
2023-09-09 23:56:58.592,0.68922377,0.3898421,0.7524237,1.025257,0.6256208,0.25426483,0.3451344,0.7768401,0.5486621,0.537048,0.5634762,0.85059303,0.27131683,-0.015960505,0.089810416,0.40111437,0.089465514,-0.25426236,-0.1754238,0.28233674,800.6227,794.9817,788.93774,795.78754,746.63007,0.3134765625,0.033935546875,0.93975830078125,4.149627685546875,-2.13836669921875,-0.76263427734375,1.0,1.0,1.0,1.0,1.0,45.0,
2023-09-09 23:56:58.609,0.68922377,0.3898421,0.7524237,1.025257,0.6256208,0.25426483,0.3451344,0.7768401,0.5486621,0.537048,0.5634762,0.85059303,0.27131683,-0.015960505,0.089810416,0.40111437,0.089465514,-0.25426236,-0.1754238,0.28233674,743.4066,799.011,788.5348,744.61536,608.022,0.31280517578125,0.02679443359375,0.94140625,4.0673828125,-2.67669677734375,-1.398162841796875,1.0,1.0,1.0,1.0,1.0,45.0,
2023-09-09 23:56:58.613,0.7071024,0.38605866,0.7423011,1.0181966,0.63871974,0.2277256,0.34342593,0.7963404,0.5486621,0.537048,0.56872684,0.85059303,0.256353,-0.019444376,0.09386645,0.40690246,0.08954718,-0.24039143,-0.17287236,0.29782626,755.4945,801.02563,792.1612,762.3443,765.9707,0.31280517578125,0.02679443359375,0.94140625,4.0673828125,-2.67669677734375,-1.398162841796875,1.0,1.0,1.0,1.0,1.0,45.0,
2023-09-09 23:56:58.659,0.7071024,0.38605866,0.7423011,1.0181966,0.63871974,0.2277256,0.34342593,0.7963404,0.5486621,0.537048,0.56872684,0.85059303,0.256353,-0.019444376,0.09386645,0.40690246,0.08954718,-0.24039143,-0.17287236,0.29782626,815.9341,796.1905,782.49084,795.38464,676.52014,0.32452392578125,0.0272216796875,0.93475341796875,4.583282470703125,-2.086029052734375,-0.97198486328125,1.0,1.0,1.0,1.0,1.0,45.0,
2023-09-09 23:56:58.721,0.7244008,0.39190906,0.74256355,1.0133697,0.64696956,0.22659998,0.34349713,0.8098938,0.54933757,0.5383633,0.56872684,0.85059303,0.24345903,-0.016860297,0.09124836,0.41862124,0.08250359,-0.23361722,-0.17567621,0.3068874,775.64105,799.011,796.99634,774.0293,586.6667,0.32452392578125,0.0272216796875,0.93475341796875,4.583282470703125,-2.086029052734375,-0.97198486328125,1.0,1.0,1.0,1.0,1.0,45.0,
2023-09-09 23:56:58.752,0.7244008,0.39190906,0.74256355,1.0133697,0.64696956,0.22659998,0.34349713,0.8098938,0.54933757,0.5383633,0.56872684,0.85059303,0.24345903,-0.016860297,0.09124836,0.41862124,0.08250359,-0.23361722,-0.17567621,0.3068874,767.98535,794.9817,796.1905,773.6264,593.91943,0.317138671875,0.02716064453125,0.94256591796875,4.50103759765625,-2.145843505859375,-0.650482177734375,1.0,1.0,1.0,1.0,1.0,45.0,
2023-09-09 23:56:58.770,0.7244008,0.39190906,0.74256355,1.0133697,0.64696956,0.22659998,0.34349713,0.8098938,0.54933757,0.5383633,0.56872684,0.85059303,0.24345903,-0.016860297,0.09124836,0.41862124,0.08250359,-0.23361722,-0.17567621,0.3068874,826.0073,798.60803,798.20514,808.68134,745.0183,0.31646728515625,0.0263671875,0.94488525390625,5.03936767578125,-1.92901611328125,-0.530853271484375,1.0,1.0,1.0,1.0,1.0,45.0,
2023-09-09 23:56:58.777,0.72665274,0.39808378,0.74131215,1.0064008,0.633983,0.23259965,0.3367568,0.8076515,0.5540818,0.5383633,0.56872684,0.85059303,0.23141453,-0.009056417,0.08529799,0.41546932,0.07281019,-0.23605001,-0.18594198,0.3072023,773.22345,792.96704,791.75824,780.87915,600.7692,0.31646728515625,0.0263671875,0.94488525390625,5.03936767578125,-1.92901611328125,-0.530853271484375,1.0,1.0,1.0,1.0,1.0,45.0,
2023-09-09 23:56:58.803,0.72665274,0.39808378,0.74131215,1.0064008,0.633983,0.23259965,0.3367568,0.8076515,0.5540818,0.5383633,0.56872684,0.85059303,0.23141453,-0.009056417,0.08529799,0.41546932,0.07281019,-0.23605001,-0.18594198,0.3072023,784.10254,800.6227,797.3993,801.02563,827.2161,0.31402587890625,0.031005859375,0.9306640625,5.166473388671875,-0.73272705078125,-0.7476806640625,1.0,1.0,1.0,1.0,1.0,45.0,
