TimeStamp,Delta_TP9,Delta_AF7,Delta_AF8,Delta_TP10,Theta_TP9,Theta_AF7,Theta_AF8,Theta_TP10,Alpha_TP9,Alpha_AF7,Alpha_AF8,Alpha_TP10,Beta_TP9,Beta_AF7,Beta_AF8,Beta_TP10,Gamma_TP9,Gamma_AF7,Gamma_AF8,Gamma_TP10,RAW_TP9,RAW_AF7,RAW_AF8,RAW_TP10,AUX_RIGHT,Accelerometer_X,Accelerometer_Y,Accelerometer_Z,Gyro_X,Gyro_Y,Gyro_Z,HeadBandOn,HSI_TP9,HSI_AF7,HSI_AF8,HSI_TP10,Battery,Elements
2023-09-09 14:53:55.671,0.0,0.80958563,0.4454151,1.3688896,0.0,0.28400946,0.31901017,1.358338,0.0,0.22314946,0.4782953,1.2936535,0.0,0.15397543,0.23120424,0.7402634,0.0,0.021705551,-0.05660041,0.23862824,793.7729,777.6557,768.7912,784.5055,742.1978,0.323486328125,-0.29864501953125,0.9039306640625,6.886138916015625,-4.448699951171875,0.16448974609375,1.0,1.0,1.0,1.0,1.0,10.0,
2023-09-09 14:53:55.723,0.0,0.80958563,0.4454151,1.3688896,0.0,0.28400946,0.31901017,1.358338,0.0,0.22314946,0.4782953,1.2936535,0.0,0.15397543,0.23120424,0.7402634,0.0,0.021705551,-0.05660041,0.23862824,789.7436,771.6117,765.9707,792.1612,772.8205,0.31365966796875,-0.29193115234375,0.9044189453125,6.8487548828125,-2.70660400390625,-0.7177734375,1.0,1.0,1.0,1.0,1.0,10.0,
2023-09-09 14:53:55.789,0.0,0.80958563,0.4454151,1.3688896,0.0,0.28400946,0.31901017,1.358338,0.0,0.22314946,0.4782953,1.2936535,0.0,0.15397543,0.23120424,0.7402634,0.0,0.021705551,-0.05660041,0.23862824,753.0769,774.83514,770.80585,780.4762,631.79486,0.31781005859375,-0.2945556640625,0.89990234375,5.14404296875,-1.65985107421875,-2.818756103515625,1.0,1.0,1.0,1.0,1.0,10.0,
2023-09-09 14:53:55.796,0.0,0.80958563,0.581267,1.3688896,0.0,0.28400946,0.37993953,1.358338,0.0,0.22314946,0.4800038,1.2936535,0.0,0.15397543,0.2403344,0.7402634,0.0,0.021705551,-0.05937759,0.23862824,789.34064,777.6557,766.77655,760.32965,585.05493,0.31781005859375,-0.2945556640625,0.89990234375,5.14404296875,-1.65985107421875,-2.818756103515625,1.0,1.0,1.0,1.0,1.0,10.0,
2023-09-09 14:53:55.829,0.0,0.80958563,0.581267,1.3688896,0.0,0.28400946,0.37993953,1.358338,0.0,0.22314946,0.4800038,1.2936535,0.0,0.15397543,0.2403344,0.7402634,0.0,0.021705551,-0.05937759,0.23862824,784.5055,772.4176,767.5824,772.01465,776.4469,0.33099365234375,-0.29052734375,0.89923095703125,4.62066650390625,-2.213134765625,-2.026214599609375,1.0,1.0,1.0,1.0,1.0,10.0,
2023-09-09 14:53:55.845,0.0,0.80958563,0.581267,1.3688896,0.0,0.28400946,0.37993953,1.358338,0.0,0.22314946,0.4800038,1.2936535,0.0,0.15397543,0.2403344,0.7402634,0.0,0.021705551,-0.05937759,0.23862824,788.93774,767.1795,767.98535,790.9524,834.0659,0.3155517578125,-0.2989501953125,0.8961181640625,3.416900634765625,-1.757049560546875,-1.2261962890625,1.0,1.0,1.0,1.0,1.0,10.0,
2023-09-09 14:53:55.882,0.0,0.80958563,0.7728149,1.3688896,0.0,0.28400946,0.47626063,1.358338,0.0,0.22314946,0.4800038,1.2936535,0.0,0.15397543,0.26057753,0.7402634,0.0,0.021705551,-0.059502997,0.23862824,773.6264,764.7619,765.9707,788.5348,577.8022,0.3155517578125,-0.2989501953125,0.8961181640625,3.416900634765625,-1.757049560546875,-1.2261962890625,1.0,1.0,1.0,1.0,1.0,10.0,
2023-09-09 14:53:55.920,0.0,0.80958563,0.7728149,1.3688896,0.0,0.28400946,0.47626063,1.358338,0.0,0.22314946,0.4800038,1.2936535,0.0,0.15397543,0.26057753,0.7402634,0.0,0.021705551,-0.059502997,0.23862824,759.12085,772.01465,762.3443,782.0879,707.5458,0.30841064453125,-0.3038330078125,0.8902587890625,4.179534912109375,-2.250518798828125,-2.22808837890625,1.0,1.0,1.0,1.0,1.0,10.0,
2023-09-09 14:53:55.987,0.0,0.80958563,0.7728149,1.3688896,0.0,0.28400946,0.47626063,1.358338,0.0,0.22314946,0.4800038,1.2936535,0.0,0.15397543,0.26057753,0.7402634,0.0,0.021705551,-0.059502997,0.23862824,757.50916,767.1795,760.7326,780.4762,850.58606,0.32403564453125,-0.29498291015625,0.90521240234375,4.8748779296875,-2.52716064453125,-2.056121826171875,1.0,1.0,1.0,1.0,1.0,10.0,
2023-09-09 14:53:56.030,0.0,0.80958563,0.7728149,1.3688896,0.0,0.28400946,0.47626063,1.358338,0.0,0.22314946,0.4800038,1.2936535,0.0,0.15397543,0.26057753,0.7402634,0.0,0.021705551,-0.059502997,0.23862824,769.19415,764.35895,764.7619,772.01465,525.42126,0.31475830078125,-0.300048828125,0.89776611328125,3.768310546875,-3.386993408203125,-1.03179931640625,1.0,1.0,1.0,1.0,1.0,10.0,
2023-09-09 14:53:56.100,0.0,0.80958563,0.7728149,1.3688896,0.0,0.28400946,0.47626063,1.358338,0.0,0.22314946,0.4800038,1.2936535,0.0,0.15397543,0.26057753,0.7402634,0.0,0.021705551,-0.059502997,0.23862824,787.72894,757.1062,763.1502,793.7729,704.3223,0.318115234375,-0.3056640625,0.89862060546875,4.2767333984375,-2.82623291015625,-2.01873779296875,1.0,1.0,1.0,1.0,1.0,10.0,
2023-09-09 14:53:56.200,0.0,0.80958563,0.7728149,1.3688896,0.0,0.28400946,0.47626063,1.358338,0.0,0.22314946,0.4800038,1.2936535,0.0,0.15397543,0.26057753,0.7402634,0.0,0.021705551,-0.059502997,0.23862824,788.5348,757.9121,769.59705,793.7729,705.5311,0.32513427734375,-0.3018798828125,0.8914794921875,4.059906005859375,-3.267364501953125,-1.831817626953125,1.0,1.0,1.0,1.0,1.0,10.0,
2023-09-09 14:53:56.257,0.0,0.80958563,0.7728149,1.3688896,0.0,0.28400946,0.47626063,1.358338,0.0,0.22314946,0.4800038,1.2936535,0.0,0.15397543,0.26057753,0.7402634,0.0,0.021705551,-0.059502997,0.23862824,788.93774,751.4652,771.6117,791.75824,775.64105,0.32379150390625,-0.3021240234375,0.8958740234375,4.88983154296875,-3.57391357421875,-0.770111083984375,1.0,1.0,1.0,1.0,1.0,10.0,
2023-09-09 14:53:56.273,0.0,0.80958563,0.7728149,1.3688896,0.0,0.28400946,0.47626063,1.358338,0.0,0.22314946,0.4800038,1.2936535,0.0,0.15397543,0.26057753,0.7402634,0.0,0.021705551,-0.059502997,0.23862824,784.5055,754.2857,767.98535,791.75824,840.10986,0.3245849609375,-0.301025390625,0.89276123046875,5.734710693359375,-3.686065673828125,-0.70281982421875,1.0,1.0,1.0,1.0,1.0,10.0,
2023-09-09 14:53:56.285,0.0,0.86024076,0.77421474,1.34367,0.0,0.3405988,0.4923028,1.290009,0.0,0.2875207,0.46170172,1.2946876,0.0,0.17581972,0.2349197,0.75683165,0.0,-0.043835647,-0.089740075,0.21556115,770.80585,745.42126,758.315,792.1612,785.31134,0.3245849609375,-0.301025390625,0.89276123046875,5.734710693359375,-3.686065673828125,-0.70281982421875,1.0,1.0,1.0,1.0,1.0,10.0,
2023-09-09 14:53:56.342,0.0,0.86024076,0.77421474,1.34367,0.0,0.3405988,0.4923028,1.290009,0.0,0.2875207,0.46170172,1.2946876,0.0,0.17581972,0.2349197,0.75683165,0.0,-0.043835647,-0.089740075,0.21556115,770.80585,750.2564,763.95605,762.3443,573.7729,0.32666015625,-0.29632568359375,0.90234375,5.136566162109375,-3.0206298828125,0.2392578125,1.0,1.0,1.0,1.0,1.0,10.0,
2023-09-09 14:53:56.373,0.0,0.86024076,0.77421474,1.34367,0.0,0.3405988,0.4923028,1.290009,0.0,0.2875207,0.46170172,1.2946876,0.0,0.17581972,0.2349197,0.75683165,0.0,-0.043835647,-0.089740075,0.21556115,778.0586,752.27106,765.9707,803.44324,782.49084,0.3455810546875,-0.29583740234375,0.91143798828125,3.5888671875,-5.5328369140625,0.59814453125,1.0,1.0,1.0,1.0,1.0,10.0,
2023-09-09 14:53:56.380,0.0,0.8595378,0.8038676,1.3171767,0.0,0.32176033,0.514015,1.2317038,0.0,0.28590277,0.44484246,1.2961844,0.0,0.1346585,0.22000805,0.7556139,0.0,-0.14185779,-0.10342506,0.19074497,794.57874,757.1062,758.315,812.71063,880.40295,0.3455810546875,-0.29583740234375,0.91143798828125,3.5888671875,-5.5328369140625,0.59814453125,1.0,1.0,1.0,1.0,1.0,10.0,
2023-09-09 14:53:56.487,0.0,0.8595378,0.8038676,1.3171767,0.0,0.32176033,0.514015,1.2317038,0.0,0.28590277,0.44484246,1.2961844,0.0,0.1346585,0.22000805,0.7556139,0.0,-0.14185779,-0.10342506,0.19074497,780.87915,722.0513,757.1062,767.1795,513.3333,0.31280517578125,-0.29486083984375,0.8963623046875,4.583282470703125,-1.517791748046875,1.00189208984375,1.0,1.0,1.0,1.0,1.0,10.0,
2023-09-09 14:53:56.527,0.0,0.8595378,0.8038676,1.3171767,0.0,0.32176033,0.514015,1.2317038,0.0,0.28590277,0.44484246,1.2961844,0.0,0.1346585,0.22000805,0.7556139,0.0,-0.14185779,-0.10342506,0.19074497,774.43225,750.2564,764.7619,796.1905,835.6777,0.300048828125,-0.30133056640625,0.8807373046875,3.566436767578125,-1.06170654296875,-2.1832275390625,1.0,1.0,1.0,1.0,1.0,10.0,
2023-09-09 14:53:56.528,0.0,0.8595378,0.8171491,1.3171767,0.0,0.32176033,0.50028735,1.2317038,0.0,0.28590277,0.44107932,1.2961844,0.0,0.1346585,0.19139656,0.7556139,0.0,-0.14185779,-0.12995449,0.19074497,784.10254,749.0476,761.53845,802.23444,898.93774,0.300048828125,-0.30133056640625,0.8807373046875,3.566436767578125,-1.06170654296875,-2.1832275390625,1.0,1.0,1.0,1.0,1.0,10.0,
2023-09-09 14:53:56.566,0.0,0.8595378,0.8171491,1.3171767,0.0,0.32176033,0.50028735,1.2317038,0.0,0.28590277,0.44107932,1.2961844,0.0,0.1346585,0.19139656,0.7556139,0.0,-0.14185779,-0.12995449,0.19074497,788.5348,753.0769,752.674,776.8498,718.8278,0.3250732421875,-0.31622314453125,0.8983154296875,2.691650390625,-4.2169189453125,-2.504730224609375,1.0,1.0,1.0,1.0,1.0,10.0,
2023-09-09 14:53:56.638,0.0,0.8595378,0.8171491,1.3171767,0.0,0.32176033,0.50028735,1.2317038,0.0,0.28590277,0.44107932,1.2961844,0.0,0.1346585,0.19139656,0.7556139,0.0,-0.14185779,-0.12995449,0.19074497,747.03296,743.4066,760.7326,788.5348,645.09155,0.3355712890625,-0.31170654296875,0.901123046875,4.897308349609375,-5.091705322265625,-0.6280517578125,1.0,1.0,1.0,1.0,1.0,10.0,
2023-09-09 14:53:56.641,0.0,0.8595378,0.81726545,1.3171767,0.0,0.32176033,0.48928797,1.2317038,0.0,0.28590277,0.44107932,1.2961844,0.0,0.1346585,0.17193192,0.7556139,0.0,-0.14185779,-0.14547828,0.19074497,738.97437,734.5421,764.35895,777.6557,790.9524,0.3355712890625,-0.31170654296875,0.901123046875,4.897308349609375,-5.091705322265625,-0.6280517578125,1.0,1.0,1.0,1.0,1.0,10.0,
2023-09-09 14:53:56.677,0.0,0.8595378,0.81726545,1.3171767,0.0,0.32176033,0.48928797,1.2317038,0.0,0.28590277,0.44107932,1.2961844,0.0,0.1346585,0.17193192,0.7556139,0.0,-0.14185779,-0.14547828,0.19074497,750.65936,728.49817,757.50916,818.3516,1043.1868,0.33013916015625,-0.2926025390625,0.90118408203125,5.75714111328125,-2.31781005859375,0.5682373046875,1.0,1.0,1.0,1.0,1.0,10.0,
2023-09-09 14:53:56.695,0.0,0.8595378,0.8169478,1.2907664,0.0,0.32176033,0.47893625,1.1854,0.0,0.28590277,0.44298172,1.304547,0.0,0.1346585,0.16065,0.72911566,0.0,-0.14185779,-0.16127251,0.18817088,767.1795,724.0659,754.68866,784.10254,754.2857,0.33013916015625,-0.2926025390625,0.90118408203125,5.75714111328125,-2.31781005859375,0.5682373046875,1.0,1.0,1.0,1.0,1.0,10.0,
2023-09-09 14:53:56.749,0.0,0.8595378,0.8169478,1.2907664,0.0,0.32176033,0.47893625,1.1854,0.0,0.28590277,0.44298172,1.304547,0.0,0.1346585,0.16065,0.72911566,0.0,-0.14185779,-0.16127251,0.18817088,763.5531,719.2308,747.4359,774.0293,572.96704,0.31890869140625,-0.29510498046875,0.88970947265625,3.865509033203125,-1.3458251953125,-0.814971923828125,1.0,1.0,1.0,1.0,1.0,10.0,
2023-09-09 14:53:56.817,0.0,0.8595378,0.8169478,1.2907664,0.0,0.32176033,0.47893625,1.1854,0.0,0.28590277,0.44298172,1.304547,0.0,0.1346585,0.16065,0.72911566,0.0,-0.14185779,-0.16127251,0.18817088,793.36993,735.34796,751.8681,816.337,823.9927,0.31329345703125,-0.31744384765625,0.8797607421875,2.280426025390625,-1.33087158203125,-3.887939453125,1.0,1.0,1.0,1.0,1.0,10.0,
2023-09-09 14:53:56.822,0.0,0.84363216,0.8128851,1.2660663,0.0,0.4784467,0.46437865,1.1473215,0.0,0.5639008,0.44546023,1.3015696,0.0,-0.04596178,0.15189655,0.7221062,0.0,-0.5192985,-0.1867972,0.20575617,770.80585,740.58606,759.92676,784.10254,813.5165,0.31329345703125,-0.31744384765625,0.8797607421875,2.280426025390625,-1.33087158203125,-3.887939453125,1.0,1.0,1.0,1.0,1.0,10.0,
2023-09-09 14:53:56.852,0.0,0.84363216,0.8128851,1.2660663,0.0,0.4784467,0.46437865,1.1473215,0.0,0.5639008,0.44546023,1.3015696,0.0,-0.04596178,0.15189655,0.7221062,0.0,-0.5192985,-0.1867972,0.20575617,788.1319,735.34796,760.7326,774.0293,628.97437,0.34344482421875,-0.3150634765625,0.89208984375,4.762725830078125,-5.615081787109375,-0.6280517578125,1.0,1.0,1.0,1.0,1.0,10.0,
2023-09-09 14:53:56.867,0.0,0.84363216,0.8128851,1.2660663,0.0,0.4784467,0.46437865,1.1473215,0.0,0.5639008,0.44546023,1.3015696,0.0,-0.04596178,0.15189655,0.7221062,0.0,-0.5192985,-0.1867972,0.20575617,780.87915,734.1392,761.13556,813.1135,631.79486,0.34600830078125,-0.29351806640625,0.8912353515625,5.06927490234375,-6.44500732421875,3.1402587890625,1.0,1.0,1.0,1.0,1.0,10.0,
2023-09-09 14:53:56.877,0.0,0.85843366,0.8054022,1.2100202,0.0,0.59015536,0.44075948,1.0643234,0.0,0.6109351,0.44862214,1.3015696,0.0,-0.072803795,0.13940857,0.6987715,0.0,-0.5091756,-0.22511292,0.23797539,784.90845,739.7802,759.92676,783.69965,792.1612,0.34600830078125,-0.29351806640625,0.8912353515625,5.06927490234375,-6.44500732421875,3.1402587890625,1.0,1.0,1.0,1.0,1.0,10.0,
2023-09-09 14:53:56.969,0.0,0.85843366,0.8054022,1.2100202,0.0,0.59015536,0.44075948,1.0643234,0.0,0.6109351,0.44862214,1.3015696,0.0,-0.072803795,0.13940857,0.6987715,0.0,-0.5091756,-0.22511292,0.23797539,773.6264,723.2601,740.989,782.49084,680.14655,0.315185546875,-0.29644775390625,0.884033203125,5.0244140625,-3.69354248046875,2.10845947265625,1.0,1.0,1.0,1.0,1.0,10.0,
2023-09-09 14:53:56.976,0.0,0.9117178,0.79843026,1.1197251,0.0,0.66631037,0.4090418,0.9140616,0.0,0.61603814,0.4404006,1.2894924,0.0,-0.08074426,0.12120225,0.6558617,0.0,-0.48014617,-0.27243736,0.27938855,776.8498,739.7802,750.2564,775.64105,610.84247,0.315185546875,-0.29644775390625,0.884033203125,5.0244140625,-3.69354248046875,2.10845947265625,1.0,1.0,1.0,1.0,1.0,10.0,
2023-09-09 14:53:57.037,0.0,0.9117178,0.79843026,1.1197251,0.0,0.66631037,0.4090418,0.9140616,0.0,0.61603814,0.4404006,1.2894924,0.0,-0.08074426,0.12120225,0.6558617,0.0,-0.48014617,-0.27243736,0.27938855,773.22345,742.6007,750.65936,792.5641,691.8315,0.3212890625,-0.30914306640625,0.89990234375,4.269256591796875,-3.835601806640625,-4.059906005859375,1.0,1.0,1.0,1.0,1.0,10.0,
2023-09-09 14:53:57.076,0.0,0.9117178,0.79843026,1.1197251,0.0,0.66631037,0.4090418,0.9140616,0.0,0.61603814,0.4404006,1.2894924,0.0,-0.08074426,0.12120225,0.6558617,0.0,-0.48014617,-0.27243736,0.27938855,770.40295,740.18317,743.8095,789.34064,878.3883,0.3511962890625,-0.30999755859375,0.8909912109375,3.94775390625,-4.762725830078125,-1.667327880859375,1.0,1.0,1.0,1.0,1.0,10.0,
2023-09-09 14:53:57.132,0.0,0.9117178,0.79843026,1.1197251,0.0,0.66631037,0.4090418,0.9140616,0.0,0.61603814,0.4404006,1.2894924,0.0,-0.08074426,0.12120225,0.6558617,0.0,-0.48014617,-0.27243736,0.27938855,782.0879,733.3333,749.85345,774.83514,612.4542,0.34228515625,-0.3033447265625,0.89129638671875,4.418792724609375,-4.598236083984375,1.79443359375,1.0,1.0,1.0,1.0,1.0,10.0,
2023-09-09 14:53:57.133,0.0,0.96380615,0.7982558,0.9983819,0.0,0.6984325,0.3757078,0.7052872,0.0,0.61603814,0.3839376,1.1962246,0.0,-0.07574058,0.09895868,0.60128087,0.0,-0.44934544,-0.32405683,0.31844527,777.6557,735.34796,754.2857,779.67035,529.85345,0.34228515625,-0.3033447265625,0.89129638671875,4.418792724609375,-4.598236083984375,1.79443359375,1.0,1.0,1.0,1.0,1.0,10.0,
2023-09-09 14:53:57.203,0.0,0.96380615,0.7982558,0.9983819,0.0,0.6984325,0.3757078,0.7052872,0.0,0.61603814,0.3839376,1.1962246,0.0,-0.07574058,0.09895868,0.60128087,0.0,-0.44934544,-0.32405683,0.31844527,787.72894,737.3626,752.27106,790.14655,660.80585,0.345947265625,-0.31005859375,0.8792724609375,3.955230712890625,-4.6954345703125,1.55517578125,1.0,1.0,1.0,1.0,1.0,10.0,
2023-09-09 14:53:57.239,0.0,0.98651654,0.79176337,0.87415606,0.0,0.7007642,0.3415506,0.50357944,0.0,0.61603814,0.30115014,0.91326743,0.0,-0.05786457,0.0766951,0.5574156,0.0,-0.4258905,-0.38066298,0.3453036,771.2088,740.989,746.2271,790.54944,605.6044,0.345947265625,-0.31005859375,0.8792724609375,3.955230712890625,-4.6954345703125,1.55517578125,1.0,1.0,1.0,1.0,1.0,10.0,
2023-09-09 14:53:57.250,0.0,0.98651654,0.79176337,0.87415606,0.0,0.7007642,0.3415506,0.50357944,0.0,0.61603814,0.30115014,0.91326743,0.0,-0.05786457,0.0766951,0.5574156,0.0,-0.4258905,-0.38066298,0.3453036,755.89746,746.63007,748.6447,770.0,607.619,0.34442138671875,-0.30804443359375,0.8885498046875,4.972076416015625,-3.386993408203125,0.082244873046875,1.0,1.0,1.0,1.0,1.0,10.0,
2023-09-09 14:53:57.295,0.0,0.98651654,0.79176337,0.87415606,0.0,0.7007642,0.3415506,0.50357944,0.0,0.61603814,0.30115014,0.91326743,0.0,-0.05786457,0.0766951,0.5574156,0.0,-0.4258905,-0.38066298,0.3453036,779.2674,744.21246,748.24176,799.81683,880.0,0.34014892578125,-0.31243896484375,0.88031005859375,4.299163818359375,-3.27484130859375,-0.59814453125,1.0,1.0,1.0,1.0,1.0,10.0,
2023-09-09 14:53:57.302,0.0,0.97932094,0.73008186,0.8716183,0.0,0.6917604,0.26422277,0.5028096,0.0,0.61603814,0.3045356,0.92441016,0.0,-0.031609233,0.05075144,0.5778832,0.0,-0.4122175,-0.45219922,0.35350853,787.326,746.63007,751.8681,802.23444,712.7839,0.34014892578125,-0.31243896484375,0.88031005859375,4.299163818359375,-3.27484130859375,-0.59814453125,1.0,1.0,1.0,1.0,1.0,10.0,
2023-09-09 14:53:57.364,0.0,0.97932094,0.73008186,0.8716183,0.0,0.6917604,0.26422277,0.5028096,0.0,0.61603814,0.3045356,0.92441016,0.0,-0.031609233,0.05075144,0.5778832,0.0,-0.4122175,-0.45219922,0.35350853,784.10254,744.61536,751.8681,808.2784,888.86444,0.34716796875,-0.31048583984375,0.88909912109375,4.8748779296875,-1.89910888671875,-1.487884521484375,1.0,1.0,1.0,1.0,1.0,10.0,
2023-09-09 14:53:57.398,0.0,0.97932094,0.73008186,0.8716183,0.0,0.6917604,0.26422277,0.5028096,0.0,0.61603814,0.3045356,0.92441016,0.0,-0.031609233,0.05075144,0.5778832,0.0,-0.4122175,-0.45219922,0.35350853,756.30035,741.79486,751.8681,740.989,677.72894,0.3331298828125,-0.3111572265625,0.89154052734375,4.97955322265625,-3.297271728515625,0.28411865234375,1.0,1.0,1.0,1.0,1.0,10.0,
2023-09-09 14:53:57.404,0.0,0.95381343,0.50271845,0.8778149,0.0,0.680303,0.031082744,0.49195775,0.0,0.61603814,0.30073586,0.934276,0.0,-0.0059878556,0.010245434,0.59962314,0.0,-0.40856066,-0.549917,0.3489874,765.56775,750.65936,753.0769,793.7729,1089.5238,0.3331298828125,-0.3111572265625,0.89154052734375,4.97955322265625,-3.297271728515625,0.28411865234375,1.0,1.0,1.0,1.0,1.0,10.0,
2023-09-09 14:53:57.474,0.0,0.95381343,0.50271845,0.8778149,0.0,0.680303,0.031082744,0.49195775,0.0,0.61603814,0.30073586,0.934276,0.0,-0.0059878556,0.010245434,0.59962314,0.0,-0.40856066,-0.549917,0.3489874,784.10254,757.1062,751.8681,767.5824,790.54944,0.3341064453125,-0.3082275390625,0.88507080078125,6.08612060546875,-2.99072265625,0.216827392578125,1.0,1.0,1.0,1.0,1.0,10.0,
2023-09-09 14:53:57.481,0.0,0.929381,0.546085,0.87989557,0.0,0.6690915,0.04702573,0.47273108,0.0,0.61603814,0.30073586,0.9439074,0.0,0.012125083,0.0391453,0.6152532,0.0,-0.41358712,-0.5682123,0.34281284,792.5641,752.27106,750.65936,805.8608,856.63007,0.3341064453125,-0.3082275390625,0.88507080078125,6.08612060546875,-2.99072265625,0.216827392578125,1.0,1.0,1.0,1.0,1.0,10.0,
2023-09-09 14:53:57.531,0.0,0.929381,0.546085,0.87989557,0.0,0.6690915,0.04702573,0.47273108,0.0,0.61603814,0.30073586,0.9439074,0.0,0.012125083,0.0391453,0.6152532,0.0,-0.41358712,-0.5682123,0.34281284,794.57874,755.09155,748.6447,800.2198,532.27106,0.3369140625,-0.31475830078125,0.8858642578125,5.14404296875,-4.029998779296875,0.620574951171875,1.0,1.0,1.0,1.0,1.0,10.0,
2023-09-09 14:53:57.603,0.0,0.929381,0.546085,0.87989557,0.0,0.6690915,0.04702573,0.47273108,0.0,0.61603814,0.30073586,0.9439074,0.0,0.012125083,0.0391453,0.6152532,0.0,-0.41358712,-0.5682123,0.34281284,793.36993,748.24176,746.2271,784.5055,709.5604,0.3446044921875,-0.30633544921875,0.88873291015625,5.360870361328125,-4.239349365234375,1.368255615234375,1.0,1.0,1.0,1.0,1.0,10.0,
2023-09-09 14:53:57.610,1.0630981,0.9143312,0.5560565,0.876164,0.46247807,0.6567475,0.041982908,0.45047185,0.38245592,0.61603814,0.30073586,0.96337956,0.4579606,0.021203203,0.05320992,0.6265368,0.16621274,-0.42528033,-0.58109766,0.34591374,766.3736,749.0476,739.7802,815.9341,967.8388,0.3446044921875,-0.30633544921875,0.88873291015625,5.360870361328125,-4.239349365234375,1.368255615234375,1.0,1.0,1.0,1.0,1.0,10.0,
2023-09-09 14:53:57.668,1.0630981,0.9143312,0.5560565,0.876164,0.46247807,0.6567475,0.041982908,0.45047185,0.38245592,0.61603814,0.30073586,0.96337956,0.4579606,0.021203203,0.05320992,0.6265368,0.16621274,-0.42528033,-0.58109766,0.34591374,769.59705,749.85345,739.3773,783.69965,952.9304,0.3382568359375,-0.30908203125,0.88739013671875,5.001983642578125,-4.11224365234375,0.58319091796875,1.0,1.0,1.0,1.0,1.0,10.0,
2023-09-09 14:53:57.703,1.0630981,0.9143312,0.5560565,0.876164,0.46247807,0.6567475,0.041982908,0.45047185,0.38245592,0.61603814,0.30073586,0.96337956,0.4579606,0.021203203,0.05320992,0.6265368,0.16621274,-0.42528033,-0.58109766,0.34591374,702.71063,713.9927,733.73627,718.022,684.57874,0.33172607421875,-0.304443359375,0.895263671875,5.555267333984375,-1.614990234375,-0.456085205078125,1.0,1.0,1.0,1.0,1.0,10.0,
2023-09-09 14:53:57.716,1.0630981,0.914585,0.5503353,0.876164,0.46247807,0.64394367,0.024586935,0.45047185,0.38245592,0.61603814,0.30352414,0.96337956,0.4579606,0.023936257,0.05273478,0.6265368,0.16621274,-0.43915987,-0.5875525,0.34591374,713.9927,691.4286,732.9304,712.7839,925.12823,0.33172607421875,-0.304443359375,0.895263671875,5.555267333984375,-1.614990234375,-0.456085205078125,1.0,1.0,1.0,1.0,1.0,10.0,
2023-09-09 14:53:57.766,1.0630981,0.914585,0.5503353,0.876164,0.46247807,0.64394367,0.024586935,0.45047185,0.38245592,0.61603814,0.30352414,0.96337956,0.4579606,0.023936257,0.05273478,0.6265368,0.16621274,-0.43915987,-0.5875525,0.34591374,756.30035,719.2308,738.97437,815.5311,1187.033,0.34014892578125,-0.2969970703125,0.87762451171875,5.75714111328125,-2.213134765625,-4.822540283203125,1.0,1.0,1.0,1.0,1.0,10.0,
2023-09-09 14:53:57.802,1.0630981,0.914585,0.5503353,0.876164,0.46247807,0.64394367,0.024586935,0.45047185,0.38245592,0.61603814,0.30352414,0.96337956,0.4579606,0.023936257,0.05273478,0.6265368,0.16621274,-0.43915987,-0.5875525,0.34591374,786.1172,739.3773,730.9158,800.2198,539.12085,0.36077880859375,-0.3165283203125,0.87884521484375,3.686065673828125,-1.383209228515625,-6.452484130859375,1.0,1.0,1.0,1.0,1.0,10.0,
2023-09-09 14:53:57.805,1.0630981,0.9108974,0.559501,0.832284,0.46247807,0.6509834,0.006761035,0.4495505,0.38245592,0.61603814,0.30352414,0.96337956,0.4579606,0.0036107025,0.04368553,0.6020723,0.16621274,-0.4443669,-0.58831185,0.36375564,782.8938,741.79486,734.94507,811.9048,854.21246,0.36077880859375,-0.3165283203125,0.87884521484375,3.686065673828125,-1.383209228515625,-6.452484130859375,1.0,1.0,1.0,1.0,1.0,10.0,
2023-09-09 14:53:57.869,1.0630981,0.9108974,0.559501,0.832284,0.46247807,0.6509834,0.006761035,0.4495505,0.38245592,0.61603814,0.30352414,0.96337956,0.4579606,0.0036107025,0.04368553,0.6020723,0.16621274,-0.4443669,-0.58831185,0.36375564,785.7143,732.9304,722.0513,823.5897,838.49817,0.35003662109375,-0.31121826171875,0.89068603515625,5.959014892578125,-2.160797119140625,-0.418701171875,1.0,1.0,1.0,1.0,1.0,10.0,
2023-09-09 14:53:57.907,1.0630981,0.9108974,0.559501,0.832284,0.46247807,0.6509834,0.006761035,0.4495505,0.38245592,0.61603814,0.30352414,0.96337956,0.4579606,0.0036107025,0.04368553,0.6020723,0.16621274,-0.4443669,-0.58831185,0.36375564,794.17584,745.42126,727.28937,801.8315,672.0879,0.34381103515625,-0.30023193359375,0.90386962890625,4.927215576171875,-4.478607177734375,1.248626708984375,1.0,1.0,1.0,1.0,1.0,10.0,
2023-09-09 14:53:57.911,1.0630981,0.922952,0.60373336,0.7912545,0.46247807,0.67907494,-0.0021727164,0.4566531,0.38245592,0.61603814,0.30352414,0.96337956,0.4579606,0.0073468843,0.032147076,0.5843385,0.16621274,-0.4435116,-0.58308154,0.38764504,801.02563,749.0476,734.5421,811.0989,801.4286,0.34381103515625,-0.30023193359375,0.90386962890625,4.927215576171875,-4.478607177734375,1.248626708984375,1.0,1.0,1.0,1.0,1.0,10.0,
2023-09-09 14:53:58.002,1.0630981,0.922952,0.60373336,0.7912545,0.46247807,0.67907494,-0.0021727164,0.4566531,0.38245592,0.61603814,0.30352414,0.96337956,0.4579606,0.0073468843,0.032147076,0.5843385,0.16621274,-0.4435116,-0.58308154,0.38764504,794.9817,737.3626,727.28937,807.0696,861.06226,0.36297607421875,-0.29803466796875,0.89495849609375,3.828125,-3.207550048828125,1.3458251953125,1.0,1.0,1.0,1.0,1.0,10.0,
2023-09-09 14:53:58.007,1.0630981,0.922952,0.6674647,0.7912545,0.46247807,0.67907494,0.021210013,0.4566531,0.38245592,0.61603814,0.30352414,0.96337956,0.4579606,0.0073468843,0.032456875,0.5843385,0.16621274,-0.4435116,-0.5667654,0.38764504,778.46155,725.2747,718.4249,790.54944,711.1722,0.36297607421875,-0.29803466796875,0.89495849609375,3.828125,-3.207550048828125,1.3458251953125,1.0,1.0,1.0,1.0,1.0,10.0,
2023-09-09 14:53:58.036,1.0630981,0.922952,0.6674647,0.7912545,0.46247807,0.67907494,0.021210013,0.4566531,0.38245592,0.61603814,0.30352414,0.96337956,0.4579606,0.0073468843,0.032456875,0.5843385,0.16621274,-0.4435116,-0.5667654,0.38764504,782.49084,728.9011,723.663,799.41394,740.18317,0.3416748046875,-0.30389404296875,0.88372802734375,3.058013916015625,-0.052337646484375,0.3289794921875,1.0,1.0,1.0,1.0,1.0,10.0,
2023-09-09 14:53:58.141,1.0630981,0.922952,0.6674647,0.7912545,0.46247807,0.67907494,0.021210013,0.4566531,0.38245592,0.61603814,0.30352414,0.96337956,0.4579606,0.0073468843,0.032456875,0.5843385,0.16621274,-0.4435116,-0.5667654,0.38764504,778.0586,738.97437,725.2747,775.2381,638.6447,0.3265380859375,-0.3023681640625,0.87884521484375,3.372039794921875,-0.336456298828125,-0.79254150390625,1.0,1.0,1.0,1.0,1.0,10.0,
2023-09-09 14:53:58.148,1.0630981,0.922952,0.7319666,0.7912545,0.46247807,0.67907494,0.06008949,0.4566531,0.38245592,0.61603814,0.30352414,0.96337956,0.4579606,0.0073468843,0.035763133,0.5843385,0.16621274,-0.4435116,-0.55165035,0.38764504,760.32965,744.61536,729.707,776.4469,738.97437,0.3265380859375,-0.3023681640625,0.87884521484375,3.372039794921875,-0.336456298828125,-0.79254150390625,1.0,1.0,1.0,1.0,1.0,10.0,
2023-09-09 14:53:58.156,1.0630981,0.922952,0.7319666,0.7912545,0.46247807,0.67907494,0.06008949,0.4566531,0.38245592,0.61603814,0.30352414,0.96337956,0.4579606,0.0073468843,0.035763133,0.5843385,0.16621274,-0.4435116,-0.55165035,0.38764504,780.4762,749.45056,728.9011,787.72894,936.8132,0.335693359375,-0.31365966796875,0.89093017578125,3.22998046875,-2.115936279296875,-2.265472412109375,1.0,1.0,1.0,1.0,1.0,10.0,
2023-09-09 14:53:58.197,1.0630981,0.922952,0.7319666,0.7912545,0.46247807,0.67907494,0.06008949,0.4566531,0.38245592,0.61603814,0.30352414,0.96337956,0.4579606,0.0073468843,0.035763133,0.5843385,0.16621274,-0.4435116,-0.55165035,0.38764504,788.93774,747.8388,730.5128,779.2674,816.7399,0.34417724609375,-0.3160400390625,0.8792724609375,3.6187744140625,-3.147735595703125,-0.500946044921875,1.0,1.0,1.0,1.0,1.0,10.0,
2023-09-09 14:53:58.205,1.0630981,0.93052036,0.77563375,0.75228626,0.46247807,0.69987285,0.10265568,0.44996434,0.38245592,0.61603814,0.29800382,0.9292037,0.4579606,0.02772046,0.04163335,0.59477943,0.16621274,-0.42478746,-0.5445493,0.40627927,794.57874,743.8095,745.0183,776.04395,633.00366,0.34417724609375,-0.3160400390625,0.8792724609375,3.6187744140625,-3.147735595703125,-0.500946044921875,1.0,1.0,1.0,1.0,1.0,10.0,
2023-09-09 14:53:58.304,1.0630981,0.93052036,0.77563375,0.75228626,0.46247807,0.69987285,0.10265568,0.44996434,0.38245592,0.61603814,0.29800382,0.9292037,0.4579606,0.02772046,0.04163335,0.59477943,0.16621274,-0.42478746,-0.5445493,0.40627927,802.23444,739.7802,740.58606,803.8461,820.7692,0.34344482421875,-0.31597900390625,0.89483642578125,4.448699951171875,-3.75335693359375,1.0467529296875,1.0,1.0,1.0,1.0,1.0,10.0,
2023-09-09 14:53:58.337,1.0630981,0.93052036,0.77563375,0.75228626,0.46247807,0.69987285,0.10265568,0.44996434,0.38245592,0.61603814,0.29800382,0.9292037,0.4579606,0.02772046,0.04163335,0.59477943,0.16621274,-0.42478746,-0.5445493,0.40627927,794.57874,749.85345,745.82416,796.5934,664.43225,0.3365478515625,-0.3121337890625,0.8819580078125,4.912261962890625,-1.652374267578125,-0.418701171875,1.0,1.0,1.0,1.0,1.0,10.0,
2023-09-09 14:53:58.338,1.0630981,0.9427453,0.80884075,0.74058366,0.46247807,0.7011651,0.13432333,0.44128314,0.38245592,0.59955776,0.29632223,0.8639983,0.4579606,0.051722813,0.04803783,0.61499316,0.16621274,-0.407796,-0.5490429,0.42090183,778.46155,743.8095,749.0476,770.40295,598.3516,0.3365478515625,-0.3121337890625,0.8819580078125,4.912261962890625,-1.652374267578125,-0.418701171875,1.0,1.0,1.0,1.0,1.0,10.0,
2023-09-09 14:53:58.381,1.0630981,0.9427453,0.80884075,0.74058366,0.46247807,0.7011651,0.13432333,0.44128314,0.38245592,0.59955776,0.29632223,0.8639983,0.4579606,0.051722813,0.04803783,0.61499316,0.16621274,-0.407796,-0.5490429,0.42090183,763.1502,741.79486,744.61536,787.72894,699.4872,0.3348388671875,-0.30999755859375,0.888427734375,4.964599609375,-2.504730224609375,-0.740203857421875,1.0,1.0,1.0,1.0,1.0,10.0,
2023-09-09 14:53:58.412,1.0630981,0.9427453,0.80884075,0.74058366,0.46247807,0.7011651,0.13432333,0.44128314,0.38245592,0.59955776,0.29632223,0.8639983,0.4579606,0.051722813,0.04803783,0.61499316,0.16621274,-0.407796,-0.5490429,0.42090183,776.8498,753.47986,749.45056,819.15753,1040.3663,0.33819580078125,-0.31292724609375,0.880615234375,4.822540283203125,-1.188812255859375,0.396270751953125,1.0,1.0,1.0,1.0,1.0,10.0,
2023-09-09 14:53:58.414,1.0630981,0.9463175,0.8421932,0.7596054,0.46247807,0.6744648,0.14985825,0.42878127,0.38245592,0.54225063,0.28866997,0.8279334,0.4579606,0.07501322,0.05251164,0.6440044,0.16621274,-0.40051666,-0.5604195,0.42522353,774.43225,759.92676,749.0476,796.99634,630.989,0.33819580078125,-0.31292724609375,0.880615234375,4.822540283203125,-1.188812255859375,0.396270751953125,1.0,1.0,1.0,1.0,1.0,10.0,
2023-09-09 14:53:58.450,1.0630981,0.9463175,0.8421932,0.7596054,0.46247807,0.6744648,0.14985825,0.42878127,0.38245592,0.54225063,0.28866997,0.8279334,0.4579606,0.07501322,0.05251164,0.6440044,0.16621274,-0.40051666,-0.5604195,0.42522353,771.6117,759.12085,747.8388,782.8938,618.9011,0.34356689453125,-0.30322265625,0.89410400390625,5.18890380859375,-3.327178955078125,1.54022216796875,1.0,1.0,1.0,1.0,1.0,10.0,
2023-09-09 14:53:58.549,1.0630981,0.91702765,0.8760426,0.800177,0.46247807,0.62381035,0.15265524,0.40732077,0.38245592,0.4461962,0.2866593,0.8177515,0.4579606,0.09713697,0.052968394,0.6792184,0.16621274,-0.40686652,-0.56975305,0.41292638,774.43225,749.45056,734.94507,798.60803,774.83514,0.34356689453125,-0.30322265625,0.89410400390625,5.18890380859375,-3.327178955078125,1.54022216796875,1.0,1.0,1.0,1.0,1.0,10.0,
2023-09-09 14:53:58.593,1.0630981,0.91702765,0.8760426,0.800177,0.46247807,0.62381035,0.15265524,0.40732077,0.38245592,0.4461962,0.2866593,0.8177515,0.4579606,0.09713697,0.052968394,0.6792184,0.16621274,-0.40686652,-0.56975305,0.41292638,766.77655,740.18317,735.7509,801.02563,838.9011,0.35235595703125,-0.29833984375,0.8973388671875,4.88983154296875,-2.2430419921875,1.1663818359375,1.0,1.0,1.0,1.0,1.0,10.0,
2023-09-09 14:53:58.624,1.0630981,0.91702765,0.8760426,0.800177,0.46247807,0.62381035,0.15265524,0.40732077,0.38245592,0.4461962,0.2866593,0.8177515,0.4579606,0.09713697,0.052968394,0.6792184,0.16621274,-0.40686652,-0.56975305,0.41292638,772.4176,731.31866,722.4542,776.4469,607.2161,0.3160400390625,-0.30633544921875,0.89276123046875,3.93280029296875,1.428070068359375,-0.994415283203125,1.0,1.0,1.0,1.0,1.0,10.0,
2023-09-09 14:53:58.633,1.0630981,0.8490787,0.9069148,0.84779376,0.46247807,0.5703092,0.1489307,0.37366125,0.38245592,0.35172158,0.28977305,0.81321436,0.4579606,0.11709889,0.049274035,0.714138,0.16621274,-0.42757097,-0.5712974,0.38357744,770.80585,727.6923,728.0952,803.8461,1000.4762,0.3160400390625,-0.30633544921875,0.89276123046875,3.93280029296875,1.428070068359375,-0.994415283203125,1.0,1.0,1.0,1.0,1.0,10.0,
2023-09-09 14:53:58.669,1.0630981,0.8490787,0.9069148,0.84779376,0.46247807,0.5703092,0.1489307,0.37366125,0.38245592,0.35172158,0.28977305,0.81321436,0.4579606,0.11709889,0.049274035,0.714138,0.16621274,-0.42757097,-0.5712974,0.38357744,784.10254,729.707,722.4542,782.0879,728.49817,0.32464599609375,-0.3343505859375,0.88299560546875,0.7177734375,-0.49346923828125,-0.515899658203125,1.0,1.0,1.0,1.0,1.0,10.0,
2023-09-09 14:53:58.708,1.0630981,0.8490787,0.9069148,0.84779376,0.46247807,0.5703092,0.1489307,0.37366125,0.38245592,0.35172158,0.28977305,0.81321436,0.4579606,0.11709889,0.049274035,0.714138,0.16621274,-0.42757097,-0.5712974,0.38357744,705.5311,691.8315,709.15753,726.4835,769.19415,0.33282470703125,-0.325927734375,0.88226318359375,4.17205810546875,-3.192596435546875,1.734619140625,1.0,1.0,1.0,1.0,1.0,10.0,
2023-09-09 14:53:58.715,1.0630981,0.7669336,0.9391006,0.8801522,0.46247807,0.5340036,0.13844714,0.31961453,0.38245592,0.30984902,0.28388056,0.79997724,0.4579606,0.12933908,0.039032385,0.7385636,0.16621274,-0.461272,-0.5665737,0.3471315,762.74725,676.1172,714.3956,813.91943,1113.6996,0.33282470703125,-0.325927734375,0.88226318359375,4.17205810546875,-3.192596435546875,1.734619140625,1.0,1.0,1.0,1.0,1.0,10.0,
2023-09-09 14:53:58.786,1.0630981,0.7669336,0.9391006,0.8801522,0.46247807,0.5340036,0.13844714,0.31961453,0.38245592,0.30984902,0.28388056,0.79997724,0.4579606,0.12933908,0.039032385,0.7385636,0.16621274,-0.461272,-0.5665737,0.3471315,803.44324,700.696,710.7692,846.9597,926.7399,0.31817626953125,-0.32440185546875,0.87933349609375,4.732818603515625,-2.85614013671875,1.652374267578125,1.0,1.0,1.0,1.0,1.0,10.0,
2023-09-09 14:53:58.793,1.0630981,0.7196295,0.9821892,0.8801522,0.46247807,0.5120694,0.12205315,0.31961453,0.38245592,0.30463722,0.26285902,0.79997724,0.4579606,0.12778388,0.018017769,0.7385636,0.16621274,-0.5066882,-0.56093454,0.3471315,789.34064,707.1429,705.12823,840.9158,805.4579,0.31817626953125,-0.32440185546875,0.87933349609375,4.732818603515625,-2.85614013671875,1.652374267578125,1.0,1.0,1.0,1.0,1.0,10.0,
2023-09-09 14:53:58.890,1.0630981,0.7196295,0.9821892,0.8801522,0.46247807,0.5120694,0.12205315,0.31961453,0.38245592,0.30463722,0.26285902,0.79997724,0.4579606,0.12778388,0.018017769,0.7385636,0.16621274,-0.5066882,-0.56093454,0.3471315,793.7729,709.15753,705.5311,827.619,789.34064,0.3291015625,-0.3336181640625,0.88629150390625,3.910369873046875,-1.2261962890625,-2.564544677734375,1.0,1.0,1.0,1.0,1.0,10.0,
2023-09-09 14:53:58.900,1.0630981,0.7196295,0.9821892,0.8801522,0.46247807,0.5120694,0.12205315,0.31961453,0.38245592,0.30463722,0.26285902,0.79997724,0.4579606,0.12778388,0.018017769,0.7385636,0.16621274,-0.5066882,-0.56093454,0.3471315,794.57874,700.293,699.4872,819.5604,641.06226,0.32647705078125,-0.3223876953125,0.8924560546875,6.14593505859375,-2.220611572265625,-1.158905029296875,1.0,1.0,1.0,1.0,1.0,10.0,
2023-09-09 14:53:58.939,1.0630981,0.7196295,0.9821892,0.8801522,0.46247807,0.5120694,0.12205315,0.31961453,0.38245592,0.30463722,0.26285902,0.79997724,0.4579606,0.12778388,0.018017769,0.7385636,0.16621274,-0.5066882,-0.56093454,0.3471315,808.68134,695.4579,702.3077,830.0366,860.2564,0.3294677734375,-0.307373046875,0.8890380859375,4.80010986328125,-3.4991455078125,0.25421142578125,1.0,1.0,1.0,1.0,1.0,10.0,
2023-09-09 14:53:58.940,1.0630981,0.7196295,0.98959935,0.8801522,0.46247807,0.5120694,0.10806165,0.31961453,0.38245592,0.30463722,0.21476576,0.79997724,0.4579606,0.12778388,-0.003070495,0.7385636,0.16621274,-0.5066882,-0.5479328,0.3471315,814.7253,697.0696,705.12823,827.2161,814.7253,0.3294677734375,-0.307373046875,0.8890380859375,4.80010986328125,-3.4991455078125,0.25421142578125,1.0,1.0,1.0,1.0,1.0,10.0,
2023-09-09 14:53:58.990,1.0630981,0.7196295,0.98959935,0.8801522,0.46247807,0.5120694,0.10806165,0.31961453,0.38245592,0.30463722,0.21476576,0.79997724,0.4579606,0.12778388,-0.003070495,0.7385636,0.16621274,-0.5066882,-0.5479328,0.3471315,711.1722,690.2198,707.5458,813.1135,742.1978,0.32000732421875,-0.31500244140625,0.888916015625,3.641204833984375,-1.951446533203125,0.650482177734375,1.0,1.0,1.0,1.0,1.0,10.0,
2023-09-09 14:53:59.030,1.0630981,0.7196295,0.9994289,0.8801522,0.46247807,0.5120694,0.10193604,0.31961453,0.38245592,0.30463722,0.14343986,0.79997724,0.4579606,0.12778388,-0.031066975,0.7385636,0.16621274,-0.5066882,-0.53295195,0.3471315,722.4542,714.3956,705.12823,818.3516,846.55676,0.32000732421875,-0.31500244140625,0.888916015625,3.641204833984375,-1.951446533203125,0.650482177734375,1.0,1.0,1.0,1.0,1.0,10.0,
2023-09-09 14:53:59.065,1.0630981,0.7196295,0.9994289,0.8801522,0.46247807,0.5120694,0.10193604,0.31961453,0.38245592,0.30463722,0.14343986,0.79997724,0.4579606,0.12778388,-0.031066975,0.7385636,0.16621274,-0.5066882,-0.53295195,0.3471315,780.87915,711.5751,701.50183,823.5897,818.7546,0.31256103515625,-0.32012939453125,0.88067626953125,3.66363525390625,-3.06549072265625,-0.411224365234375,1.0,1.0,1.0,1.0,1.0,10.0,
2023-09-09 14:53:59.126,1.0630981,0.7196295,0.9994289,0.8801522,0.46247807,0.5120694,0.10193604,0.31961453,0.38245592,0.30463722,0.14343986,0.79997724,0.4579606,0.12778388,-0.031066975,0.7385636,0.16621274,-0.5066882,-0.53295195,0.3471315,773.6264,707.9487,724.87177,825.2015,652.3443,0.32666015625,-0.31829833984375,0.8900146484375,4.448699951171875,-3.775787353515625,-2.429962158203125,1.0,1.0,1.0,1.0,1.0,10.0,
2023-09-09 14:53:59.130,1.0630981,0.7196295,1.0188837,0.8801522,0.46247807,0.5120694,0.11056631,0.31961453,0.38245592,0.30463722,0.12702833,0.79997724,0.4579606,0.12778388,-0.054860756,0.7385636,0.16621274,-0.5066882,-0.5186613,0.3471315,784.90845,714.7985,730.10986,813.5165,755.89746,0.32666015625,-0.31829833984375,0.8900146484375,4.448699951171875,-3.775787353515625,-2.429962158203125,1.0,1.0,1.0,1.0,1.0,10.0,
2023-09-09 14:53:59.160,1.0630981,0.7196295,1.0188837,0.8801522,0.46247807,0.5120694,0.11056631,0.31961453,0.38245592,0.30463722,0.12702833,0.79997724,0.4579606,0.12778388,-0.054860756,0.7385636,0.16621274,-0.5066882,-0.5186613,0.3471315,792.96704,724.87177,729.304,816.7399,697.47253,0.32745361328125,-0.320068359375,0.89190673828125,5.1739501953125,-4.32159423828125,-0.82244873046875,1.0,1.0,1.0,1.0,1.0,10.0,
2023-09-09 14:53:59.260,1.0630981,0.7196295,1.0188837,0.8801522,0.46247807,0.5120694,0.11056631,0.31961453,0.38245592,0.30463722,0.12702833,0.79997724,0.4579606,0.12778388,-0.054860756,0.7385636,0.16621274,-0.5066882,-0.5186613,0.3471315,778.0586,755.89746,750.65936,859.85345,1167.2894,0.3338623046875,-0.32763671875,0.880859375,5.45806884765625,-3.177642822265625,0.22430419921875,1.0,1.0,1.0,1.0,1.0,10.0,
2023-09-09 14:53:59.267,1.0630981,0.7196295,1.0462008,0.8801522,0.46247807,0.5120694,0.1329553,0.31961453,0.38245592,0.30463722,0.12603684,0.79997724,0.4579606,0.12778388,-0.06542341,0.7385636,0.16621274,-0.5066882,-0.50697505,0.3471315,777.6557,774.0293,753.8828,801.8315,750.65936,0.3338623046875,-0.32763671875,0.880859375,5.45806884765625,-3.177642822265625,0.22430419921875,1.0,1.0,1.0,1.0,1.0,10.0,
2023-09-09 14:53:59.344,1.0630981,0.7196295,1.0462008,0.8801522,0.46247807,0.5120694,0.1329553,0.31961453,0.38245592,0.30463722,0.12603684,0.79997724,0.4579606,0.12778388,-0.06542341,0.7385636,0.16621274,-0.5066882,-0.50697505,0.3471315,790.9524,807.47253,791.3553,843.73627,662.01465,0.32452392578125,-0.31707763671875,0.8924560546875,6.8487548828125,-4.32159423828125,0.73272705078125,1.0,1.0,1.0,1.0,1.0,10.0,
2023-09-09 14:53:59.349,1.0630981,0.7196295,1.0709087,0.8801522,0.46247807,0.5120694,0.16069244,0.31961453,0.38245592,0.30463722,0.11044912,0.79997724,0.4579606,0.12778388,-0.06255414,0.7385636,0.16621274,-0.5066882,-0.4988155,0.3471315,793.7729,812.71063,784.5055,782.49084,599.15753,0.32452392578125,-0.31707763671875,0.8924560546875,6.8487548828125,-4.32159423828125,0.73272705078125,1.0,1.0,1.0,1.0,1.0,10.0,
2023-09-09 14:53:59.401,1.0630981,0.7196295,1.0709087,0.8801522,0.46247807,0.5120694,0.16069244,0.31961453,0.38245592,0.30463722,0.11044912,0.79997724,0.4579606,0.12778388,-0.06255414,0.7385636,0.16621274,-0.5066882,-0.4988155,0.3471315,778.46155,799.011,777.25275,825.2015,897.326,0.34246826171875,-0.31585693359375,0.88134765625,4.852447509765625,-4.792633056640625,-0.022430419921875,1.0,1.0,1.0,1.0,1.0,10.0,
2023-09-09 14:53:59.459,1.0630981,0.7196295,1.0709087,0.8801522,0.46247807,0.5120694,0.16069244,0.31961453,0.38245592,0.30463722,0.11044912,0.79997724,0.4579606,0.12778388,-0.06255414,0.7385636,0.16621274,-0.5066882,-0.4988155,0.3471315,773.6264,807.47253,781.28204,808.2784,583.8461,0.33941650390625,-0.31060791015625,0.88641357421875,7.050628662109375,-2.572021484375,-0.904693603515625,1.0,1.0,1.0,1.0,1.0,10.0,
2023-09-09 14:53:59.465,1.0630981,0.7196295,1.0802927,0.8801522,0.46247807,0.5120694,0.18475366,0.31961453,0.38245592,0.30463722,0.093122214,0.79997724,0.4579606,0.12778388,-0.05182429,0.7385636,0.16621274,-0.5066882,-0.49696973,0.3471315,778.0586,813.91943,786.52014,813.1135,648.71796,0.33941650390625,-0.31060791015625,0.88641357421875,7.050628662109375,-2.572021484375,-0.904693603515625,1.0,1.0,1.0,1.0,1.0,10.0,
2023-09-09 14:53:59.506,1.0630981,0.7196295,1.0802927,0.8801522,0.46247807,0.5120694,0.18475366,0.31961453,0.38245592,0.30463722,0.093122214,0.79997724,0.4579606,0.12778388,-0.05182429,0.7385636,0.16621274,-0.5066882,-0.49696973,0.3471315,790.14655,816.7399,786.9231,839.304,712.7839,0.328857421875,-0.30780029296875,0.8907470703125,6.422576904296875,-2.385101318359375,-1.099090576171875,1.0,1.0,1.0,1.0,1.0,10.0,
2023-09-09 14:53:59.518,1.0630981,0.7196295,1.0802927,0.8801522,0.46247807,0.5120694,0.18475366,0.31961453,0.38245592,0.30463722,0.093122214,0.79997724,0.4579606,0.12778388,-0.05182429,0.7385636,0.16621274,-0.5066882,-0.49696973,0.3471315,786.1172,824.3956,786.9231,846.55676,878.7912,0.3370361328125,-0.329833984375,0.88873291015625,4.08233642578125,-2.100982666015625,-3.768310546875,1.0,1.0,1.0,1.0,1.0,10.0,
2023-09-09 14:53:59.571,1.0630981,0.7196295,1.077509,0.8801522,0.46247807,0.5120694,0.19217002,0.31961453,0.38245592,0.30463722,0.093122214,0.79997724,0.4579606,0.12778388,-0.040357873,0.7385636,0.16621274,-0.5066882,-0.5053848,0.3471315,774.0293,827.2161,781.685,830.0366,956.55676,0.3370361328125,-0.329833984375,0.88873291015625,4.08233642578125,-2.100982666015625,-3.768310546875,1.0,1.0,1.0,1.0,1.0,10.0,
2023-09-09 14:53:59.606,1.0630981,0.7196295,1.077509,0.8801522,0.46247807,0.5120694,0.19217002,0.31961453,0.38245592,0.30463722,0.093122214,0.79997724,0.4579606,0.12778388,-0.040357873,0.7385636,0.16621274,-0.5066882,-0.5053848,0.3471315,797.3993,827.2161,790.54944,829.2308,674.5055,0.3558349609375,-0.32293701171875,0.886962890625,5.69732666015625,-4.90478515625,1.136474609375,1.0,1.0,1.0,1.0,1.0,10.0,
2023-09-09 14:53:59.635,1.0630981,0.7196295,1.077509,0.8801522,0.46247807,0.5120694,0.19217002,0.31961453,0.38245592,0.30463722,0.093122214,0.79997724,0.4579606,0.12778388,-0.040357873,0.7385636,0.16621274,-0.5066882,-0.5053848,0.3471315,815.5311,823.5897,787.326,831.2454,878.3883,0.334716796875,-0.3045654296875,0.88299560546875,6.048736572265625,-3.9776611328125,3.282318115234375,1.0,1.0,1.0,1.0,1.0,10.0,
2023-09-09 14:53:59.637,1.0630981,0.7196295,1.0744915,0.8801522,0.46247807,0.5120694,0.1702688,0.31961453,0.38245592,0.30463722,0.092051,0.79997724,0.4579606,0.12778388,-0.03581285,0.7385636,0.16621274,-0.5066882,-0.52543736,0.3471315,804.65204,830.84247,789.7436,801.02563,723.2601,0.334716796875,-0.3045654296875,0.88299560546875,6.048736572265625,-3.9776611328125,3.282318115234375,1.0,1.0,1.0,1.0,1.0,10.0,
2023-09-09 14:53:59.673,1.0630981,0.7196295,1.0744915,0.8801522,0.46247807,0.5120694,0.1702688,0.31961453,0.38245592,0.30463722,0.092051,0.79997724,0.4579606,0.12778388,-0.03581285,0.7385636,0.16621274,-0.5066882,-0.52543736,0.3471315,817.9487,873.1502,828.022,848.1685,681.3553,0.3092041015625,-0.3243408203125,0.886962890625,4.403839111328125,-0.0,-3.626251220703125,1.0,1.0,1.0,1.0,1.0,10.0,
2023-09-09 14:53:59.739,1.0630981,0.7196295,1.0744915,0.8801522,0.46247807,0.5120694,0.1702688,0.31961453,0.38245592,0.30463722,0.092051,0.79997724,0.4579606,0.12778388,-0.03581285,0.7385636,0.16621274,-0.5066882,-0.52543736,0.3471315,799.011,869.92676,816.7399,831.2454,793.36993,0.350341796875,-0.316162109375,0.89508056640625,4.59075927734375,-5.286102294921875,-1.966400146484375,1.0,1.0,1.0,1.0,1.0,10.0,
2023-09-09 14:53:59.742,1.0630981,0.7196295,1.084832,0.8801522,0.46247807,0.5120694,0.119098276,0.31961453,0.38245592,0.30463722,0.08707022,0.79997724,0.4579606,0.12778388,-0.04621457,0.7385636,0.16621274,-0.5066882,-0.5522269,0.3471315,813.91943,854.61536,819.5604,838.0952,751.4652,0.350341796875,-0.316162109375,0.89508056640625,4.59075927734375,-5.286102294921875,-1.966400146484375,1.0,1.0,1.0,1.0,1.0,10.0,
2023-09-09 14:53:59.824,1.0630981,0.7196295,1.084832,0.8801522,0.46247807,0.5120694,0.119098276,0.31961453,0.38245592,0.30463722,0.08707022,0.79997724,0.4579606,0.12778388,-0.04621457,0.7385636,0.16621274,-0.5066882,-0.5522269,0.3471315,779.67035,833.663,794.9817,783.2967,485.93405,0.35028076171875,-0.307373046875,0.8892822265625,4.14215087890625,-5.0244140625,1.12152099609375,1.0,1.0,1.0,1.0,1.0,10.0,
2023-09-09 14:53:59.828,1.0630981,0.7196295,1.1069067,0.8801522,0.46247807,0.5120694,0.058792055,0.31961453,0.38245592,0.30463722,0.08418831,0.79997724,0.4579606,0.12778388,-0.073876895,0.7385636,0.16621274,-0.5066882,-0.57375896,0.3471315,784.90845,825.2015,803.44324,823.9927,830.0366,0.35028076171875,-0.307373046875,0.8892822265625,4.14215087890625,-5.0244140625,1.12152099609375,1.0,1.0,1.0,1.0,1.0,10.0,
2023-09-09 14:53:59.894,1.0630981,0.7196295,1.1069067,0.8801522,0.46247807,0.5120694,0.058792055,0.31961453,0.38245592,0.30463722,0.08418831,0.79997724,0.4579606,0.12778388,-0.073876895,0.7385636,0.16621274,-0.5066882,-0.57375896,0.3471315,776.8498,824.3956,793.36993,813.5165,786.9231,0.341796875,-0.30426025390625,0.87841796875,4.119720458984375,-3.835601806640625,1.218719482421875,1.0,1.0,1.0,1.0,1.0,10.0,
2023-09-09 14:53:59.927,1.0630981,0.7196295,1.1069067,0.8801522,0.46247807,0.5120694,0.058792055,0.31961453,0.38245592,0.30463722,0.08418831,0.79997724,0.4579606,0.12778388,-0.073876895,0.7385636,0.16621274,-0.5066882,-0.57375896,0.3471315,795.78754,823.1868,794.9817,805.4579,931.1722,0.32366943359375,-0.31524658203125,0.8770751953125,4.14215087890625,-2.61688232421875,-2.429962158203125,1.0,1.0,1.0,1.0,1.0,20.0,
2023-09-09 14:53:59.935,1.0630981,0.7196295,1.132993,0.8801522,0.46247807,0.5120694,0.025195543,0.31961453,0.38245592,0.30463722,0.06219099,0.79997724,0.4579606,0.12778388,-0.1132405,0.7385636,0.16621274,-0.5066882,-0.5831734,0.3471315,801.4286,828.022,801.4286,825.6044,1056.4835,0.32366943359375,-0.31524658203125,0.8770751953125,4.14215087890625,-2.61688232421875,-2.429962158203125,1.0,1.0,1.0,1.0,1.0,20.0,
2023-09-09 14:53:59.968,1.0630981,0.7196295,1.132993,0.8801522,0.46247807,0.5120694,0.025195543,0.31961453,0.38245592,0.30463722,0.06219099,0.79997724,0.4579606,0.12778388,-0.1132405,0.7385636,0.16621274,-0.5066882,-0.5831734,0.3471315,784.90845,833.663,798.20514,772.4176,729.304,0.34735107421875,-0.3193359375,0.89019775390625,4.508514404296875,-4.867401123046875,-2.91595458984375,1.0,1.0,1.0,1.0,1.0,20.0,
2023-09-09 14:53:59.999,1.0630981,0.7196295,1.132993,0.8801522,0.46247807,0.5120694,0.025195543,0.31961453,0.38245592,0.30463722,0.06219099,0.79997724,0.4579606,0.12778388,-0.1132405,0.7385636,0.16621274,-0.5066882,-0.5831734,0.3471315,780.07324,830.4396,806.6667,805.8608,822.381,0.36004638671875,-0.31390380859375,0.88763427734375,5.4132080078125,-4.94964599609375,0.83740234375,1.0,1.0,1.0,1.0,1.0,20.0,
2023-09-09 14:54:00.119,1.0630981,0.7196295,1.132993,0.8801522,0.46247807,0.5120694,0.025195543,0.31961453,0.38245592,0.30463722,0.06219099,0.79997724,0.4579606,0.12778388,-0.1132405,0.7385636,0.16621274,-0.5066882,-0.5831734,0.3471315,757.50916,810.293,802.23444,789.7436,529.0476,0.35693359375,-0.32696533203125,0.877685546875,4.717864990234375,-5.809478759765625,1.457977294921875,1.0,1.0,1.0,1.0,1.0,20.0,
2023-09-09 14:54:00.174,1.0630981,0.7196295,1.132993,0.8801522,0.46247807,0.5120694,0.025195543,0.31961453,0.38245592,0.30463722,0.06219099,0.79997724,0.4579606,0.12778388,-0.1132405,0.7385636,0.16621274,-0.5066882,-0.5831734,0.3471315,792.5641,802.23444,803.8461,782.49084,824.7985,0.35699462890625,-0.3228759765625,0.88433837890625,6.02630615234375,-3.147735595703125,1.973876953125,1.0,1.0,1.0,1.0,1.0,20.0,
2023-09-09 14:54:00.208,1.0630981,0.7196295,1.132993,0.8801522,0.46247807,0.5120694,0.025195543,0.31961453,0.38245592,0.30463722,0.06219099,0.79997724,0.4579606,0.12778388,-0.1132405,0.7385636,0.16621274,-0.5066882,-0.5831734,0.3471315,720.4396,810.293,795.78754,804.65204,746.2271,0.3580322265625,-0.318359375,0.884765625,5.6524658203125,-1.996307373046875,0.22430419921875,1.0,1.0,1.0,1.0,1.0,20.0,
2023-09-09 14:54:00.265,1.0630981,0.7196295,1.132993,0.8801522,0.46247807,0.5120694,0.025195543,0.31961453,0.38245592,0.30463722,0.06219099,0.79997724,0.4579606,0.12778388,-0.1132405,0.7385636,0.16621274,-0.5066882,-0.5831734,0.3471315,766.77655,823.9927,785.7143,789.34064,562.0879,0.34149169921875,-0.3033447265625,0.88922119140625,6.878662109375,-2.609405517578125,0.01495361328125,1.0,1.0,1.0,1.0,1.0,20.0,
2023-09-09 14:54:00.330,1.0630981,0.7196295,1.132993,0.8801522,0.46247807,0.5120694,0.025195543,0.31961453,0.38245592,0.30463722,0.06219099,0.79997724,0.4579606,0.12778388,-0.1132405,0.7385636,0.16621274,-0.5066882,-0.5831734,0.3471315,767.98535,823.9927,780.07324,816.7399,918.68134,0.33795166015625,-0.31201171875,0.8671875,6.332855224609375,-1.27105712890625,-6.11602783203125,1.0,1.0,1.0,1.0,1.0,20.0,
2023-09-09 14:54:03.224,1.0630981,0.90221435,0.9168863,0.72575766,0.46247807,0.41916618,0.40515682,0.65403175,0.38245592,0.3494406,0.46185192,0.62947947,0.4579606,-0.063791454,0.060007963,0.62981886,0.16621274,-0.44688904,-0.6305478,0.1890643,767.98535,486.337,877.5824,757.9121,627.3626,0.3592529296875,-0.311767578125,0.8905029296875,6.497344970703125,-1.62994384765625,-2.19818115234375,1.0,1.0,1.0,1.0,1.0,20.0,
2023-09-09 14:54:03.271,1.0630981,0.90221435,0.9168863,0.72575766,0.46247807,0.41916618,0.40515682,0.65403175,0.38245592,0.3494406,0.46185192,0.62947947,0.4579606,-0.063791454,0.060007963,0.62981886,0.16621274,-0.44688904,-0.6305478,0.1890643,792.5641,673.2967,844.5421,775.2381,704.3223,0.3330078125,-0.3150634765625,0.8681640625,3.828125,-0.575714111328125,-1.51031494140625,1.0,1.0,1.0,1.0,1.0,20.0,
2023-09-09 14:54:03.304,1.0630981,0.90221435,0.9168863,0.72575766,0.46247807,0.41916618,0.40515682,0.65403175,0.38245592,0.3494406,0.46185192,0.62947947,0.4579606,-0.063791454,0.060007963,0.62981886,0.16621274,-0.44688904,-0.6305478,0.1890643,787.72894,818.7546,780.07324,779.2674,923.91943,0.35400390625,-0.326904296875,0.8787841796875,4.41131591796875,-4.254302978515625,-2.46734619140625,1.0,1.0,1.0,1.0,1.0,20.0,
2023-09-09 14:54:03.306,1.0630981,0.90221435,0.9168863,0.69522524,0.46247807,0.41916618,0.40515682,0.62976956,0.38245592,0.3494406,0.46185192,0.7531219,0.4579606,-0.063791454,0.060007963,0.6489023,0.16621274,-0.44688904,-0.6305478,0.24817708,826.0073,892.0879,798.20514,803.8461,631.79486,0.35400390625,-0.326904296875,0.8787841796875,4.41131591796875,-4.254302978515625,-2.46734619140625,1.0,1.0,1.0,1.0,1.0,20.0,
2023-09-09 14:54:03.342,1.0630981,0.90221435,0.9168863,0.69522524,0.46247807,0.41916618,0.40515682,0.62976956,0.38245592,0.3494406,0.46185192,0.7531219,0.4579606,-0.063791454,0.060007963,0.6489023,0.16621274,-0.44688904,-0.6305478,0.24817708,822.381,925.5311,762.74725,814.7253,837.6923,0.3704833984375,-0.31964111328125,0.87646484375,5.316009521484375,-4.717864990234375,1.0467529296875,1.0,1.0,1.0,1.0,1.0,20.0,
2023-09-09 14:54:03.433,1.0630981,0.90221435,0.9168863,0.69522524,0.46247807,0.41916618,0.40515682,0.62976956,0.38245592,0.3494406,0.46185192,0.7531219,0.4579606,-0.063791454,0.060007963,0.6489023,0.16621274,-0.44688904,-0.6305478,0.24817708,807.8755,930.3663,756.7033,812.3077,1178.1685,0.3499755859375,-0.30999755859375,0.8778076171875,5.63751220703125,-3.94775390625,2.758941650390625,1.0,1.0,1.0,1.0,1.0,20.0,
2023-09-09 14:54:03.437,1.0630981,0.90221435,0.9168863,0.6632761,0.46247807,0.41916618,0.40515682,0.6171797,0.38245592,0.3494406,0.46185192,0.8850054,0.4579606,-0.063791454,0.060007963,0.6845243,0.16621274,-0.44688904,-0.6305478,0.31883833,786.1172,917.0696,761.53845,798.60803,738.5714,0.3499755859375,-0.30999755859375,0.8778076171875,5.63751220703125,-3.94775390625,2.758941650390625,1.0,1.0,1.0,1.0,1.0,20.0,
2023-09-09 14:54:03.518,1.0630981,0.90221435,0.9168863,0.6632761,0.46247807,0.41916618,0.40515682,0.6171797,0.38245592,0.3494406,0.46185192,0.8850054,0.4579606,-0.063791454,0.060007963,0.6845243,0.16621274,-0.44688904,-0.6305478,0.31883833,766.3736,904.57874,762.74725,752.674,752.674,0.33465576171875,-0.32275390625,0.88494873046875,5.0244140625,-2.160797119140625,-2.76641845703125,1.0,1.0,1.0,1.0,1.0,20.0,
2023-09-09 14:54:03.524,1.0630981,0.90221435,0.9386809,0.6604983,0.46247807,0.41916618,0.42851377,0.6174374,0.38245592,0.3494406,0.46185192,0.99451,0.4579606,-0.063791454,0.06717545,0.730609,0.16621274,-0.44688904,-0.65539306,0.37519476,759.92676,890.87915,768.3883,776.4469,1113.6996,0.33465576171875,-0.32275390625,0.88494873046875,5.0244140625,-2.160797119140625,-2.76641845703125,1.0,1.0,1.0,1.0,1.0,20.0,
2023-09-09 14:54:03.541,1.0630981,0.90221435,0.9386809,0.6604983,0.46247807,0.41916618,0.42851377,0.6174374,0.38245592,0.3494406,0.46185192,0.99451,0.4579606,-0.063791454,0.06717545,0.730609,0.16621274,-0.44688904,-0.65539306,0.37519476,776.04395,879.19415,772.01465,786.1172,738.1685,0.3746337890625,-0.30810546875,0.89141845703125,4.8150634765625,-4.329071044921875,-0.500946044921875,1.0,1.0,1.0,1.0,1.0,20.0,
2023-09-09 14:54:03.574,1.0630981,0.90221435,0.9386809,0.6604983,0.46247807,0.41916618,0.42851377,0.6174374,0.38245592,0.3494406,0.46185192,0.99451,0.4579606,-0.063791454,0.06717545,0.730609,0.16621274,-0.44688904,-0.65539306,0.37519476,793.7729,867.1062,782.49084,781.28204,809.89014,0.35797119140625,-0.31060791015625,0.87823486328125,3.566436767578125,-2.908477783203125,2.0635986328125,1.0,1.0,1.0,1.0,1.0,20.0,
2023-09-09 14:54:03.580,1.0630981,0.90221435,0.9569649,0.7047774,0.46247807,0.41916618,0.4545074,0.63668895,0.38245592,0.3494406,0.46185192,1.028292,0.4579606,-0.063791454,0.07066148,0.77214557,0.16621274,-0.44688904,-0.6792155,0.40719467,789.7436,870.32965,801.4286,780.07324,865.09155,0.35797119140625,-0.31060791015625,0.87823486328125,3.566436767578125,-2.908477783203125,2.0635986328125,1.0,1.0,1.0,1.0,1.0,20.0,
2023-09-09 14:54:03.615,1.0630981,0.90221435,0.9569649,0.7047774,0.46247807,0.41916618,0.4545074,0.63668895,0.38245592,0.3494406,0.46185192,1.028292,0.4579606,-0.063791454,0.07066148,0.77214557,0.16621274,-0.44688904,-0.6792155,0.40719467,780.07324,870.7326,803.44324,773.6264,607.2161,0.34283447265625,-0.31494140625,0.87176513671875,3.5589599609375,-2.863616943359375,0.5682373046875,1.0,1.0,1.0,1.0,1.0,20.0,
2023-09-09 14:54:03.690,1.0630981,0.90221435,0.9569649,0.7047774,0.46247807,0.41916618,0.4545074,0.63668895,0.38245592,0.3494406,0.46185192,1.028292,0.4579606,-0.063791454,0.07066148,0.77214557,0.16621274,-0.44688904,-0.6792155,0.40719467,786.52014,858.6447,791.3553,778.0586,798.60803,0.34820556640625,-0.31781005859375,0.87432861328125,4.388885498046875,-3.147735595703125,-1.084136962890625,1.0,1.0,1.0,1.0,1.0,20.0,
2023-09-09 14:54:03.698,1.0630981,0.90221435,0.9513802,0.79474235,0.46247807,0.41916618,0.47562826,0.6786488,0.38245592,0.3494406,0.46141136,1.028292,0.4579606,-0.063791454,0.0695561,0.79752076,0.16621274,-0.44688904,-0.6986669,0.41703227,781.685,855.82416,794.57874,783.69965,852.6007,0.34820556640625,-0.31781005859375,0.87432861328125,4.388885498046875,-3.147735595703125,-1.084136962890625,1.0,1.0,1.0,1.0,1.0,20.0,
2023-09-09 14:54:03.765,1.0630981,0.90221435,0.9513802,0.79474235,0.46247807,0.41916618,0.47562826,0.6786488,0.38245592,0.3494406,0.46141136,1.028292,0.4579606,-0.063791454,0.0695561,0.79752076,0.16621274,-0.44688904,-0.6986669,0.41703227,785.7143,840.9158,788.5348,764.7619,828.4249,0.36358642578125,-0.31781005859375,0.8837890625,3.760833740234375,-3.551483154296875,-1.128997802734375,1.0,1.0,1.0,1.0,1.0,20.0,
2023-09-09 14:54:03.804,1.0630981,0.90221435,0.9513802,0.79474235,0.46247807,0.41916618,0.47562826,0.6786488,0.38245592,0.3494406,0.46141136,1.028292,0.4579606,-0.063791454,0.0695561,0.79752076,0.16621274,-0.44688904,-0.6986669,0.41703227,796.5934,830.84247,785.7143,780.87915,868.71796,0.36395263671875,-0.32037353515625,0.8802490234375,5.061798095703125,-3.267364501953125,-0.6280517578125,1.0,1.0,1.0,1.0,1.0,20.0,
2023-09-09 14:54:03.805,1.0630981,0.90221435,0.9021478,0.9024421,0.46247807,0.41916618,0.4843823,0.72793627,0.38245592,0.3494406,0.45661676,1.028292,0.4579606,-0.063791454,0.064292066,0.80427563,0.16621274,-0.44688904,-0.7094516,0.4138614,782.49084,829.2308,787.72894,774.83514,842.52747,0.36395263671875,-0.32037353515625,0.8802490234375,5.061798095703125,-3.267364501953125,-0.6280517578125,1.0,1.0,1.0,1.0,1.0,20.0,
2023-09-09 14:54:03.903,1.0630981,0.90221435,0.9021478,0.9024421,0.46247807,0.41916618,0.4843823,0.72793627,0.38245592,0.3494406,0.45661676,1.028292,0.4579606,-0.063791454,0.064292066,0.80427563,0.16621274,-0.44688904,-0.7094516,0.4138614,771.2088,826.0073,790.14655,768.7912,985.9707,0.3548583984375,-0.31951904296875,0.87213134765625,5.4730224609375,-2.2430419921875,-0.79254150390625,1.0,1.0,1.0,1.0,1.0,20.0,
2023-09-09 14:54:03.914,1.0630981,0.90221435,0.9021478,0.9024421,0.46247807,0.41916618,0.4843823,0.72793627,0.38245592,0.3494406,0.45661676,1.028292,0.4579606,-0.063791454,0.064292066,0.80427563,0.16621274,-0.44688904,-0.7094516,0.4138614,766.3736,830.4396,780.4762,773.22345,583.0403,0.34857177734375,-0.3165283203125,0.8740234375,5.263671875,-2.1533203125,-1.33087158203125,1.0,1.0,1.0,1.0,1.0,20.0,
2023-09-09 14:54:03.916,1.0630981,0.90221435,0.808008,0.9857902,0.46247807,0.41916618,0.47768435,0.7643907,0.38245592,0.3494406,0.45225766,1.028292,0.4579606,-0.063791454,0.05841516,0.7974076,0.16621274,-0.44688904,-0.70874584,0.40648538,774.43225,826.8132,785.31134,769.59705,818.3516,0.34857177734375,-0.3165283203125,0.8740234375,5.263671875,-2.1533203125,-1.33087158203125,1.0,1.0,1.0,1.0,1.0,20.0,
2023-09-09 14:54:03.973,1.0630981,0.90221435,0.808008,0.9857902,0.46247807,0.41916618,0.47768435,0.7643907,0.38245592,0.3494406,0.45225766,1.028292,0.4579606,-0.063791454,0.05841516,0.7974076,0.16621274,-0.44688904,-0.70874584,0.40648538,792.1612,823.9927,783.69965,770.40295,862.674,0.35491943359375,-0.31988525390625,0.8748779296875,5.091705322265625,-3.4393310546875,-1.24114990234375,1.0,1.0,1.0,1.0,1.0,20.0,
2023-09-09 14:54:04.013,1.0630981,0.90221435,0.7126912,0.9857902,0.46247807,0.41916618,0.4625166,0.7643907,0.38245592,0.3494406,0.44665828,1.028292,0.4579606,-0.063791454,0.0596749,0.7974076,0.16621274,-0.44688904,-0.6924179,0.40648538,777.25275,821.5751,792.96704,786.9231,788.5348,0.35491943359375,-0.31988525390625,0.8748779296875,5.091705322265625,-3.4393310546875,-1.24114990234375,1.0,1.0,1.0,1.0,1.0,20.0,
2023-09-09 14:54:04.047,1.0630981,0.90221435,0.7126912,0.9857902,0.46247807,0.41916618,0.4625166,0.7643907,0.38245592,0.3494406,0.44665828,1.028292,0.4579606,-0.063791454,0.0596749,0.7974076,0.16621274,-0.44688904,-0.6924179,0.40648538,763.95605,836.4835,790.14655,768.3883,620.9158,0.361328125,-0.3228759765625,0.87591552734375,4.568328857421875,-4.3365478515625,-1.30096435546875,1.0,1.0,1.0,1.0,1.0,20.0,
2023-09-09 14:54:04.082,1.0630981,0.90221435,0.7126912,0.9857902,0.46247807,0.41916618,0.4625166,0.7643907,0.38245592,0.3494406,0.44665828,1.028292,0.4579606,-0.063791454,0.0596749,0.7974076,0.16621274,-0.44688904,-0.6924179,0.40648538,762.3443,823.5897,784.5055,779.2674,906.5934,0.365234375,-0.31707763671875,0.8775634765625,4.942169189453125,-4.11224365234375,0.560760498046875,1.0,1.0,1.0,1.0,1.0,20.0,
2023-09-09 14:54:04.086,1.0630981,0.9155252,0.68340695,0.9857902,0.46247807,0.46923348,0.45726803,0.7643907,0.38245592,0.30327457,0.44466513,1.028292,0.4579606,-0.07520371,0.07460344,0.7974076,0.16621274,-0.4696141,-0.65691686,0.40648538,754.2857,807.47253,782.0879,760.7326,809.0842,0.365234375,-0.31707763671875,0.8775634765625,4.942169189453125,-4.11224365234375,0.560760498046875,1.0,1.0,1.0,1.0,1.0,20.0,
2023-09-09 14:54:04.116,1.0630981,0.9155252,0.68340695,0.9857902,0.46247807,0.46923348,0.45726803,0.7643907,0.38245592,0.30327457,0.44466513,1.028292,0.4579606,-0.07520371,0.07460344,0.7974076,0.16621274,-0.4696141,-0.65691686,0.40648538,734.5421,804.65204,782.0879,764.35895,859.85345,0.353271484375,-0.314453125,0.87945556640625,5.435638427734375,-3.1103515625,-0.059814453125,1.0,1.0,1.0,1.0,1.0,20.0,
2023-09-09 14:54:04.185,1.0630981,0.9155252,0.68340695,0.9857902,0.46247807,0.46923348,0.45726803,0.7643907,0.38245592,0.30327457,0.44466513,1.028292,0.4579606,-0.07520371,0.07460344,0.7974076,0.16621274,-0.4696141,-0.65691686,0.40648538,763.5531,817.1429,778.46155,780.87915,665.64105,0.3499755859375,-0.31976318359375,0.87347412109375,6.05621337890625,-2.459869384765625,-1.1065673828125,1.0,1.0,1.0,1.0,1.0,20.0,
2023-09-09 14:54:04.193,1.0630981,0.9155252,0.69082737,0.9857902,0.46247807,0.46923348,0.47286475,0.7643907,0.38245592,0.30327457,0.44318497,1.028292,0.4579606,-0.07520371,0.102716796,0.7974076,0.16621274,-0.4696141,-0.6043632,0.40648538,766.77655,821.5751,778.86444,759.5238,575.38464,0.3499755859375,-0.31976318359375,0.87347412109375,6.05621337890625,-2.459869384765625,-1.1065673828125,1.0,1.0,1.0,1.0,1.0,20.0,
2023-09-09 14:54:04.295,1.0630981,0.9155252,0.69082737,0.9857902,0.46247807,0.46923348,0.47286475,0.7643907,0.38245592,0.30327457,0.44318497,1.028292,0.4579606,-0.07520371,0.102716796,0.7974076,0.16621274,-0.4696141,-0.6043632,0.40648538,764.35895,820.7692,787.72894,773.6264,585.4579,0.3642578125,-0.3165283203125,0.88494873046875,5.2337646484375,-4.32159423828125,0.246734619140625,1.0,1.0,1.0,1.0,1.0,20.0,
2023-09-09 14:54:04.306,1.0630981,0.9155252,0.69082737,0.9983746,0.46247807,0.46923348,0.47286475,0.77090687,0.38245592,0.30327457,0.44318497,1.0262518,0.4579606,-0.07520371,0.102716796,0.8135083,0.16621274,-0.4696141,-0.6043632,0.42743126,755.09155,803.8461,786.9231,775.2381,756.30035,0.3642578125,-0.3165283203125,0.88494873046875,5.2337646484375,-4.32159423828125,0.246734619140625,1.0,1.0,1.0,1.0,1.0,20.0,
2023-09-09 14:54:04.339,1.0630981,0.9155252,0.69082737,0.9983746,0.46247807,0.46923348,0.47286475,0.77090687,0.38245592,0.30327457,0.44318497,1.0262518,0.4579606,-0.07520371,0.102716796,0.8135083,0.16621274,-0.4696141,-0.6043632,0.42743126,763.5531,802.6374,783.69965,790.54944,635.42126,0.37188720703125,-0.3074951171875,0.8626708984375,6.168365478515625,-3.289794921875,1.00189208984375,1.0,1.0,1.0,1.0,1.0,20.0,
2023-09-09 14:54:04.384,1.0630981,0.9155252,0.69082737,0.9983746,0.46247807,0.46923348,0.47286475,0.77090687,0.38245592,0.30327457,0.44318497,1.0262518,0.4579606,-0.07520371,0.102716796,0.8135083,0.16621274,-0.4696141,-0.6043632,0.42743126,796.99634,819.9634,782.49084,788.1319,848.5714,0.35186767578125,-0.3074951171875,0.88604736328125,6.646881103515625,-3.03558349609375,-1.06170654296875,1.0,1.0,1.0,1.0,1.0,20.0,
2023-09-09 14:54:04.451,1.0630981,0.9155252,0.69082737,0.9983746,0.46247807,0.46923348,0.47286475,0.77090687,0.38245592,0.30327457,0.44318497,1.0262518,0.4579606,-0.07520371,0.102716796,0.8135083,0.16621274,-0.4696141,-0.6043632,0.42743126,768.3883,819.9634,788.5348,768.7912,670.4762,0.36761474609375,-0.298095703125,0.8709716796875,6.4898681640625,-2.55706787109375,-1.173858642578125,1.0,1.0,1.0,1.0,1.0,20.0,
2023-09-09 14:54:04.452,1.0630981,0.9155252,0.69082737,0.979298,0.46247807,0.46923348,0.47286475,0.75061274,0.38245592,0.30327457,0.44318497,1.0240664,0.4579606,-0.07520371,0.102716796,0.8113661,0.16621274,-0.4696141,-0.6043632,0.44346815,784.90845,819.5604,790.54944,766.77655,685.38464,0.36761474609375,-0.298095703125,0.8709716796875,6.4898681640625,-2.55706787109375,-1.173858642578125,1.0,1.0,1.0,1.0,1.0,20.0,
2023-09-09 14:54:04.506,1.0630981,0.9155252,0.69082737,0.979298,0.46247807,0.46923348,0.47286475,0.75061274,0.38245592,0.30327457,0.44318497,1.0240664,0.4579606,-0.07520371,0.102716796,0.8113661,0.16621274,-0.4696141,-0.6043632,0.44346815,740.58606,814.3223,782.8938,776.4469,1013.7729,0.3482666015625,-0.31121826171875,0.8829345703125,3.349609375,-3.15521240234375,-1.263580322265625,1.0,1.0,1.0,1.0,1.0,20.0,
2023-09-09 14:54:04.519,1.0630981,0.9155252,0.69082737,0.9647086,0.46247807,0.46923348,0.47286475,0.73491484,0.38245592,0.30327457,0.44318497,1.0240664,0.4579606,-0.07520371,0.102716796,0.8093834,0.16621274,-0.4696141,-0.6043632,0.45836103,745.82416,817.1429,781.685,761.9414,751.8681,0.3482666015625,-0.31121826171875,0.8829345703125,3.349609375,-3.15521240234375,-1.263580322265625,1.0,1.0,1.0,1.0,1.0,20.0,
2023-09-09 14:54:04.614,1.0630981,0.9155252,0.69082737,0.9647086,0.46247807,0.46923348,0.47286475,0.73491484,0.38245592,0.30327457,0.44318497,1.0240664,0.4579606,-0.07520371,0.102716796,0.8093834,0.16621274,-0.4696141,-0.6043632,0.45836103,752.27106,813.5165,787.326,754.68866,562.0879,0.36669921875,-0.33831787109375,0.86114501953125,2.564544677734375,-5.076751708984375,-1.054229736328125,1.0,1.0,1.0,1.0,1.0,20.0,
2023-09-09 14:54:04.629,1.0630981,0.9155252,0.69082737,0.9647086,0.46247807,0.46923348,0.47286475,0.73491484,0.38245592,0.30327457,0.44318497,1.0240664,0.4579606,-0.07520371,0.102716796,0.8093834,0.16621274,-0.4696141,-0.6043632,0.45836103,748.24176,807.0696,786.52014,778.0586,825.2015,0.37322998046875,-0.32373046875,0.87109375,4.792633056640625,-5.57769775390625,-0.127105712890625,1.0,1.0,1.0,1.0,1.0,20.0,
2023-09-09 14:54:04.634,1.0630981,0.9155252,0.69082737,0.96394145,0.46247807,0.46923348,0.47286475,0.72873974,0.38245592,0.30327457,0.44318497,1.0277753,0.4579606,-0.07520371,0.102716796,0.80905,0.16621274,-0.4696141,-0.6043632,0.46831098,736.55676,805.4579,783.69965,771.2088,813.5165,0.37322998046875,-0.32373046875,0.87109375,4.792633056640625,-5.57769775390625,-0.127105712890625,1.0,1.0,1.0,1.0,1.0,20.0,
2023-09-09 14:54:04.676,1.0630981,0.9155252,0.69082737,0.96394145,0.46247807,0.46923348,0.47286475,0.72873974,0.38245592,0.30327457,0.44318497,1.0277753,0.4579606,-0.07520371,0.102716796,0.80905,0.16621274,-0.4696141,-0.6043632,0.46831098,741.79486,812.71063,782.0879,763.5531,762.74725,0.3560791015625,-0.31390380859375,0.87799072265625,5.674896240234375,-3.551483154296875,-0.037384033203125,1.0,1.0,1.0,1.0,1.0,20.0,
2023-09-09 14:54:04.709,1.0630981,0.9155252,0.69082737,0.96394145,0.46247807,0.46923348,0.47286475,0.72873974,0.38245592,0.30327457,0.44318497,1.0277753,0.4579606,-0.07520371,0.102716796,0.80905,0.16621274,-0.4696141,-0.6043632,0.46831098,739.7802,798.20514,783.2967,747.03296,529.0476,0.3828125,-0.30816650390625,0.8870849609375,4.164581298828125,-4.403839111328125,-1.069183349609375,1.0,1.0,1.0,1.0,1.0,20.0,
2023-09-09 14:54:04.713,1.189196,0.9155252,0.69082737,0.98235184,0.84778005,0.46923348,0.47286475,0.73226976,0.8083456,0.30327457,0.44318497,1.0290738,0.5414263,-0.07520371,0.102716796,0.8075995,0.16020489,-0.4696141,-0.6043632,0.4671505,758.71796,805.05493,786.9231,767.1795,835.2747,0.3828125,-0.30816650390625,0.8870849609375,4.164581298828125,-4.403839111328125,-1.069183349609375,1.0,1.0,1.0,1.0,1.0,20.0,
2023-09-09 14:54:04.820,1.189196,0.9155252,0.69082737,0.98235184,0.84778005,0.46923348,0.47286475,0.73226976,0.8083456,0.30327457,0.44318497,1.0290738,0.5414263,-0.07520371,0.102716796,0.8075995,0.16020489,-0.4696141,-0.6043632,0.4671505,770.0,795.38464,778.0586,791.3553,804.65204,0.373779296875,-0.3121337890625,0.874267578125,3.70849609375,-3.312225341796875,1.099090576171875,1.0,1.0,1.0,1.0,1.0,20.0,
2023-09-09 14:54:04.827,1.2098366,0.9155252,0.34882277,1.010534,0.9082975,0.46923348,0.035942096,0.7437327,0.8344376,0.30327457,-0.007986607,1.0321586,0.53521264,-0.07520371,-0.12436826,0.8001665,0.18018919,-0.4696141,-0.34857976,0.44941777,749.85345,796.99634,778.0586,789.34064,1207.9854,0.373779296875,-0.3121337890625,0.874267578125,3.70849609375,-3.312225341796875,1.099090576171875,1.0,1.0,1.0,1.0,1.0,20.0,
2023-09-09 14:54:04.869,1.2098366,0.9155252,0.34882277,1.010534,0.9082975,0.46923348,0.035942096,0.7437327,0.8344376,0.30327457,-0.007986607,1.0321586,0.53521264,-0.07520371,-0.12436826,0.8001665,0.18018919,-0.4696141,-0.34857976,0.44941777,760.32965,796.5934,784.5055,756.7033,639.0476,0.3743896484375,-0.3157958984375,0.86834716796875,4.3963623046875,-2.9608154296875,0.58319091796875,1.0,1.0,1.0,1.0,1.0,20.0,
2023-09-09 14:54:04.902,1.2098366,0.9155252,0.34882277,1.010534,0.9082975,0.46923348,0.035942096,0.7437327,0.8344376,0.30327457,-0.007986607,1.0321586,0.53521264,-0.07520371,-0.12436826,0.8001665,0.18018919,-0.4696141,-0.34857976,0.44941777,784.90845,797.8022,790.54944,793.7729,805.4579,0.36444091796875,-0.3172607421875,0.86248779296875,4.732818603515625,-1.95892333984375,0.067291259765625,1.0,1.0,1.0,1.0,1.0,20.0,
2023-09-09 14:54:04.910,1.2432518,0.9155252,0.2949745,1.0424829,0.94671106,0.46923348,0.01881231,0.7602885,0.8417151,0.30327457,-0.007986607,1.0276129,0.54505527,-0.07520371,-0.13269614,0.7830097,0.1887473,-0.4696141,-0.35125554,0.41419512,795.38464,802.23444,796.99634,804.2491,1117.7289,0.36444091796875,-0.3172607421875,0.86248779296875,4.732818603515625,-1.95892333984375,0.067291259765625,1.0,1.0,1.0,1.0,1.0,20.0,
2023-09-09 14:54:04.957,1.2432518,0.9155252,0.2949745,1.0424829,0.94671106,0.46923348,0.01881231,0.7602885,0.8417151,0.30327457,-0.007986607,1.0276129,0.54505527,-0.07520371,-0.13269614,0.7830097,0.1887473,-0.4696141,-0.35125554,0.41419512,799.41394,807.47253,795.38464,778.46155,940.4396,0.369384765625,-0.31805419921875,0.8736572265625,4.41131591796875,-4.029998779296875,-0.889739990234375,1.0,1.0,1.0,1.0,1.0,20.0,
2023-09-09 14:54:05.022,1.2432518,0.9155252,0.2949745,1.0424829,0.94671106,0.46923348,0.01881231,0.7602885,0.8417151,0.30327457,-0.007986607,1.0276129,0.54505527,-0.07520371,-0.13269614,0.7830097,0.1887473,-0.4696141,-0.35125554,0.41419512,767.98535,805.05493,786.9231,759.92676,810.696,0.37725830078125,-0.3193359375,0.873046875,4.687957763671875,-4.493560791015625,0.710296630859375,1.0,1.0,1.0,1.0,1.0,20.0,
2023-09-09 14:54:05.065,1.2693855,0.6524801,0.25157994,1.0604347,0.95798826,0.6129839,0.005873472,0.77508944,0.8417151,0.35971326,-0.007986607,1.0247296,0.55684465,-0.006966962,-0.14463523,0.7551082,0.18746084,-0.6802764,-0.35707518,0.37080765,780.87915,816.7399,787.72894,765.56775,804.65204,0.37725830078125,-0.3193359375,0.873046875,4.687957763671875,-4.493560791015625,0.710296630859375,1.0,1.0,1.0,1.0,1.0,20.0,
2023-09-09 14:54:05.080,1.2693855,0.6524801,0.25157994,1.0604347,0.95798826,0.6129839,0.005873472,0.77508944,0.8417151,0.35971326,-0.007986607,1.0247296,0.55684465,-0.006966962,-0.14463523,0.7551082,0.18746084,-0.6802764,-0.35707518,0.37080765,757.1062,809.0842,791.3553,761.53845,684.17584,0.37530517578125,-0.32220458984375,0.87139892578125,5.016937255859375,-3.6785888671875,0.8673095703125,1.0,1.0,1.0,1.0,1.0,20.0,
2023-09-09 14:54:05.118,1.2693855,0.6524801,0.25157994,1.0604347,0.95798826,0.6129839,0.005873472,0.77508944,0.8417151,0.35971326,-0.007986607,1.0247296,0.55684465,-0.006966962,-0.14463523,0.7551082,0.18746084,-0.6802764,-0.35707518,0.37080765,755.4945,811.0989,797.8022,767.1795,579.41394,0.3720703125,-0.31658935546875,0.87078857421875,5.091705322265625,-2.9010009765625,0.201873779296875,1.0,1.0,1.0,1.0,1.0,20.0,
2023-09-09 14:54:05.120,1.2851415,0.7598619,0.23795027,1.056437,0.94566095,0.54983896,-0.0027664078,0.77464455,0.8417151,0.37778857,-0.0037121892,0.9735939,0.56358737,-0.021568747,-0.1458008,0.7219046,0.18203971,-0.67610806,-0.36553374,0.33213896,769.19415,807.0696,788.5348,765.56775,696.6667,0.3720703125,-0.31658935546875,0.87078857421875,5.091705322265625,-2.9010009765625,0.201873779296875,1.0,1.0,1.0,1.0,1.0,20.0,
2023-09-09 14:54:05.156,1.2851415,0.7598619,0.23795027,1.056437,0.94566095,0.54983896,-0.0027664078,0.77464455,0.8417151,0.37778857,-0.0037121892,0.9735939,0.56358737,-0.021568747,-0.1458008,0.7219046,0.18203971,-0.67610806,-0.36553374,0.33213896,782.49084,812.71063,798.60803,790.54944,818.7546,0.3658447265625,-0.31298828125,0.8724365234375,5.2337646484375,-2.22808837890625,-0.418701171875,1.0,1.0,1.0,1.0,1.0,20.0,
2023-09-09 14:54:05.219,1.2851415,0.7598619,0.23795027,1.056437,0.94566095,0.54983896,-0.0027664078,0.77464455,0.8417151,0.37778857,-0.0037121892,0.9735939,0.56358737,-0.021568747,-0.1458008,0.7219046,0.18203971,-0.67610806,-0.36553374,0.33213896,770.80585,811.9048,795.78754,766.3736,773.22345,0.364501953125,-0.31640625,0.8701171875,4.56085205078125,-3.15521240234375,-1.136474609375,1.0,1.0,1.0,1.0,1.0,20.0,
2023-09-09 14:54:05.222,1.2976862,0.82503796,0.2677965,1.0212708,0.92219406,0.4958953,-0.010833822,0.74533844,0.8417151,0.40060577,0.02368829,0.8620838,0.5654578,-0.031942736,-0.13220097,0.6958941,0.17672668,-0.68127257,-0.37636143,0.30718806,773.6264,813.1135,792.96704,754.2857,785.31134,0.364501953125,-0.31640625,0.8701171875,4.56085205078125,-3.15521240234375,-1.136474609375,1.0,1.0,1.0,1.0,1.0,20.0,
2023-09-09 14:54:05.287,1.2976862,0.82503796,0.2677965,1.0212708,0.92219406,0.4958953,-0.010833822,0.74533844,0.8417151,0.40060577,0.02368829,0.8620838,0.5654578,-0.031942736,-0.13220097,0.6958941,0.17672668,-0.68127257,-0.37636143,0.30718806,768.7912,815.5311,783.69965,766.3736,886.04395,0.3712158203125,-0.31488037109375,0.8719482421875,4.344024658203125,-4.20196533203125,-0.814971923828125,1.0,1.0,1.0,1.0,1.0,20.0,
2023-09-09 14:54:05.292,1.2976862,0.86208993,0.3034321,0.94356704,0.92219406,0.4486204,-0.020566782,0.68520296,0.8417151,0.40296057,0.034542102,0.7998315,0.5654578,-0.03729162,-0.11217727,0.6911477,0.17672668,-0.6923325,-0.38633785,0.29527706,773.6264,810.293,784.5055,767.5824,1049.2307,0.3712158203125,-0.31488037109375,0.8719482421875,4.344024658203125,-4.20196533203125,-0.814971923828125,1.0,1.0,1.0,1.0,1.0,20.0,
2023-09-09 14:54:05.356,1.2976862,0.86208993,0.3034321,0.94356704,0.92219406,0.4486204,-0.020566782,0.68520296,0.8417151,0.40296057,0.034542102,0.7998315,0.5654578,-0.03729162,-0.11217727,0.6911477,0.17672668,-0.6923325,-0.38633785,0.29527706,753.8828,810.696,780.87915,757.9121,664.0293,0.38067626953125,-0.324462890625,0.865478515625,3.820648193359375,-4.194488525390625,-1.33087158203125,1.0,1.0,1.0,1.0,1.0,20.0,
2023-09-09 14:54:05.424,1.2976862,0.86208993,0.3034321,0.94356704,0.92219406,0.4486204,-0.020566782,0.68520296,0.8417151,0.40296057,0.034542102,0.7998315,0.5654578,-0.03729162,-0.11217727,0.6911477,0.17672668,-0.6923325,-0.38633785,0.29527706,747.8388,805.05493,780.87915,753.8828,661.2088,0.37384033203125,-0.323486328125,0.864013671875,4.463653564453125,-3.39447021484375,-1.069183349609375,1.0,1.0,1.0,1.0,1.0,20.0,
2023-09-09 14:54:05.433,1.2976862,0.8703049,0.334427,0.832036,0.92219406,0.40597737,-0.03350134,0.60686445,0.8417151,0.40296057,0.034542102,0.79218805,0.5654578,-0.03784879,-0.094724774,0.71626645,0.17672668,-0.7019035,-0.39254358,0.29540852,757.50916,803.44324,789.34064,730.9158,606.0073,0.37384033203125,-0.323486328125,0.864013671875,4.463653564453125,-3.39447021484375,-1.069183349609375,1.0,1.0,1.0,1.0,1.0,20.0,
2023-09-09 14:54:05.462,1.2976862,0.8703049,0.334427,0.832036,0.92219406,0.40597737,-0.03350134,0.60686445,0.8417151,0.40296057,0.034542102,0.79218805,0.5654578,-0.03784879,-0.094724774,0.71626645,0.17672668,-0.7019035,-0.39254358,0.29540852,770.80585,808.68134,787.326,775.2381,826.0073,0.37799072265625,-0.32611083984375,0.87054443359375,5.12908935546875,-2.833709716796875,-1.772003173828125,1.0,1.0,1.0,1.0,1.0,20.0,
2023-09-09 14:54:05.520,1.2976862,0.8703049,0.334427,0.832036,0.92219406,0.40597737,-0.03350134,0.60686445,0.8417151,0.40296057,0.034542102,0.79218805,0.5654578,-0.03784879,-0.094724774,0.71626645,0.17672668,-0.7019035,-0.39254358,0.29540852,760.32965,801.4286,787.326,756.7033,643.47986,0.385986328125,-0.324951171875,0.86749267578125,4.68048095703125,-3.147735595703125,-1.1065673828125,1.0,1.0,1.0,1.0,1.0,20.0,
2023-09-09 14:54:05.527,1.2976862,0.8644655,0.36042908,0.825314,0.92219406,0.3651578,-0.04958084,0.58434665,0.8417151,0.40296057,0.040505935,0.7978444,0.5654578,-0.03400872,-0.08363287,0.7549756,0.17672668,-0.70160896,-0.39505073,0.30786115,777.6557,799.41394,788.93774,752.674,587.8755,0.385986328125,-0.324951171875,0.86749267578125,4.68048095703125,-3.147735595703125,-1.1065673828125,1.0,1.0,1.0,1.0,1.0,20.0,
2023-09-09 14:54:05.610,1.2976862,0.8644655,0.36042908,0.825314,0.92219406,0.3651578,-0.04958084,0.58434665,0.8417151,0.40296057,0.040505935,0.7978444,0.5654578,-0.03400872,-0.08363287,0.7549756,0.17672668,-0.70160896,-0.39505073,0.30786115,786.1172,796.5934,795.78754,793.7729,1060.1099,0.3770751953125,-0.313720703125,0.8668212890625,5.9814453125,-3.222503662109375,0.605621337890625,1.0,1.0,1.0,1.0,1.0,20.0,
2023-09-09 14:54:05.655,1.2976862,0.8644655,0.36042908,0.825314,0.92219406,0.3651578,-0.04958084,0.58434665,0.8417151,0.40296057,0.040505935,0.7978444,0.5654578,-0.03400872,-0.08363287,0.7549756,0.17672668,-0.70160896,-0.39505073,0.30786115,809.0842,792.5641,784.5055,750.2564,597.9487,0.372314453125,-0.3089599609375,0.871826171875,5.084228515625,-3.162689208984375,0.059814453125,1.0,1.0,1.0,1.0,1.0,20.0,
2023-09-09 14:54:05.656,1.3025297,0.8598757,0.38335207,0.8189541,0.92295265,0.32760122,-0.06867927,0.5622748,1.0728253,0.40296057,0.08909316,0.80538946,0.6039236,-0.025905438,-0.078823075,0.79677755,0.1893413,-0.6901403,-0.39682955,0.324559,805.8608,797.3993,784.90845,770.80585,541.53845,0.372314453125,-0.3089599609375,0.871826171875,5.084228515625,-3.162689208984375,0.059814453125,1.0,1.0,1.0,1.0,1.0,20.0,
2023-09-09 14:54:05.707,1.3025297,0.8598757,0.38335207,0.8189541,0.92295265,0.32760122,-0.06867927,0.5622748,1.0728253,0.40296057,0.08909316,0.80538946,0.6039236,-0.025905438,-0.078823075,0.79677755,0.1893413,-0.6901403,-0.39682955,0.324559,844.1392,805.4579,789.7436,797.3993,805.05493,0.37847900390625,-0.30841064453125,0.86944580078125,4.6954345703125,-2.87109375,-0.306549072265625,1.0,1.0,1.0,1.0,1.0,20.0,
2023-09-09 14:54:05.747,1.3025297,0.8598757,0.38335207,0.8189541,0.92295265,0.32760122,-0.06867927,0.5622748,1.0728253,0.40296057,0.08909316,0.80538946,0.6039236,-0.025905438,-0.078823075,0.79677755,0.1893413,-0.6901403,-0.39682955,0.324559,808.2784,804.2491,788.5348,786.9231,926.7399,0.37615966796875,-0.31072998046875,0.876220703125,3.99261474609375,-2.7215576171875,-0.889739990234375,1.0,1.0,1.0,1.0,1.0,20.0,
2023-09-09 14:54:05.753,1.3331773,0.8586303,0.40544,0.82084084,0.9337588,0.29421955,-0.089385554,0.5415954,1.1479522,0.40296057,0.14406404,0.8192074,0.65650135,-0.016039837,-0.07828734,0.8276091,0.20686266,-0.67111975,-0.4002384,0.33693287,817.5458,797.3993,784.10254,788.5348,736.9597,0.37615966796875,-0.31072998046875,0.876220703125,3.99261474609375,-2.7215576171875,-0.889739990234375,1.0,1.0,1.0,1.0,1.0,20.0,
2023-09-09 14:54:05.798,1.3331773,0.8586303,0.40544,0.82084084,0.9337588,0.29421955,-0.089385554,0.5415954,1.1479522,0.40296057,0.14406404,0.8192074,0.65650135,-0.016039837,-0.07828734,0.8276091,0.20686266,-0.67111975,-0.4002384,0.33693287,806.6667,800.2198,784.90845,765.9707,527.03296,0.3753662109375,-0.32208251953125,0.86297607421875,3.850555419921875,-2.624359130859375,-1.68975830078125,1.0,1.0,1.0,1.0,1.0,20.0,
2023-09-09 14:54:05.891,1.3593947,0.86350244,0.4242431,0.83395344,0.90965885,0.26737055,-0.10896575,0.52397853,1.1819149,0.40296057,0.20014006,0.8423554,0.6945547,-0.0089970585,-0.0794145,0.839631,0.22599164,-0.64335895,-0.40503883,0.34155804,794.57874,773.22345,778.0586,770.80585,877.5824,0.3753662109375,-0.32208251953125,0.86297607421875,3.850555419921875,-2.624359130859375,-1.68975830078125,1.0,1.0,1.0,1.0,1.0,20.0,
2023-09-09 14:54:05.905,1.3593947,0.86350244,0.4242431,0.83395344,0.90965885,0.26737055,-0.10896575,0.52397853,1.1819149,0.40296057,0.20014006,0.8423554,0.6945547,-0.0089970585,-0.0794145,0.839631,0.22599164,-0.64335895,-0.40503883,0.34155804,803.0403,782.49084,786.9231,769.19415,710.7692,0.387451171875,-0.31536865234375,0.869384765625,3.887939453125,-3.050537109375,-1.906585693359375,1.0,1.0,1.0,1.0,1.0,20.0,
2023-09-09 14:54:05.952,1.3593947,0.86350244,0.4242431,0.83395344,0.90965885,0.26737055,-0.10896575,0.52397853,1.1819149,0.40296057,0.20014006,0.8423554,0.6945547,-0.0089970585,-0.0794145,0.839631,0.22599164,-0.64335895,-0.40503883,0.34155804,836.8865,793.7729,788.1319,751.4652,606.4103,0.38861083984375,-0.321044921875,0.862548828125,3.850555419921875,-2.99072265625,-0.755157470703125,1.0,1.0,1.0,1.0,1.0,20.0,
2023-09-09 14:54:05.956,1.3593947,0.86701363,0.43461516,0.87600774,0.90965885,0.25097978,-0.12479418,0.5196308,1.1819149,0.40296057,0.23419397,0.8546013,0.6945547,-0.007779812,-0.08006848,0.8479901,0.22599164,-0.603586,-0.4087302,0.33750853,841.7216,795.78754,784.90845,767.98535,839.707,0.38861083984375,-0.321044921875,0.862548828125,3.850555419921875,-2.99072265625,-0.755157470703125,1.0,1.0,1.0,1.0,1.0,20.0,
2023-09-09 14:54:06.002,1.3593947,0.86701363,0.43461516,0.87600774,0.90965885,0.25097978,-0.12479418,0.5196308,1.1819149,0.40296057,0.23419397,0.8546013,0.6945547,-0.007779812,-0.08006848,0.8479901,0.22599164,-0.603586,-0.4087302,0.33750853,834.4689,799.011,788.5348,791.75824,935.2015,0.38104248046875,-0.32269287109375,0.86883544921875,4.448699951171875,-2.1234130859375,-0.515899658203125,1.0,1.0,1.0,1.0,1.0,20.0,
2023-09-09 14:54:06.044,1.3593947,0.86701363,0.43461516,0.87600774,0.90965885,0.25097978,-0.12479418,0.5196308,1.1819149,0.40296057,0.23419397,0.8546013,0.6945547,-0.007779812,-0.08006848,0.8479901,0.22599164,-0.603586,-0.4087302,0.33750853,846.9597,813.91943,786.52014,780.87915,775.64105,0.3809814453125,-0.32000732421875,0.8671875,4.3963623046875,-2.295379638671875,-0.6280517578125,1.0,1.0,1.0,1.0,1.0,20.0,
2023-09-09 14:54:06.050,1.3593947,0.87889403,0.44431853,0.91652966,0.90965885,0.26634458,-0.14930551,0.5200625,1.1819149,0.40296057,0.22007267,0.85462344,0.6945547,-0.00818266,-0.07432456,0.84691447,0.22599164,-0.55564415,-0.4098063,0.33118597,827.619,801.4286,786.52014,776.04395,888.86444,0.3809814453125,-0.32000732421875,0.8671875,4.3963623046875,-2.295379638671875,-0.6280517578125,1.0,1.0,1.0,1.0,1.0,20.0,
2023-09-09 14:54:06.120,1.3593947,0.87889403,0.44431853,0.91652966,0.90965885,0.26634458,-0.14930551,0.5200625,1.1819149,0.40296057,0.22007267,0.85462344,0.6945547,-0.00818266,-0.07432456,0.84691447,0.22599164,-0.55564415,-0.4098063,0.33118597,807.0696,800.6227,777.6557,803.44324,1209.1941,0.37542724609375,-0.314697265625,0.8626708984375,5.03936767578125,-2.011260986328125,-0.411224365234375,1.0,1.0,1.0,1.0,1.0,20.0,
2023-09-09 14:54:06.126,1.3610221,0.91625947,0.44798782,0.94283766,0.90266854,0.32356992,-0.16030762,0.5326835,1.1808456,0.41129625,0.20267862,0.8755366,0.7153527,-0.002524381,-0.06545899,0.84482414,0.22995351,-0.51320714,-0.41472828,0.32849404,787.72894,796.1905,793.7729,798.60803,884.43225,0.37542724609375,-0.314697265625,0.8626708984375,5.03936767578125,-2.011260986328125,-0.411224365234375,1.0,1.0,1.0,1.0,1.0,20.0,
2023-09-09 14:54:06.176,1.3610221,0.91625947,0.44798782,0.94283766,0.90266854,0.32356992,-0.16030762,0.5326835,1.1808456,0.41129625,0.20267862,0.8755366,0.7153527,-0.002524381,-0.06545899,0.84482414,0.22995351,-0.51320714,-0.41472828,0.32849404,786.1172,798.20514,792.5641,769.19415,674.90845,0.36834716796875,-0.3192138671875,0.87200927734375,5.1141357421875,-2.115936279296875,-0.11962890625,1.0,1.0,1.0,1.0,1.0,20.0,
2023-09-09 14:54:06.220,1.3610221,0.91625947,0.44798782,0.94283766,0.90266854,0.32356992,-0.16030762,0.5326835,1.1808456,0.41129625,0.20267862,0.8755366,0.7153527,-0.002524381,-0.06545899,0.84482414,0.22995351,-0.51320714,-0.41472828,0.32849404,770.80585,910.2198,782.8938,761.53845,533.47986,0.37396240234375,-0.32177734375,0.86236572265625,4.807586669921875,-2.40753173828125,-1.854248046875,1.0,1.0,1.0,1.0,1.0,20.0,
2023-09-09 14:54:06.277,1.3610221,0.91625947,0.44798782,0.94283766,0.90266854,0.32356992,-0.16030762,0.5326835,1.1808456,0.41129625,0.20267862,0.8755366,0.7153527,-0.002524381,-0.06545899,0.84482414,0.22995351,-0.51320714,-0.41472828,0.32849404,787.72894,864.68866,792.1612,797.3993,919.89014,0.3834228515625,-0.32403564453125,0.8690185546875,4.3963623046875,-2.086029052734375,-1.338348388671875,1.0,1.0,1.0,1.0,1.0,20.0,
2023-09-09 14:54:06.279,1.3750628,0.93895614,0.45371264,0.9511496,0.8829728,0.25732583,-0.15442897,0.5517159,1.1763376,0.39884833,0.1970763,0.93218064,0.7410215,-0.011687425,-0.05564334,0.8450277,0.22902247,-0.50320923,-0.4223368,0.3310649,788.1319,861.8681,794.57874,791.3553,948.49817,0.3834228515625,-0.32403564453125,0.8690185546875,4.3963623046875,-2.086029052734375,-1.338348388671875,1.0,1.0,1.0,1.0,1.0,20.0,
2023-09-09 14:54:06.340,1.3750628,0.93895614,0.45371264,0.9511496,0.8829728,0.25732583,-0.15442897,0.5517159,1.1763376,0.39884833,0.1970763,0.93218064,0.7410215,-0.011687425,-0.05564334,0.8450277,0.22902247,-0.50320923,-0.4223368,0.3310649,749.85345,830.0366,788.5348,755.09155,674.5055,0.37677001953125,-0.322021484375,0.86700439453125,4.5758056640625,-3.60382080078125,-0.381317138671875,1.0,1.0,1.0,1.0,1.0,20.0,
2023-09-09 14:54:06.396,1.3866657,0.9638906,0.46239683,0.94735014,0.84326816,0.19716242,-0.13805178,0.5606782,1.1763376,0.38193935,0.22564474,0.97591287,0.7659358,-0.0107608335,-0.045357477,0.8461529,0.22563368,-0.49046984,-0.43322772,0.33797085,751.8681,821.5751,796.5934,774.0293,762.74725,0.37677001953125,-0.322021484375,0.86700439453125,4.5758056640625,-3.60382080078125,-0.381317138671875,1.0,1.0,1.0,1.0,1.0,20.0,
2023-09-09 14:54:06.408,1.3866657,0.9638906,0.46239683,0.94735014,0.84326816,0.19716242,-0.13805178,0.5606782,1.1763376,0.38193935,0.22564474,0.97591287,0.7659358,-0.0107608335,-0.045357477,0.8461529,0.22563368,-0.49046984,-0.43322772,0.33797085,737.3626,815.9341,790.9524,788.1319,893.2967,0.38043212890625,-0.32208251953125,0.87200927734375,4.844970703125,-3.75335693359375,-0.478515625,1.0,1.0,1.0,1.0,1.0,20.0,
2023-09-09 14:54:06.450,1.3866657,0.9638906,0.46239683,0.94735014,0.84326816,0.19716242,-0.13805178,0.5606782,1.1763376,0.38193935,0.22564474,0.97591287,0.7659358,-0.0107608335,-0.045357477,0.8461529,0.22563368,-0.49046984,-0.43322772,0.33797085,760.32965,806.6667,786.1172,762.74725,643.8828,0.380859375,-0.3291015625,0.86163330078125,4.41131591796875,-2.385101318359375,-2.28790283203125,1.0,1.0,1.0,1.0,1.0,20.0,
2023-09-09 14:54:06.453,1.3877568,0.97913456,0.47218794,0.9389909,0.7806157,0.1566637,-0.12591535,0.5505519,1.1713405,0.3596748,0.26116714,0.9809744,0.78927636,-0.006226247,-0.03415426,0.8454291,0.22504024,-0.47820774,-0.445836,0.34425423,767.1795,799.81683,781.28204,774.43225,722.0513,0.380859375,-0.3291015625,0.86163330078125,4.41131591796875,-2.385101318359375,-2.28790283203125,1.0,1.0,1.0,1.0,1.0,20.0,
2023-09-09 14:54:06.500,1.3877568,0.97913456,0.47218794,0.9389909,0.7806157,0.1566637,-0.12591535,0.5505519,1.1713405,0.3596748,0.26116714,0.9809744,0.78927636,-0.006226247,-0.03415426,0.8454291,0.22504024,-0.47820774,-0.445836,0.34425423,755.89746,798.60803,782.49084,798.20514,635.82416,0.36614990234375,-0.308837890625,0.8726806640625,7.185211181640625,-2.340240478515625,-1.682281494140625,1.0,1.0,1.0,1.0,1.0,20.0,
2023-09-09 14:54:06.564,1.3877568,0.97913456,0.47218794,0.9389909,0.7806157,0.1566637,-0.12591535,0.5505519,1.1713405,0.3596748,0.26116714,0.9809744,0.78927636,-0.006226247,-0.03415426,0.8454291,0.22504024,-0.47820774,-0.445836,0.34425423,761.13556,804.65204,772.8205,786.1172,946.4835,0.35430908203125,-0.30419921875,0.86175537109375,5.921630859375,-2.01873779296875,-4.179534912109375,1.0,1.0,1.0,1.0,1.0,20.0,
2023-09-09 14:54:06.570,1.3852974,0.98278475,0.47931203,0.93612397,0.7114827,0.14018114,-0.12641792,0.52534497,1.1682122,0.2952524,0.27396187,0.9809744,0.81624687,-0.00092009845,-0.024443153,0.8541554,0.23357365,-0.46549496,-0.45407513,0.35163411,782.49084,822.381,785.7143,790.9524,770.40295,0.35430908203125,-0.30419921875,0.86175537109375,5.921630859375,-2.01873779296875,-4.179534912109375,1.0,1.0,1.0,1.0,1.0,20.0,
2023-09-09 14:54:06.647,1.3852974,0.98278475,0.47931203,0.93612397,0.7114827,0.14018114,-0.12641792,0.52534497,1.1682122,0.2952524,0.27396187,0.9809744,0.81624687,-0.00092009845,-0.024443153,0.8541554,0.23357365,-0.46549496,-0.45407513,0.35163411,772.8205,804.65204,779.67035,769.59705,650.32965,0.3914794921875,-0.31884765625,0.87127685546875,3.6785888671875,-5.0244140625,-4.9346923828125,1.0,1.0,1.0,1.0,1.0,20.0,
2023-09-09 14:54:06.653,1.3861564,0.9774115,0.48862645,0.9391855,0.6694383,0.14188929,-0.13858289,0.500583,1.1657681,0.262873,0.29399353,0.9809744,0.85574216,0.00669352,-0.019422522,0.86119694,0.2537255,-0.45010382,-0.45215088,0.35816857,766.77655,786.9231,785.31134,805.4579,949.707,0.3914794921875,-0.31884765625,0.87127685546875,3.6785888671875,-5.0244140625,-4.9346923828125,1.0,1.0,1.0,1.0,1.0,20.0,
2023-09-09 14:54:06.704,1.3861564,0.9774115,0.48862645,0.9391855,0.6694383,0.14188929,-0.13858289,0.500583,1.1657681,0.262873,0.29399353,0.9809744,0.85574216,0.00669352,-0.019422522,0.86119694,0.2537255,-0.45010382,-0.45215088,0.35816857,764.35895,784.10254,787.72894,800.2198,925.9341,0.40106201171875,-0.32806396484375,0.87042236328125,4.687957763671875,-5.54779052734375,0.10467529296875,1.0,1.0,1.0,1.0,1.0,20.0,
2023-09-09 14:54:06.740,1.3861564,0.9774115,0.48862645,0.9391855,0.6694383,0.14188929,-0.13858289,0.500583,1.1657681,0.262873,0.29399353,0.9809744,0.85574216,0.00669352,-0.019422522,0.86119694,0.2537255,-0.45010382,-0.45215088,0.35816857,732.9304,793.36993,787.72894,779.2674,830.4396,0.39324951171875,-0.31085205078125,0.8624267578125,6.05621337890625,-3.9178466796875,0.3887939453125,1.0,1.0,1.0,1.0,1.0,20.0,
2023-09-09 14:54:06.747,1.3861564,0.9679142,0.4987784,0.94623005,0.6694383,0.15306698,-0.15652268,0.4856107,1.1657681,0.24924062,0.30386388,0.9809744,0.85574216,0.016036037,-0.018667506,0.8669227,0.2537255,-0.42901266,-0.44109863,0.365434,728.0952,795.38464,791.3553,774.83514,679.34064,0.39324951171875,-0.31085205078125,0.8624267578125,6.05621337890625,-3.9178466796875,0.3887939453125,1.0,1.0,1.0,1.0,1.0,20.0,
2023-09-09 14:54:06.752,1.3861564,0.9679142,0.4987784,0.94623005,0.6694383,0.15306698,-0.15652268,0.4856107,1.1657681,0.24924062,0.30386388,0.9809744,0.85574216,0.016036037,-0.018667506,0.8669227,0.2537255,-0.42901266,-0.44109863,0.365434,734.94507,794.17584,787.72894,794.17584,1123.773,0.36431884765625,-0.2979736328125,0.8751220703125,5.286102294921875,-1.54022216796875,-2.64678955078125,1.0,1.0,1.0,1.0,1.0,20.0,
2023-09-09 14:54:06.811,1.3861564,0.9679142,0.4987784,0.94623005,0.6694383,0.15306698,-0.15652268,0.4856107,1.1657681,0.24924062,0.30386388,0.9809744,0.85574216,0.016036037,-0.018667506,0.8669227,0.2537255,-0.42901266,-0.44109863,0.365434,755.89746,796.99634,771.2088,779.2674,835.6777,0.3564453125,-0.3131103515625,0.86932373046875,4.8748779296875,-2.415008544921875,-6.1309814453125,1.0,1.0,1.0,1.0,1.0,20.0,
2023-09-09 14:54:06.842,1.3861564,0.9586801,0.5129183,0.95607656,0.6694383,0.1736235,-0.1768636,0.48423252,1.1657681,0.23487145,0.30112898,0.97997946,0.85574216,0.025769142,-0.016915556,0.87012345,0.2537255,-0.40069342,-0.43021047,0.37419662,792.96704,801.02563,771.2088,772.8205,589.0842,0.3564453125,-0.3131103515625,0.86932373046875,4.8748779296875,-2.415008544921875,-6.1309814453125,1.0,1.0,1.0,1.0,1.0,20.0,
2023-09-09 14:54:06.946,1.3861564,0.9586801,0.5129183,0.95607656,0.6694383,0.1736235,-0.1768636,0.48423252,1.1657681,0.23487145,0.30112898,0.97997946,0.85574216,0.025769142,-0.016915556,0.87012345,0.2537255,-0.40069342,-0.43021047,0.37419662,765.16486,775.64105,765.9707,776.4469,741.39197,0.3990478515625,-0.31884765625,0.86865234375,3.4393310546875,-4.209442138671875,-4.85992431640625,1.0,1.0,1.0,1.0,1.0,20.0,
2023-09-09 14:54:06.958,1.3861564,0.9586801,0.5129183,0.95607656,0.6694383,0.1736235,-0.1768636,0.48423252,1.1657681,0.23487145,0.30112898,0.97997946,0.85574216,0.025769142,-0.016915556,0.87012345,0.2537255,-0.40069342,-0.43021047,0.37419662,766.77655,745.42126,773.22345,783.2967,768.7912,0.42706298828125,-0.331298828125,0.85772705078125,2.82623291015625,-6.4300537109375,1.1663818359375,1.0,1.0,1.0,1.0,1.0,20.0,
2023-09-09 14:54:06.960,1.3861564,0.9634379,0.52617866,0.94704944,0.6694383,0.20507036,-0.19601679,0.4797367,1.1657681,0.22926605,0.29502252,0.9808695,0.85574216,0.03461399,-0.008827093,0.88496864,0.2537255,-0.3662274,-0.4285325,0.37024948,761.13556,732.1245,761.53845,780.4762,672.49084,0.42706298828125,-0.331298828125,0.85772705078125,2.82623291015625,-6.4300537109375,1.1663818359375,1.0,1.0,1.0,1.0,1.0,20.0,
2023-09-09 14:54:07.024,1.3861564,0.9634379,0.52617866,0.94704944,0.6694383,0.20507036,-0.19601679,0.4797367,1.1657681,0.22926605,0.29502252,0.9808695,0.85574216,0.03461399,-0.008827093,0.88496864,0.2537255,-0.3662274,-0.4285325,0.37024948,761.13556,709.5604,753.47986,785.7143,598.3516,0.4183349609375,-0.31195068359375,0.8489990234375,5.570220947265625,-5.443115234375,5.36834716796875,1.0,1.0,1.0,1.0,1.0,20.0,
2023-09-09 14:54:07.092,1.3861564,0.9634379,0.52617866,0.94704944,0.6694383,0.20507036,-0.19601679,0.4797367,1.1657681,0.22926605,0.29502252,0.9808695,0.85574216,0.03461399,-0.008827093,0.88496864,0.2537255,-0.3662274,-0.4285325,0.37024948,797.3993,697.47253,745.82416,818.3516,811.9048,0.36907958984375,-0.29718017578125,0.8541259765625,7.117919921875,-2.91595458984375,1.435546875,1.0,1.0,1.0,1.0,1.0,20.0,
2023-09-09 14:54:07.096,1.3861564,0.9839383,0.54436344,0.93625635,0.6694383,0.2526097,-0.20406622,0.47557896,1.1657681,0.22319818,0.28951308,1.0258579,0.85574216,0.040796597,0.0054521905,0.8836857,0.2537255,-0.32909858,-0.437003,0.35964248,800.6227,703.91943,734.1392,812.71063,882.01465,0.36907958984375,-0.29718017578125,0.8541259765625,7.117919921875,-2.91595458984375,1.435546875,1.0,1.0,1.0,1.0,1.0,20.0,
2023-09-09 14:54:07.169,1.3861564,0.9839383,0.54436344,0.93625635,0.6694383,0.2526097,-0.20406622,0.47557896,1.1657681,0.22319818,0.28951308,1.0258579,0.85574216,0.040796597,0.0054521905,0.8836857,0.2537255,-0.32909858,-0.437003,0.35964248,803.0403,706.337,716.8132,819.15753,888.46155,0.36968994140625,-0.298583984375,0.88214111328125,6.6693115234375,-1.55517578125,-5.121612548828125,1.0,1.0,1.0,1.0,1.0,20.0,
2023-09-09 14:54:07.182,1.3861564,1.0109081,0.54185677,0.9251956,0.6694383,0.3153933,-0.19456598,0.4678492,1.1657681,0.20870434,0.28935522,1.0306886,0.85574216,0.040769763,0.007821955,0.8592852,0.2537255,-0.29068607,-0.43847567,0.34129727,817.5458,693.44324,728.0952,817.1429,1050.8425,0.36968994140625,-0.298583984375,0.88214111328125,6.6693115234375,-1.55517578125,-5.121612548828125,1.0,1.0,1.0,1.0,1.0,20.0,
2023-09-09 14:54:07.248,1.3861564,1.0109081,0.54185677,0.9251956,0.6694383,0.3153933,-0.19456598,0.4678492,1.1657681,0.20870434,0.28935522,1.0306886,0.85574216,0.040769763,0.007821955,0.8592852,0.2537255,-0.29068607,-0.43847567,0.34129727,823.5897,685.38464,723.2601,818.7546,809.0842,0.4359130859375,-0.30291748046875,0.8883056640625,3.51409912109375,-6.34033203125,-0.11962890625,1.0,1.0,1.0,1.0,1.0,20.0,
2023-09-09 14:54:07.260,1.3861564,1.0109081,0.54185677,0.9251956,0.6694383,0.3153933,-0.19456598,0.4678492,1.1657681,0.20870434,0.28935522,1.0306886,0.85574216,0.040769763,0.007821955,0.8592852,0.2537255,-0.29068607,-0.43847567,0.34129727,794.9817,632.6007,715.2015,797.3993,952.1245,0.448486328125,-0.31396484375,0.8515625,3.768310546875,-5.8319091796875,7.888031005859375,1.0,1.0,1.0,1.0,1.0,20.0,
2023-09-09 14:54:07.266,1.3861564,1.0439277,0.5363063,0.9292365,0.6694383,0.3953448,-0.17905974,0.46380502,1.1657681,0.1961197,0.28935522,1.0154625,0.85574216,0.032610413,0.013389247,0.8203076,0.2537255,-0.24879113,-0.43810079,0.31797174,792.96704,586.6667,726.08057,799.011,839.304,0.448486328125,-0.31396484375,0.8515625,3.768310546875,-5.8319091796875,7.888031005859375,1.0,1.0,1.0,1.0,1.0,20.0,
2023-09-09 14:54:07.307,1.3861564,1.0439277,0.5363063,0.9292365,0.6694383,0.3953448,-0.17905974,0.46380502,1.1657681,0.1961197,0.28935522,1.0154625,0.85574216,0.032610413,0.013389247,0.8203076,0.2537255,-0.24879113,-0.43810079,0.31797174,787.326,575.38464,715.2015,780.07324,505.67764,0.38726806640625,-0.29962158203125,0.85308837890625,5.405731201171875,0.777587890625,5.226287841796875,1.0,1.0,1.0,1.0,1.0,20.0,
2023-09-09 14:54:07.340,1.3861564,1.0439277,0.5363063,0.9292365,0.6694383,0.3953448,-0.17905974,0.46380502,1.1657681,0.1961197,0.28935522,1.0154625,0.85574216,0.032610413,0.013389247,0.8203076,0.2537255,-0.24879113,-0.43810079,0.31797174,804.65204,580.6227,710.7692,797.8022,799.81683,0.3682861328125,-0.30474853515625,0.8585205078125,4.23187255859375,1.308441162109375,-3.327178955078125,1.0,1.0,1.0,1.0,1.0,20.0,
2023-09-09 14:54:07.347,1.3861564,1.0439277,0.5290761,0.9610889,0.6694383,0.3953448,-0.16031162,0.4674762,1.1657681,0.1961197,0.28935522,1.0038071,0.85574216,0.032610413,0.021267971,0.78606147,0.2537255,-0.24879113,-0.4353294,0.2994195,798.20514,632.6007,698.68134,816.7399,796.99634,0.3682861328125,-0.30474853515625,0.8585205078125,4.23187255859375,1.308441162109375,-3.327178955078125,1.0,1.0,1.0,1.0,1.0,20.0,
2023-09-09 14:54:07.441,1.3861564,1.0439277,0.5290761,0.9610889,0.6694383,0.3953448,-0.16031162,0.4674762,1.1657681,0.1961197,0.28935522,1.0038071,0.85574216,0.032610413,0.021267971,0.78606147,0.2537255,-0.24879113,-0.4353294,0.2994195,808.68134,661.6117,711.1722,801.8315,606.4103,0.3856201171875,-0.31097412109375,0.862548828125,3.207550048828125,-3.27484130859375,-2.03369140625,1.0,1.0,1.0,1.0,1.0,20.0,
2023-09-09 14:54:07.481,1.3861564,1.0439277,0.5290761,0.9610889,0.6694383,0.3953448,-0.16031162,0.4674762,1.1657681,0.1961197,0.28935522,1.0038071,0.85574216,0.032610413,0.021267971,0.78606147,0.2537255,-0.24879113,-0.4353294,0.2994195,807.0696,690.2198,715.6044,826.0073,943.2601,0.38800048828125,-0.32470703125,0.87103271484375,4.0972900390625,-3.36456298828125,0.949554443359375,1.0,1.0,1.0,1.0,1.0,20.0,
2023-09-09 14:54:07.482,1.3861564,1.0439277,0.5262903,0.9473115,0.6694383,0.3953448,-0.14181061,0.4836764,1.1657681,0.1961197,0.28935522,0.9974541,0.85574216,0.032610413,0.030054646,0.78793633,0.2537255,-0.24879113,-0.4328143,0.2949614,807.0696,693.44324,715.6044,813.1135,854.21246,0.38800048828125,-0.32470703125,0.87103271484375,4.0972900390625,-3.36456298828125,0.949554443359375,1.0,1.0,1.0,1.0,1.0,20.0,
2023-09-09 14:54:07.532,1.3861564,1.0439277,0.5262903,0.9473115,0.6694383,0.3953448,-0.14181061,0.4836764,1.1657681,0.1961197,0.28935522,0.9974541,0.85574216,0.032610413,0.030054646,0.78793633,0.2537255,-0.24879113,-0.4328143,0.2949614,806.6667,704.7253,714.7985,809.89014,752.27106,0.381591796875,-0.32244873046875,0.86004638671875,5.5029296875,-1.7047119140625,-0.35888671875,1.0,1.0,1.0,1.0,1.0,20.0,
2023-09-09 14:54:07.605,1.3861564,1.0439277,0.5262903,0.9473115,0.6694383,0.3953448,-0.14181061,0.4836764,1.1657681,0.1961197,0.28935522,0.9974541,0.85574216,0.032610413,0.030054646,0.78793633,0.2537255,-0.24879113,-0.4328143,0.2949614,825.6044,745.0183,721.6484,815.5311,687.3993,0.3951416015625,-0.31793212890625,0.86236572265625,5.18890380859375,-2.459869384765625,-0.231781005859375,1.0,1.0,1.0,1.0,1.0,20.0,
2023-09-09 14:54:07.609,1.3861564,1.0439277,0.5282523,0.9221426,0.6694383,0.3953448,-0.13161713,0.4847837,1.1657681,0.1961197,0.28657344,0.9935675,0.85574216,0.032610413,0.03760436,0.805334,0.2537255,-0.24879113,-0.43400404,0.29049912,826.0073,747.03296,729.707,814.3223,881.2088,0.3951416015625,-0.31793212890625,0.86236572265625,5.18890380859375,-2.459869384765625,-0.231781005859375,1.0,1.0,1.0,1.0,1.0,20.0,
2023-09-09 14:54:07.652,1.3861564,1.0439277,0.5282523,0.9221426,0.6694383,0.3953448,-0.13161713,0.4847837,1.1657681,0.1961197,0.28657344,0.9935675,0.85574216,0.032610413,0.03760436,0.805334,0.2537255,-0.24879113,-0.43400404,0.29049912,815.12823,774.83514,735.7509,838.9011,894.10254,0.384765625,-0.32135009765625,0.858642578125,5.046844482421875,-2.76641845703125,0.545806884765625,1.0,1.0,1.0,1.0,1.0,20.0,
2023-09-09 14:54:07.674,1.3861564,1.0439277,0.5314072,0.8974738,0.6694383,0.3953448,-0.14101695,0.4539631,1.1657681,0.1961197,0.2634336,0.9935675,0.85574216,0.032610413,0.042052686,0.8262377,0.2537255,-0.24879113,-0.43828714,0.28496537,774.83514,814.7253,757.50916,810.293,737.76556,0.384765625,-0.32135009765625,0.858642578125,5.046844482421875,-2.76641845703125,0.545806884765625,1.0,1.0,1.0,1.0,1.0,20.0,
2023-09-09 14:54:07.705,1.3861564,1.0439277,0.5314072,0.8974738,0.6694383,0.3953448,-0.14101695,0.4539631,1.1657681,0.1961197,0.2634336,0.9935675,0.85574216,0.032610413,0.042052686,0.8262377,0.2537255,-0.24879113,-0.43828714,0.28496537,795.38464,821.5751,757.9121,821.1722,740.989,0.3848876953125,-0.3175048828125,0.861572265625,6.018829345703125,-3.050537109375,-1.099090576171875,1.0,1.0,1.0,1.0,1.0,20.0,
2023-09-09 14:54:07.774,1.3861564,1.0439277,0.5314072,0.8974738,0.6694383,0.3953448,-0.14101695,0.4539631,1.1657681,0.1961197,0.2634336,0.9935675,0.85574216,0.032610413,0.042052686,0.8262377,0.2537255,-0.24879113,-0.43828714,0.28496537,830.4396,848.5714,766.3736,821.1722,848.97437,0.38104248046875,-0.302978515625,0.87640380859375,5.435638427734375,-2.370147705078125,-0.964508056640625,1.0,1.0,1.0,1.0,1.0,20.0,
2023-09-09 14:54:07.779,1.3861564,1.0439277,0.53932697,0.877519,0.6694383,0.3953448,-0.1800162,0.3801646,1.1657681,0.1961197,0.22077958,0.9864836,0.85574216,0.032610413,0.043326244,0.84713507,0.2537255,-0.24879113,-0.4400019,0.27948737,807.8755,849.3773,782.0879,807.0696,640.2564,0.38104248046875,-0.302978515625,0.87640380859375,5.435638427734375,-2.370147705078125,-0.964508056640625,1.0,1.0,1.0,1.0,1.0,20.0,
2023-09-09 14:54:07.807,1.3861564,1.0439277,0.53932697,0.877519,0.6694383,0.3953448,-0.1800162,0.3801646,1.1657681,0.1961197,0.22077958,0.9864836,0.85574216,0.032610413,0.043326244,0.84713507,0.2537255,-0.24879113,-0.4400019,0.27948737,801.4286,848.5714,781.685,812.71063,584.2491,0.4000244140625,-0.3079833984375,0.86224365234375,4.448699951171875,-4.42626953125,-2.3626708984375,1.0,1.0,1.0,1.0,1.0,20.0,
2023-09-09 14:54:07.877,1.3861564,1.0439277,0.53932697,0.877519,0.6694383,0.3953448,-0.1800162,0.3801646,1.1657681,0.1961197,0.22077958,0.9864836,0.85574216,0.032610413,0.043326244,0.84713507,0.2537255,-0.24879113,-0.4400019,0.27948737,835.2747,849.3773,783.2967,813.1135,852.1978,0.4049072265625,-0.31463623046875,0.86083984375,4.38140869140625,-2.28790283203125,-0.299072265625,1.0,1.0,1.0,1.0,1.0,20.0,
2023-09-09 14:54:07.884,1.3861564,1.0439277,0.5585311,0.8626532,0.6694383,0.3953448,-0.2508305,0.2654908,1.1657681,0.1961197,0.17518647,0.96799934,0.85574216,0.032610413,0.043996364,0.87257683,0.2537255,-0.24879113,-0.43198198,0.27106503,839.707,858.24176,793.36993,788.93774,654.35895,0.4049072265625,-0.31463623046875,0.86083984375,4.38140869140625,-2.28790283203125,-0.299072265625,1.0,1.0,1.0,1.0,1.0,20.0,
2023-09-09 14:54:07.931,1.3861564,1.0439277,0.5585311,0.8626532,0.6694383,0.3953448,-0.2508305,0.2654908,1.1657681,0.1961197,0.17518647,0.96799934,0.85574216,0.032610413,0.043996364,0.87257683,0.2537255,-0.24879113,-0.43198198,0.27106503,831.2454,859.45056,798.60803,794.9817,632.1978,0.399658203125,-0.313720703125,0.8629150390625,4.762725830078125,-3.27484130859375,0.814971923828125,1.0,1.0,1.0,1.0,1.0,20.0,
2023-09-09 14:54:07.943,1.3861564,1.0439277,0.5911931,0.84715533,0.6694383,0.3953448,-0.33987585,0.116230495,1.1657681,0.1961197,0.12801832,0.9221131,0.85574216,0.032610413,0.048799448,0.9083392,0.2537255,-0.24879113,-0.4140116,0.26362687,826.8132,880.40295,814.3223,822.7839,893.69965,0.399658203125,-0.313720703125,0.8629150390625,4.762725830078125,-3.27484130859375,0.814971923828125,1.0,1.0,1.0,1.0,1.0,20.0,
2023-09-09 14:54:08.031,1.3861564,1.0439277,0.5911931,0.84715533,0.6694383,0.3953448,-0.33987585,0.116230495,1.1657681,0.1961197,0.12801832,0.9221131,0.85574216,0.032610413,0.048799448,0.9083392,0.2537255,-0.24879113,-0.4140116,0.26362687,823.5897,876.3736,812.71063,828.8278,1159.6337,0.394287109375,-0.30908203125,0.86480712890625,4.80010986328125,-3.072967529296875,-0.396270751953125,1.0,1.0,1.0,1.0,1.0,20.0,
2023-09-09 14:54:08.050,1.3861564,1.0439277,0.5911931,0.84715533,0.6694383,0.3953448,-0.33987585,0.116230495,1.1657681,0.1961197,0.12801832,0.9221131,0.85574216,0.032610413,0.048799448,0.9083392,0.2537255,-0.24879113,-0.4140116,0.26362687,793.7729,872.3443,819.5604,808.68134,817.9487,0.3956298828125,-0.30908203125,0.8660888671875,4.0374755859375,-2.848663330078125,0.007476806640625,1.0,1.0,1.0,1.0,1.0,20.0,
2023-09-09 14:54:08.100,1.3861564,1.0439277,0.5911931,0.84715533,0.6694383,0.3953448,-0.33987585,0.116230495,1.1657681,0.1961197,0.12801832,0.9221131,0.85574216,0.032610413,0.048799448,0.9083392,0.2537255,-0.24879113,-0.4140116,0.26362687,783.2967,883.22345,819.9634,796.5934,582.6374,0.39447021484375,-0.31365966796875,0.8663330078125,3.00567626953125,-2.609405517578125,0.351409912109375,1.0,1.0,1.0,1.0,1.0,20.0,
2023-09-09 14:54:08.102,1.3861564,1.0439277,0.6399651,0.84715533,0.6694383,0.3953448,-0.42114466,0.116230495,1.1657681,0.1961197,0.0643549,0.9221131,0.85574216,0.032610413,0.06319312,0.9083392,0.2537255,-0.24879113,-0.39707956,0.26362687,794.17584,888.0586,823.9927,801.02563,696.6667,0.39447021484375,-0.31365966796875,0.8663330078125,3.00567626953125,-2.609405517578125,0.351409912109375,1.0,1.0,1.0,1.0,1.0,20.0,
2023-09-09 14:54:08.162,1.3861564,1.0439277,0.6399651,0.84715533,0.6694383,0.3953448,-0.42114466,0.116230495,1.1657681,0.1961197,0.0643549,0.9221131,0.85574216,0.032610413,0.06319312,0.9083392,0.2537255,-0.24879113,-0.39707956,0.26362687,790.9524,902.1612,813.5165,804.2491,736.55676,0.3851318359375,-0.33013916015625,0.853759765625,3.536529541015625,-1.069183349609375,-1.697235107421875,1.0,1.0,1.0,1.0,1.0,20.0,
2023-09-09 14:54:08.204,1.3861564,1.0439277,0.6867433,0.84715533,0.6694383,0.3953448,-0.4776275,0.116230495,1.1657681,0.1961197,-0.04319956,0.9221131,0.85574216,0.032610413,0.08946061,0.9083392,0.2537255,-0.24879113,-0.39782512,0.26362687,796.1905,901.75824,821.5751,799.81683,656.3736,0.3851318359375,-0.33013916015625,0.853759765625,3.536529541015625,-1.069183349609375,-1.697235107421875,1.0,1.0,1.0,1.0,1.0,20.0,
2023-09-09 14:54:08.219,1.3861564,1.0439277,0.6867433,0.84715533,0.6694383,0.3953448,-0.4776275,0.116230495,1.1657681,0.1961197,-0.04319956,0.9221131,0.85574216,0.032610413,0.08946061,0.9083392,0.2537255,-0.24879113,-0.39782512,0.26362687,794.17584,900.14655,822.7839,785.31134,693.0403,0.384521484375,-0.31573486328125,0.86151123046875,4.94964599609375,-2.25799560546875,-1.5252685546875,1.0,1.0,1.0,1.0,1.0,20.0,
2023-09-09 14:54:08.273,1.3861564,1.0439277,0.6867433,0.84715533,0.6694383,0.3953448,-0.4776275,0.116230495,1.1657681,0.1961197,-0.04319956,0.9221131,0.85574216,0.032610413,0.08946061,0.9083392,0.2537255,-0.24879113,-0.39782512,0.26362687,816.337,892.49084,830.84247,826.0073,803.44324,0.3875732421875,-0.3172607421875,0.85546875,4.6954345703125,-3.289794921875,-2.2430419921875,1.0,1.0,1.0,1.0,1.0,20.0,
2023-09-09 14:54:08.325,1.3861564,1.0439277,0.6867433,0.84715533,0.6694383,0.3953448,-0.4776275,0.116230495,1.1657681,0.1961197,-0.04319956,0.9221131,0.85574216,0.032610413,0.08946061,0.9083392,0.2537255,-0.24879113,-0.39782512,0.26362687,814.7253,888.46155,832.8571,792.1612,894.10254,0.40557861328125,-0.318603515625,0.8592529296875,4.18701171875,-5.226287841796875,-0.11962890625,1.0,1.0,1.0,1.0,1.0,20.0,
2023-09-09 14:54:08.359,1.3861564,1.0439277,0.6867433,0.84715533,0.6694383,0.3953448,-0.4776275,0.116230495,1.1657681,0.1961197,-0.04319956,0.9221131,0.85574216,0.032610413,0.08946061,0.9083392,0.2537255,-0.24879113,-0.39782512,0.26362687,807.47253,889.2674,828.022,782.0879,580.2198,0.4088134765625,-0.32440185546875,0.8642578125,3.880462646484375,-4.47113037109375,0.538330078125,1.0,1.0,1.0,1.0,1.0,20.0,
2023-09-09 14:54:08.363,1.6937104,1.0439277,0.6867433,0.8771802,1.2907633,0.3953448,-0.4776275,0.26554626,0.98758864,0.1961197,-0.04319956,0.94660074,0.61657083,0.032610413,0.08946061,0.89447033,0.062161062,-0.24879113,-0.39782512,0.28744772,789.7436,867.1062,818.7546,798.60803,1247.4725,0.4088134765625,-0.32440185546875,0.8642578125,3.880462646484375,-4.47113037109375,0.538330078125,1.0,1.0,1.0,1.0,1.0,20.0,
2023-09-09 14:54:08.475,1.6937104,1.0439277,0.6867433,0.8771802,1.2907633,0.3953448,-0.4776275,0.26554626,0.98758864,0.1961197,-0.04319956,0.94660074,0.61657083,0.032610413,0.08946061,0.89447033,0.062161062,-0.24879113,-0.39782512,0.28744772,806.6667,877.1795,825.2015,781.28204,707.9487,0.3988037109375,-0.314208984375,0.85943603515625,5.420684814453125,-2.3028564453125,-0.55328369140625,1.0,1.0,1.0,1.0,1.0,20.0,
2023-09-09 14:54:08.482,1.7205632,1.0439277,0.6867433,0.91757727,1.2433327,0.3953448,-0.4776275,0.35671267,0.98758864,0.1961197,-0.04319956,0.9325131,0.6087571,0.032610413,0.08946061,0.8585762,0.031786673,-0.24879113,-0.39782512,0.31055602,820.7692,881.6117,828.8278,822.7839,1077.033,0.3988037109375,-0.314208984375,0.85943603515625,5.420684814453125,-2.3028564453125,-0.55328369140625,1.0,1.0,1.0,1.0,1.0,20.0,
2023-09-09 14:54:08.520,1.7205632,1.0439277,0.6867433,0.91757727,1.2433327,0.3953448,-0.4776275,0.35671267,0.98758864,0.1961197,-0.04319956,0.9325131,0.6087571,0.032610413,0.08946061,0.8585762,0.031786673,-0.24879113,-0.39782512,0.31055602,825.2015,882.4176,818.3516,792.5641,619.707,0.39801025390625,-0.3013916015625,0.86474609375,4.94964599609375,-1.158905029296875,-0.755157470703125,1.0,1.0,1.0,1.0,1.0,20.0,
2023-09-09 14:54:08.553,1.7205632,1.0439277,0.6867433,0.91757727,1.2433327,0.3953448,-0.4776275,0.35671267,0.98758864,0.1961197,-0.04319956,0.9325131,0.6087571,0.032610413,0.08946061,0.8585762,0.031786673,-0.24879113,-0.39782512,0.31055602,811.0989,887.25275,819.9634,804.2491,874.7619,0.36444091796875,-0.31524658203125,0.85205078125,2.392578125,-2.100982666015625,-1.816864013671875,1.0,1.0,1.0,1.0,1.0,20.0,
2023-09-09 14:54:08.566,1.7205632,1.0439277,0.6867433,0.9414862,1.2433327,0.3953448,-0.4776275,0.44526765,0.98758864,0.1961197,-0.04319956,0.87687004,0.6087571,0.032610413,0.08946061,0.8228514,0.031786673,-0.24879113,-0.39782512,0.31934598,816.337,880.80585,820.7692,770.40295,889.67035,0.36444091796875,-0.31524658203125,0.85205078125,2.392578125,-2.100982666015625,-1.816864013671875,1.0,1.0,1.0,1.0,1.0,20.0,
2023-09-09 14:54:08.616,1.7205632,1.0439277,0.6867433,0.9414862,1.2433327,0.3953448,-0.4776275,0.44526765,0.98758864,0.1961197,-0.04319956,0.87687004,0.6087571,0.032610413,0.08946061,0.8228514,0.031786673,-0.24879113,-0.39782512,0.31934598,805.05493,880.40295,820.3663,765.56775,901.75824,0.39007568359375,-0.34185791015625,0.84112548828125,3.476715087890625,-4.194488525390625,-4.9945068359375,1.0,1.0,1.0,1.0,1.0,20.0,
2023-09-09 14:54:08.661,1.7205632,1.0439277,0.6867433,0.9414862,1.2433327,0.3953448,-0.4776275,0.44526765,0.98758864,0.1961197,-0.04319956,0.87687004,0.6087571,0.032610413,0.08946061,0.8228514,0.031786673,-0.24879113,-0.39782512,0.31934598,773.22345,859.85345,822.7839,785.7143,918.68134,0.43865966796875,-0.3367919921875,0.85809326171875,6.0113525390625,-6.53472900390625,-0.61309814453125,1.0,1.0,1.0,1.0,1.0,20.0,
2023-09-09 14:54:08.719,1.7205632,1.0439277,0.6867433,0.9596493,1.2433327,0.3953448,-0.4776275,0.5298591,0.98758864,0.1961197,-0.04319956,0.7644731,0.6087571,0.032610413,0.08946061,0.7981969,0.031786673,-0.24879113,-0.39782512,0.3140953,770.40295,835.2747,813.5165,763.1502,802.23444,0.43865966796875,-0.3367919921875,0.85809326171875,6.0113525390625,-6.53472900390625,-0.61309814453125,1.0,1.0,1.0,1.0,1.0,20.0,
2023-09-09 14:54:08.784,1.7205632,1.0439277,0.6867433,0.9596493,1.2433327,0.3953448,-0.4776275,0.5298591,0.98758864,0.1961197,-0.04319956,0.7644731,0.6087571,0.032610413,0.08946061,0.7981969,0.031786673,-0.24879113,-0.39782512,0.3140953,792.96704,817.9487,804.65204,773.6264,607.2161,0.4310302734375,-0.3092041015625,0.86822509765625,6.50482177734375,-4.8150634765625,4.8748779296875,1.0,1.0,1.0,1.0,1.0,20.0,
2023-09-09 14:54:08.832,1.7205632,1.0439277,0.6867433,0.9596493,1.2433327,0.3953448,-0.4776275,0.5298591,0.98758864,0.1961197,-0.04319956,0.7644731,0.6087571,0.032610413,0.08946061,0.7981969,0.031786673,-0.24879113,-0.39782512,0.3140953,804.2491,832.4542,791.3553,763.1502,588.68134,0.38739013671875,-0.3056640625,0.860107421875,5.555267333984375,-1.09161376953125,4.044952392578125,1.0,1.0,1.0,1.0,1.0,20.0,
2023-09-09 14:54:08.835,1.7205632,1.0439277,0.6867433,0.9522248,1.2433327,0.3953448,-0.4776275,0.59023464,0.98758864,0.1961197,-0.04319956,0.67030156,0.6087571,0.032610413,0.08946061,0.7987112,0.031786673,-0.24879113,-0.39782512,0.30395332,794.17584,825.2015,796.99634,779.67035,749.85345,0.38739013671875,-0.3056640625,0.860107421875,5.555267333984375,-1.09161376953125,4.044952392578125,1.0,1.0,1.0,1.0,1.0,20.0,
2023-09-09 14:54:08.846,1.7205632,1.0439277,0.6867433,0.9522248,1.2433327,0.3953448,-0.4776275,0.59023464,0.98758864,0.1961197,-0.04319956,0.67030156,0.6087571,0.032610413,0.08946061,0.7987112,0.031786673,-0.24879113,-0.39782512,0.30395332,794.57874,844.94507,801.02563,784.90845,818.7546,0.35455322265625,-0.3233642578125,0.861328125,4.553375244140625,0.829925537109375,-4.3365478515625,1.0,1.0,1.0,1.0,1.0,20.0,
2023-09-09 14:54:08.890,1.7205632,1.0439277,0.6867433,0.9522248,1.2433327,0.3953448,-0.4776275,0.59023464,0.98758864,0.1961197,-0.04319956,0.67030156,0.6087571,0.032610413,0.08946061,0.7987112,0.031786673,-0.24879113,-0.39782512,0.30395332,805.4579,857.03296,800.2198,753.0769,609.2308,0.411865234375,-0.3121337890625,0.87506103515625,4.59075927734375,-4.11224365234375,-2.28790283203125,1.0,1.0,1.0,1.0,1.0,20.0,
2023-09-09 14:54:08.896,1.6722175,1.0439277,0.6867433,0.88584673,1.222965,0.3953448,-0.4776275,0.6244023,0.98758864,0.1961197,-0.04319956,0.72005504,0.61490816,0.032610413,0.08946061,0.82862025,0.013222553,-0.24879113,-0.39782512,0.29295343,789.7436,853.4066,797.8022,745.82416,809.89014,0.411865234375,-0.3121337890625,0.87506103515625,4.59075927734375,-4.11224365234375,-2.28790283203125,1.0,1.0,1.0,1.0,1.0,20.0,
2023-09-09 14:54:08.973,1.6722175,1.0439277,0.6867433,0.88584673,1.222965,0.3953448,-0.4776275,0.6244023,0.98758864,0.1961197,-0.04319956,0.72005504,0.61490816,0.032610413,0.08946061,0.82862025,0.013222553,-0.24879113,-0.39782512,0.29295343,767.1795,833.663,789.34064,775.2381,896.52014,0.41070556640625,-0.320068359375,0.850341796875,3.701019287109375,-2.773895263671875,0.5682373046875,1.0,1.0,1.0,1.0,1.0,20.0,
2023-09-09 14:54:08.977,1.6528217,1.0439277,0.6867433,0.903332,1.2118971,0.3953448,-0.4776275,0.60801136,0.9910162,0.1961197,-0.04319956,0.8419023,0.61652565,0.032610413,0.08946061,0.8399115,0.01783322,-0.24879113,-0.39782512,0.28581434,757.9121,834.87177,789.34064,749.0476,649.5238,0.41070556640625,-0.320068359375,0.850341796875,3.701019287109375,-2.773895263671875,0.5682373046875,1.0,1.0,1.0,1.0,1.0,20.0,
2023-09-09 14:54:09.007,1.6528217,1.0439277,0.6867433,0.903332,1.2118971,0.3953448,-0.4776275,0.60801136,0.9910162,0.1961197,-0.04319956,0.8419023,0.61652565,0.032610413,0.08946061,0.8399115,0.01783322,-0.24879113,-0.39782512,0.28581434,745.0183,833.663,785.7143,747.8388,958.97437,0.39752197265625,-0.32476806640625,0.8519287109375,4.2767333984375,-1.981353759765625,0.530853271484375,1.0,1.0,1.0,1.0,1.0,20.0,
2023-09-09 14:54:09.099,1.6528217,1.0439277,0.6867433,0.903332,1.2118971,0.3953448,-0.4776275,0.60801136,0.9910162,0.1961197,-0.04319956,0.8419023,0.61652565,0.032610413,0.08946061,0.8399115,0.01783322,-0.24879113,-0.39782512,0.28581434,758.71796,827.619,782.8938,766.77655,769.19415,0.40447998046875,-0.31988525390625,0.85260009765625,4.254302978515625,-1.517791748046875,-0.8673095703125,1.0,1.0,1.0,1.0,1.0,20.0,
2023-09-09 14:54:09.105,1.6528217,1.0439277,0.6867433,0.9121146,1.2118971,0.3953448,-0.4776275,0.5931321,0.9910162,0.1961197,-0.04319956,0.876434,0.61652565,0.032610413,0.08946061,0.85087246,0.01783322,-0.24879113,-0.39782512,0.31101677,781.28204,844.1392,787.72894,721.2454,585.05493,0.40447998046875,-0.31988525390625,0.85260009765625,4.254302978515625,-1.517791748046875,-0.8673095703125,1.0,1.0,1.0,1.0,1.0,20.0,
2023-09-09 14:54:09.111,1.6528217,1.0439277,0.6867433,0.9121146,1.2118971,0.3953448,-0.4776275,0.5931321,0.9910162,0.1961197,-0.04319956,0.876434,0.61652565,0.032610413,0.08946061,0.85087246,0.01783322,-0.24879113,-0.39782512,0.31101677,776.04395,836.4835,791.3553,756.7033,896.52014,0.38970947265625,-0.3253173828125,0.86279296875,4.605712890625,-2.011260986328125,0.037384033203125,1.0,1.0,1.0,1.0,1.0,20.0,
2023-09-09 14:54:09.150,1.6528217,1.0439277,0.6867433,0.9121146,1.2118971,0.3953448,-0.4776275,0.5931321,0.9910162,0.1961197,-0.04319956,0.876434,0.61652565,0.032610413,0.08946061,0.85087246,0.01783322,-0.24879113,-0.39782512,0.31101677,789.34064,840.10986,794.17584,753.0769,640.65936,0.3927001953125,-0.3275146484375,0.85662841796875,4.3963623046875,-1.936492919921875,-0.67291259765625,1.0,1.0,1.0,1.0,1.0,20.0,
2023-09-09 14:54:09.156,1.6528217,1.0439277,1.1344739,0.91981333,1.2118971,0.3953448,0.16074628,0.582404,0.9910162,0.1961197,0.16791391,0.876434,0.61652565,0.032610413,0.11905483,0.8534379,0.01783322,-0.24879113,-0.64290035,0.3554277,799.81683,850.18317,796.1905,777.25275,628.5714,0.3927001953125,-0.3275146484375,0.85662841796875,4.3963623046875,-1.936492919921875,-0.67291259765625,1.0,1.0,1.0,1.0,1.0,20.0,
2023-09-09 14:54:09.268,1.6528217,1.0439277,1.1344739,0.91981333,1.2118971,0.3953448,0.16074628,0.582404,0.9910162,0.1961197,0.16791391,0.876434,0.61652565,0.032610413,0.11905483,0.8534379,0.01783322,-0.24879113,-0.64290035,0.3554277,773.22345,850.18317,789.7436,778.0586,809.0842,0.3853759765625,-0.3236083984375,0.85675048828125,4.59075927734375,-2.52716064453125,0.396270751953125,1.0,1.0,1.0,1.0,1.0,20.0,
2023-09-09 14:54:09.313,1.6528217,1.0439277,1.1344739,0.91981333,1.2118971,0.3953448,0.16074628,0.582404,0.9910162,0.1961197,0.16791391,0.876434,0.61652565,0.032610413,0.11905483,0.8534379,0.01783322,-0.24879113,-0.64290035,0.3554277,789.7436,849.3773,784.10254,754.68866,498.4249,0.37310791015625,-0.3236083984375,0.860107421875,4.9945068359375,-2.773895263671875,-0.52337646484375,1.0,1.0,1.0,1.0,1.0,20.0,
2023-09-09 14:54:09.314,1.6528217,1.0439277,1.1660233,0.9345495,1.2118971,0.3953448,0.15810217,0.5734472,0.9910162,0.1961197,0.16791391,0.876434,0.61652565,0.032610413,0.12681521,0.84665716,0.01783322,-0.24879113,-0.64168316,0.3949388,796.5934,849.3773,777.6557,751.8681,621.7216,0.37310791015625,-0.3236083984375,0.860107421875,4.9945068359375,-2.773895263671875,-0.52337646484375,1.0,1.0,1.0,1.0,1.0,20.0,
2023-09-09 14:54:09.372,1.6528217,1.0439277,1.1660233,0.9345495,1.2118971,0.3953448,0.15810217,0.5734472,0.9910162,0.1961197,0.16791391,0.876434,0.61652565,0.032610413,0.12681521,0.84665716,0.01783322,-0.24879113,-0.64168316,0.3949388,784.10254,841.31866,764.7619,765.16486,901.3553,0.3956298828125,-0.329833984375,0.86114501953125,3.9178466796875,-3.45428466796875,-2.429962158203125,1.0,1.0,1.0,1.0,1.0,20.0,
2023-09-09 14:54:09.414,1.6528217,1.0439277,1.1660233,0.9345495,1.2118971,0.3953448,0.15810217,0.5734472,0.9910162,0.1961197,0.16791391,0.876434,0.61652565,0.032610413,0.12681521,0.84665716,0.01783322,-0.24879113,-0.64168316,0.3949388,765.16486,826.4103,768.3883,764.35895,832.8571,0.411376953125,-0.32830810546875,0.8594970703125,3.416900634765625,-5.86181640625,0.5682373046875,1.0,1.0,1.0,1.0,1.0,20.0,
2023-09-09 14:54:09.417,1.6528217,1.0439277,1.1567539,0.9529505,1.2118971,0.3953448,0.16958249,0.5711509,0.9910162,0.1961197,0.16791391,0.8922893,0.61652565,0.032610413,0.12715732,0.83520126,0.01783322,-0.24879113,-0.6425564,0.4171302,755.4945,823.1868,774.43225,769.19415,677.72894,0.411376953125,-0.32830810546875,0.8594970703125,3.416900634765625,-5.86181640625,0.5682373046875,1.0,1.0,1.0,1.0,1.0,20.0,
2023-09-09 14:54:09.454,1.6528217,1.0439277,1.1567539,0.9529505,1.2118971,0.3953448,0.16958249,0.5711509,0.9910162,0.1961197,0.16791391,0.8922893,0.61652565,0.032610413,0.12715732,0.83520126,0.01783322,-0.24879113,-0.6425564,0.4171302,780.4762,833.2601,784.5055,780.07324,589.4872,0.3905029296875,-0.32110595703125,0.8623046875,4.897308349609375,-3.96270751953125,0.127105712890625,1.0,1.0,1.0,1.0,1.0,20.0,
