TimeStamp,Delta_TP9,Delta_AF7,Delta_AF8,Delta_TP10,Theta_TP9,Theta_AF7,Theta_AF8,Theta_TP10,Alpha_TP9,Alpha_AF7,Alpha_AF8,Alpha_TP10,Beta_TP9,Beta_AF7,Beta_AF8,Beta_TP10,Gamma_TP9,Gamma_AF7,Gamma_AF8,Gamma_TP10,RAW_TP9,RAW_AF7,RAW_AF8,RAW_TP10,AUX_RIGHT,Accelerometer_X,Accelerometer_Y,Accelerometer_Z,Gyro_X,Gyro_Y,Gyro_Z,HeadBandOn,HSI_TP9,HSI_AF7,HSI_AF8,HSI_TP10,Battery,Elements
2023-09-09 14:33:49.772,1.3448318,1.0495337,1.1009886,1.1446508,1.4699508,0.42468593,0.24664824,0.6036899,1.1227623,0.26842046,0.6172126,0.84195423,0.53757083,-0.07148596,-0.10535497,0.7224832,0.09050716,-0.098970614,-0.5543235,0.17356446,743.8095,832.8571,782.0879,796.99634,1144.3224,0.4107666015625,-0.2230224609375,0.87908935546875,9.233856201171877,-4.71038818359375,1.854248046875,1.0,1.0,1.0,1.0,1.0,20.0,
2023-09-09 14:33:49.811,1.3448318,1.0495337,1.1009886,1.1446508,1.4699508,0.42468593,0.24664824,0.6036899,1.1227623,0.26842046,0.6172126,0.84195423,0.53757083,-0.07148596,-0.10535497,0.7224832,0.09050716,-0.098970614,-0.5543235,0.17356446,731.7216,830.84247,781.685,798.20514,1066.5568,0.41229248046875,-0.21484375,0.879638671875,5.66741943359375,-4.83001708984375,-0.186920166015625,1.0,1.0,1.0,1.0,1.0,20.0,
2023-09-09 14:33:49.846,1.3448318,1.0495337,1.1009886,1.1446508,1.4699508,0.42468593,0.24664824,0.6036899,1.1227623,0.26842046,0.6172126,0.84195423,0.53757083,-0.07148596,-0.10535497,0.7224832,0.09050716,-0.098970614,-0.5543235,0.17356446,751.4652,839.707,785.31134,784.5055,772.01465,0.41424560546875,-0.23089599609375,0.87249755859375,4.044952392578125,-4.284210205078125,-2.5421142578125,1.0,1.0,1.0,1.0,1.0,20.0,
2023-09-09 14:33:49.880,1.3448318,1.0495337,1.1009886,1.1446508,1.4699508,0.42468593,0.24664824,0.6036899,1.1227623,0.26842046,0.6172126,0.84195423,0.53757083,-0.07148596,-0.10535497,0.7224832,0.09050716,-0.098970614,-0.5543235,0.17356446,740.18317,838.9011,782.8938,784.5055,716.4103,0.43035888671875,-0.25103759765625,0.8590087890625,4.3365478515625,-4.3963623046875,-2.79632568359375,1.0,1.0,1.0,1.0,1.0,20.0,
2023-09-09 14:33:49.881,1.3448318,1.0495337,1.084969,1.1467135,1.4699508,0.42468593,0.25906277,0.54378134,1.1227623,0.26842046,0.6172126,0.8601285,0.53757083,-0.07148596,-0.12617375,0.6912473,0.09050716,-0.098970614,-0.57908136,0.24881265,725.2747,843.3333,784.10254,785.31134,699.89014,0.43035888671875,-0.25103759765625,0.8590087890625,4.3365478515625,-4.3963623046875,-2.79632568359375,1.0,1.0,1.0,1.0,1.0,20.0,
2023-09-09 14:33:49.982,1.3448318,1.0495337,1.084969,1.1467135,1.4699508,0.42468593,0.25906277,0.54378134,1.1227623,0.26842046,0.6172126,0.8601285,0.53757083,-0.07148596,-0.12617375,0.6912473,0.09050716,-0.098970614,-0.57908136,0.24881265,732.52747,829.2308,781.28204,798.20514,870.7326,0.44317626953125,-0.2445068359375,0.86846923828125,7.693634033203125,-5.570220947265625,-0.216827392578125,1.0,1.0,1.0,1.0,1.0,20.0,
2023-09-09 14:33:49.986,1.6537681,1.0495337,1.0609263,1.1335899,1.6721604,0.42468593,0.28624395,0.48461384,1.0308335,0.26842046,0.6172126,0.879734,0.79550743,-0.07148596,-0.13868217,0.67419803,-0.062608086,-0.098970614,-0.59837335,0.31324282,728.0952,819.15753,773.22345,785.31134,622.52747,0.44317626953125,-0.2445068359375,0.86846923828125,7.693634033203125,-5.570220947265625,-0.216827392578125,1.0,1.0,1.0,1.0,1.0,20.0,
2023-09-09 14:33:50.041,1.6537681,1.0495337,1.0609263,1.1335899,1.6721604,0.42468593,0.28624395,0.48461384,1.0308335,0.26842046,0.6172126,0.879734,0.79550743,-0.07148596,-0.13868217,0.67419803,-0.062608086,-0.098970614,-0.59837335,0.31324282,742.6007,811.50183,772.4176,784.10254,823.5897,0.43743896484375,-0.2265625,0.87591552734375,8.889923095703125,-3.925323486328125,1.68975830078125,1.0,1.0,1.0,1.0,1.0,20.0,
2023-09-09 14:33:50.074,1.6537681,1.0495337,1.0609263,1.1335899,1.6721604,0.42468593,0.28624395,0.48461384,1.0308335,0.26842046,0.6172126,0.879734,0.79550743,-0.07148596,-0.13868217,0.67419803,-0.062608086,-0.098970614,-0.59837335,0.31324282,784.90845,807.0696,770.40295,786.9231,685.78754,0.42974853515625,-0.20916748046875,0.878173828125,8.336639404296875,-2.4822998046875,1.27105712890625,1.0,1.0,1.0,1.0,1.0,20.0,
2023-09-09 14:33:50.077,1.7402554,1.0495337,1.0388113,1.1193397,1.6634184,0.42468593,0.3028319,0.43515027,1.0308335,0.26842046,0.6172126,0.889555,0.8138534,-0.07148596,-0.14454052,0.66308075,-0.06262648,-0.098970614,-0.6105998,0.35291436,784.5055,810.696,767.1795,798.60803,657.1795,0.42974853515625,-0.20916748046875,0.878173828125,8.336639404296875,-2.4822998046875,1.27105712890625,1.0,1.0,1.0,1.0,1.0,20.0,
2023-09-09 14:33:50.137,1.7402554,1.0495337,1.0388113,1.1193397,1.6634184,0.42468593,0.3028319,0.43515027,1.0308335,0.26842046,0.6172126,0.889555,0.8138534,-0.07148596,-0.14454052,0.66308075,-0.06262648,-0.098970614,-0.6105998,0.35291436,803.0403,808.2784,761.9414,778.86444,826.8132,0.41717529296875,-0.2138671875,0.87445068359375,5.585174560546875,-1.622467041015625,-1.1962890625,1.0,1.0,1.0,1.0,1.0,20.0,
2023-09-09 14:33:50.234,1.7402554,1.0495337,1.0388113,1.1193397,1.6634184,0.42468593,0.3028319,0.43515027,1.0308335,0.26842046,0.6172126,0.889555,0.8138534,-0.07148596,-0.14454052,0.66308075,-0.06262648,-0.098970614,-0.6105998,0.35291436,814.3223,800.6227,769.19415,789.34064,869.92676,0.42462158203125,-0.22247314453125,0.86962890625,4.08233642578125,-1.57012939453125,-2.056121826171875,1.0,1.0,1.0,1.0,1.0,20.0,
2023-09-09 14:33:50.240,1.7402554,1.0495337,1.0158476,1.1193397,1.6634184,0.42468593,0.29875347,0.43515027,1.0308335,0.26842046,0.6172126,0.889555,0.8138534,-0.07148596,-0.14895089,0.66308075,-0.06262648,-0.098970614,-0.6166977,0.35291436,834.0659,807.8755,766.77655,787.72894,990.0,0.42462158203125,-0.22247314453125,0.86962890625,4.08233642578125,-1.57012939453125,-2.056121826171875,1.0,1.0,1.0,1.0,1.0,20.0,
2023-09-09 14:33:50.288,1.7402554,1.0495337,1.0158476,1.1193397,1.6634184,0.42468593,0.29875347,0.43515027,1.0308335,0.26842046,0.6172126,0.889555,0.8138534,-0.07148596,-0.14895089,0.66308075,-0.06262648,-0.098970614,-0.6166977,0.35291436,812.71063,792.96704,766.3736,794.17584,790.9524,0.42498779296875,-0.2174072265625,0.880126953125,4.14215087890625,-3.072967529296875,0.082244873046875,1.0,1.0,1.0,1.0,1.0,20.0,
2023-09-09 14:33:50.296,1.7402554,1.0495337,0.995796,1.1193397,1.6634184,0.42468593,0.2771617,0.43515027,1.0308335,0.26842046,0.6172126,0.889555,0.8138534,-0.07148596,-0.15338495,0.66308075,-0.06262648,-0.098970614,-0.6182456,0.35291436,809.0842,783.69965,764.35895,790.9524,797.3993,0.42498779296875,-0.2174072265625,0.880126953125,4.14215087890625,-3.072967529296875,0.082244873046875,1.0,1.0,1.0,1.0,1.0,20.0,
2023-09-09 14:33:50.331,1.7402554,1.0495337,0.995796,1.1193397,1.6634184,0.42468593,0.2771617,0.43515027,1.0308335,0.26842046,0.6172126,0.889555,0.8138534,-0.07148596,-0.15338495,0.66308075,-0.06262648,-0.098970614,-0.6182456,0.35291436,805.8608,774.43225,763.95605,819.5604,685.38464,0.4207763671875,-0.2325439453125,0.86883544921875,2.504730224609375,-3.312225341796875,-0.829925537109375,1.0,1.0,1.0,1.0,1.0,20.0,
2023-09-09 14:33:50.368,1.7402554,1.0495337,0.995796,1.1193397,1.6634184,0.42468593,0.2771617,0.43515027,1.0308335,0.26842046,0.6172126,0.889555,0.8138534,-0.07148596,-0.15338495,0.66308075,-0.06262648,-0.098970614,-0.6182456,0.35291436,821.5751,753.0769,765.56775,819.9634,730.10986,0.4267578125,-0.23486328125,0.86468505859375,3.401947021484375,-3.267364501953125,-1.831817626953125,1.0,1.0,1.0,1.0,1.0,20.0,
2023-09-09 14:33:50.382,1.7402554,1.0495337,0.98281723,1.1193397,1.6634184,0.42468593,0.2468925,0.43515027,1.0308335,0.26842046,0.6172126,0.889555,0.8138534,-0.07148596,-0.15575328,0.66308075,-0.06262648,-0.098970614,-0.61734295,0.35291436,821.978,745.42126,755.4945,819.9634,683.36993,0.4267578125,-0.23486328125,0.86468505859375,3.401947021484375,-3.267364501953125,-1.831817626953125,1.0,1.0,1.0,1.0,1.0,20.0,
2023-09-09 14:33:50.432,1.7402554,1.0495337,0.98281723,1.1193397,1.6634184,0.42468593,0.2468925,0.43515027,1.0308335,0.26842046,0.6172126,0.889555,0.8138534,-0.07148596,-0.15575328,0.66308075,-0.06262648,-0.098970614,-0.61734295,0.35291436,832.0513,745.42126,756.30035,830.0366,1009.7436,0.43609619140625,-0.2349853515625,0.87335205078125,4.1571044921875,-4.403839111328125,-0.418701171875,1.0,1.0,1.0,1.0,1.0,20.0,
2023-09-09 14:33:50.523,1.7402554,1.0495337,0.98281723,1.1193397,1.6634184,0.42468593,0.2468925,0.43515027,1.0308335,0.26842046,0.6172126,0.889555,0.8138534,-0.07148596,-0.15575328,0.66308075,-0.06262648,-0.098970614,-0.61734295,0.35291436,822.7839,761.53845,756.7033,838.0952,718.8278,0.43438720703125,-0.23040771484375,0.86492919921875,4.912261962890625,-3.147735595703125,1.89910888671875,1.0,1.0,1.0,1.0,1.0,20.0,
2023-09-09 14:33:50.525,1.7402554,1.0495337,0.9735186,1.1193397,1.6634184,0.42468593,0.21470107,0.43515027,1.0308335,0.26842046,0.6172126,0.889555,0.8138534,-0.07148596,-0.1575955,0.66308075,-0.06262648,-0.098970614,-0.6162702,0.35291436,813.5165,758.71796,761.13556,832.8571,764.35895,0.43438720703125,-0.23040771484375,0.86492919921875,4.912261962890625,-3.147735595703125,1.89910888671875,1.0,1.0,1.0,1.0,1.0,20.0,
2023-09-09 14:33:50.560,1.7402554,1.0495337,0.9735186,1.1193397,1.6634184,0.42468593,0.21470107,0.43515027,1.0308335,0.26842046,0.6172126,0.889555,0.8138534,-0.07148596,-0.1575955,0.66308075,-0.06262648,-0.098970614,-0.6162702,0.35291436,797.8022,768.7912,743.8095,812.3077,906.1905,0.42535400390625,-0.22705078125,0.8677978515625,4.074859619140625,-3.641204833984375,1.21124267578125,1.0,1.0,1.0,1.0,1.0,20.0,
2023-09-09 14:33:50.597,1.7402554,1.0495337,0.9735186,1.1193397,1.6634184,0.42468593,0.21470107,0.43515027,1.0308335,0.26842046,0.6172126,0.889555,0.8138534,-0.07148596,-0.1575955,0.66308075,-0.06262648,-0.098970614,-0.6162702,0.35291436,796.99634,773.22345,741.79486,777.6557,650.32965,0.4189453125,-0.22943115234375,0.86993408203125,3.3795166015625,-2.75146484375,-1.435546875,1.0,1.0,1.0,1.0,1.0,20.0,
2023-09-09 14:33:50.600,1.7402554,1.0495337,0.9610766,1.1193397,1.6634184,0.42468593,0.18497641,0.43515027,1.0308335,0.26842046,0.6172126,0.889555,0.8138534,-0.07148596,-0.16183497,0.66308075,-0.06262648,-0.098970614,-0.6167939,0.35291436,788.1319,768.3883,741.39197,796.99634,886.04395,0.4189453125,-0.22943115234375,0.86993408203125,3.3795166015625,-2.75146484375,-1.435546875,1.0,1.0,1.0,1.0,1.0,20.0,
2023-09-09 14:33:50.634,1.7402554,1.0495337,0.9610766,1.1193397,1.6634184,0.42468593,0.18497641,0.43515027,1.0308335,0.26842046,0.6172126,0.889555,0.8138534,-0.07148596,-0.16183497,0.66308075,-0.06262648,-0.098970614,-0.6167939,0.35291436,805.05493,771.2088,749.0476,787.326,764.7619,0.42547607421875,-0.236328125,0.86865234375,3.15521240234375,-2.011260986328125,-3.22998046875,1.0,1.0,1.0,1.0,1.0,20.0,
2023-09-09 14:33:50.700,1.7402554,1.0495337,0.9610766,1.1193397,1.6634184,0.42468593,0.18497641,0.43515027,1.0308335,0.26842046,0.6172126,0.889555,0.8138534,-0.07148596,-0.16183497,0.66308075,-0.06262648,-0.098970614,-0.6167939,0.35291436,790.14655,777.6557,747.8388,755.4945,842.9304,0.42626953125,-0.23419189453125,0.86456298828125,3.1103515625,-2.071075439453125,-3.416900634765625,1.0,1.0,1.0,1.0,1.0,20.0,
2023-09-09 14:33:50.704,1.7402554,1.0495337,0.9471452,1.1193397,1.6634184,0.42468593,0.15995851,0.43515027,1.0308335,0.26842046,0.6172126,0.889555,0.8138534,-0.07148596,-0.16897109,0.66308075,-0.06262648,-0.098970614,-0.6186424,0.35291436,788.5348,778.46155,745.82416,770.0,1144.7252,0.42626953125,-0.23419189453125,0.86456298828125,3.1103515625,-2.071075439453125,-3.416900634765625,1.0,1.0,1.0,1.0,1.0,20.0,
2023-09-09 14:33:50.827,1.7402554,1.0495337,0.9471452,1.1193397,1.6634184,0.42468593,0.15995851,0.43515027,1.0308335,0.26842046,0.6172126,0.889555,0.8138534,-0.07148596,-0.16897109,0.66308075,-0.06262648,-0.098970614,-0.6186424,0.35291436,812.3077,793.7729,750.2564,770.80585,742.1978,0.43109130859375,-0.240234375,0.865966796875,2.609405517578125,-4.194488525390625,-1.83929443359375,1.0,1.0,1.0,1.0,1.0,20.0,
2023-09-09 14:33:50.833,1.7402554,1.0495337,0.939656,1.1193397,1.6634184,0.42468593,0.14377084,0.43515027,1.0308335,0.26842046,0.6172126,0.889555,0.8138534,-0.07148596,-0.17392337,0.66308075,-0.06262648,-0.098970614,-0.6200251,0.35291436,805.4579,792.5641,750.2564,774.83514,919.89014,0.43109130859375,-0.240234375,0.865966796875,2.609405517578125,-4.194488525390625,-1.83929443359375,1.0,1.0,1.0,1.0,1.0,20.0,
2023-09-09 14:33:50.874,1.7402554,1.0495337,0.939656,1.1193397,1.6634184,0.42468593,0.14377084,0.43515027,1.0308335,0.26842046,0.6172126,0.889555,0.8138534,-0.07148596,-0.17392337,0.66308075,-0.06262648,-0.098970614,-0.6200251,0.35291436,811.9048,790.54944,756.7033,778.0586,952.9304,0.43505859375,-0.24188232421875,0.86419677734375,3.18511962890625,-4.702911376953125,-0.04486083984375,1.0,1.0,1.0,1.0,1.0,20.0,
2023-09-09 14:33:50.891,1.7402554,1.0495337,0.939656,1.1193397,1.6634184,0.42468593,0.14377084,0.43515027,1.0308335,0.26842046,0.6172126,0.889555,0.8138534,-0.07148596,-0.17392337,0.66308075,-0.06262648,-0.098970614,-0.6200251,0.35291436,792.5641,781.28204,757.50916,780.07324,710.3663,0.43463134765625,-0.24609375,0.8619384765625,3.476715087890625,-3.99261474609375,-0.022430419921875,1.0,1.0,1.0,1.0,1.0,20.0,
2023-09-09 14:33:50.898,1.7402554,1.0495337,0.93460697,1.1400666,1.6634184,0.42468593,0.11661611,0.43256825,1.0308335,0.26842046,0.5666589,0.8434132,0.8138534,-0.07148596,-0.18516114,0.6173583,-0.06262648,-0.098970614,-0.6378023,0.36829266,785.31134,767.1795,754.2857,774.0293,713.9927,0.43463134765625,-0.24609375,0.8619384765625,3.476715087890625,-3.99261474609375,-0.022430419921875,1.0,1.0,1.0,1.0,1.0,20.0,
2023-09-09 14:33:50.954,1.7402554,1.0495337,0.93460697,1.1400666,1.6634184,0.42468593,0.11661611,0.43256825,1.0308335,0.26842046,0.5666589,0.8434132,0.8138534,-0.07148596,-0.18516114,0.6173583,-0.06262648,-0.098970614,-0.6378023,0.36829266,810.293,756.7033,753.47986,807.0696,791.75824,0.4404296875,-0.24761962890625,0.8544921875,4.388885498046875,-4.658050537109375,-0.64300537109375,1.0,1.0,1.0,1.0,1.0,20.0,
2023-09-09 14:33:51.006,1.7402554,1.0495337,0.9265315,1.1538494,1.6634184,0.42468593,0.09558709,0.37816992,1.0308335,0.26842046,0.47146034,0.8223337,0.8138534,-0.07148596,-0.18554766,0.5630297,-0.06262648,-0.098970614,-0.6393444,0.40369424,803.44324,736.9597,757.1062,789.34064,805.4579,0.4404296875,-0.24761962890625,0.8544921875,4.388885498046875,-4.658050537109375,-0.64300537109375,1.0,1.0,1.0,1.0,1.0,20.0,
2023-09-09 14:33:51.033,1.7402554,1.0495337,0.9265315,1.1538494,1.6634184,0.42468593,0.09558709,0.37816992,1.0308335,0.26842046,0.47146034,0.8223337,0.8138534,-0.07148596,-0.18554766,0.5630297,-0.06262648,-0.098970614,-0.6393444,0.40369424,807.47253,738.1685,755.4945,786.1172,620.9158,0.43798828125,-0.2410888671875,0.86114501953125,5.4132080078125,-4.11224365234375,-0.13458251953125,1.0,1.0,1.0,1.0,1.0,20.0,
2023-09-09 14:33:51.075,1.7402554,1.0495337,0.9265315,1.1538494,1.6634184,0.42468593,0.09558709,0.37816992,1.0308335,0.26842046,0.47146034,0.8223337,0.8138534,-0.07148596,-0.18554766,0.5630297,-0.06262648,-0.098970614,-0.6393444,0.40369424,792.96704,753.8828,753.0769,788.5348,789.34064,0.43682861328125,-0.2379150390625,0.86737060546875,5.196380615234375,-4.91973876953125,-0.186920166015625,1.0,1.0,1.0,1.0,1.0,20.0,
2023-09-09 14:33:51.126,1.7402554,1.0495337,0.9265315,1.1538494,1.6634184,0.42468593,0.09558709,0.37816992,1.0308335,0.26842046,0.47146034,0.8223337,0.8138534,-0.07148596,-0.18554766,0.5630297,-0.06262648,-0.098970614,-0.6393444,0.40369424,804.2491,785.31134,763.1502,790.14655,888.0586,0.43408203125,-0.24017333984375,0.8660888671875,4.0374755859375,-3.99261474609375,-0.979461669921875,1.0,1.0,1.0,1.0,1.0,20.0,
2023-09-09 14:33:51.128,1.7402554,1.0495337,0.90873915,1.1506972,1.6634184,0.42468593,0.07679737,0.24814601,1.0308335,0.26842046,0.38460115,0.7916152,0.8138534,-0.07148596,-0.18428123,0.5235888,-0.06262648,-0.098970614,-0.62986094,0.45247227,804.65204,794.17584,761.53845,791.75824,751.8681,0.43408203125,-0.24017333984375,0.8660888671875,4.0374755859375,-3.99261474609375,-0.979461669921875,1.0,1.0,1.0,1.0,1.0,20.0,
2023-09-09 14:33:51.192,1.7402554,1.0495337,0.90873915,1.1506972,1.6634184,0.42468593,0.07679737,0.24814601,1.0308335,0.26842046,0.38460115,0.7916152,0.8138534,-0.07148596,-0.18428123,0.5235888,-0.06262648,-0.098970614,-0.62986094,0.45247227,805.8608,797.3993,768.3883,807.47253,844.94507,0.439697265625,-0.24420166015625,0.85791015625,3.701019287109375,-2.99072265625,-2.07855224609375,1.0,1.0,1.0,1.0,1.0,20.0,
2023-09-09 14:33:51.243,1.7402554,1.0495337,0.90873915,1.1506972,1.6634184,0.42468593,0.07679737,0.24814601,1.0308335,0.26842046,0.38460115,0.7916152,0.8138534,-0.07148596,-0.18428123,0.5235888,-0.06262648,-0.098970614,-0.62986094,0.45247227,814.3223,801.4286,768.7912,799.011,827.619,0.4405517578125,-0.2470703125,0.8603515625,4.598236083984375,-3.93280029296875,-1.831817626953125,1.0,1.0,1.0,1.0,1.0,20.0,
2023-09-09 14:33:51.246,1.8024708,1.0495337,0.8785812,1.1247725,1.7147121,0.42468593,0.059073314,0.026174735,0.98436624,0.26842046,0.30147162,0.73201257,0.8400598,-0.07148596,-0.18517652,0.5195909,-0.083331525,-0.098970614,-0.6137567,0.5048152,786.52014,800.2198,768.3883,788.1319,687.8022,0.4405517578125,-0.2470703125,0.8603515625,4.598236083984375,-3.93280029296875,-1.831817626953125,1.0,1.0,1.0,1.0,1.0,20.0,
2023-09-09 14:33:51.315,1.8024708,1.0495337,0.8785812,1.1247725,1.7147121,0.42468593,0.059073314,0.026174735,0.98436624,0.26842046,0.30147162,0.73201257,0.8400598,-0.07148596,-0.18517652,0.5195909,-0.083331525,-0.098970614,-0.6137567,0.5048152,765.9707,801.4286,772.01465,808.68134,683.36993,0.44921875,-0.24603271484375,0.856201171875,4.628143310546875,-3.461761474609375,-0.58319091796875,1.0,1.0,1.0,1.0,1.0,20.0,
2023-09-09 14:33:51.320,1.8024708,1.0495337,0.84782064,1.1247725,1.7147121,0.42468593,0.036756318,0.026174735,0.98436624,0.26842046,0.2197015,0.73201257,0.8400598,-0.07148596,-0.1852543,0.5195909,-0.083331525,-0.098970614,-0.59254944,0.5048152,750.65936,794.9817,761.13556,797.3993,622.9304,0.44921875,-0.24603271484375,0.856201171875,4.628143310546875,-3.461761474609375,-0.58319091796875,1.0,1.0,1.0,1.0,1.0,20.0,
2023-09-09 14:33:51.359,1.8024708,1.0495337,0.84782064,1.1247725,1.7147121,0.42468593,0.036756318,0.026174735,0.98436624,0.26842046,0.2197015,0.73201257,0.8400598,-0.07148596,-0.1852543,0.5195909,-0.083331525,-0.098970614,-0.59254944,0.5048152,764.35895,798.20514,772.4176,796.1905,799.81683,0.4459228515625,-0.24151611328125,0.85400390625,4.942169189453125,-3.461761474609375,-0.261688232421875,1.0,1.0,1.0,1.0,1.0,20.0,
2023-09-09 14:33:51.388,1.8024708,1.0495337,0.84782064,1.1247725,1.7147121,0.42468593,0.036756318,0.026174735,0.98436624,0.26842046,0.2197015,0.73201257,0.8400598,-0.07148596,-0.1852543,0.5195909,-0.083331525,-0.098970614,-0.59254944,0.5048152,752.27106,808.2784,775.64105,796.5934,761.53845,0.44708251953125,-0.24334716796875,0.857666015625,5.33843994140625,-3.48419189453125,-0.657958984375,1.0,1.0,1.0,1.0,1.0,20.0,
2023-09-09 14:33:51.393,1.8024708,1.0495337,0.82747126,1.1247725,1.7147121,0.42468593,0.0014889863,0.026174735,0.98436624,0.26842046,0.12865324,0.73201257,0.8400598,-0.07148596,-0.182333,0.5195909,-0.083331525,-0.098970614,-0.5702503,0.5048152,774.0293,805.05493,777.6557,799.81683,763.95605,0.44708251953125,-0.24334716796875,0.857666015625,5.33843994140625,-3.48419189453125,-0.657958984375,1.0,1.0,1.0,1.0,1.0,20.0,
2023-09-09 14:33:51.485,1.8024708,1.0495337,0.82747126,1.1247725,1.7147121,0.42468593,0.0014889863,0.026174735,0.98436624,0.26842046,0.12865324,0.73201257,0.8400598,-0.07148596,-0.182333,0.5195909,-0.083331525,-0.098970614,-0.5702503,0.5048152,760.32965,801.4286,782.0879,795.78754,640.2564,0.4481201171875,-0.242431640625,0.85870361328125,5.084228515625,-3.386993408203125,-0.859832763671875,1.0,1.0,1.0,1.0,1.0,20.0,
2023-09-09 14:33:51.503,1.8024708,1.0495337,0.8202358,1.1247725,1.7147121,0.42468593,-0.050488487,0.026174735,0.98436624,0.26842046,0.07607504,0.73201257,0.8400598,-0.07148596,-0.17596613,0.5195909,-0.083331525,-0.098970614,-0.5518181,0.5048152,776.4469,818.7546,781.28204,797.3993,662.8205,0.4481201171875,-0.242431640625,0.85870361328125,5.084228515625,-3.386993408203125,-0.859832763671875,1.0,1.0,1.0,1.0,1.0,20.0,
2023-09-09 14:33:51.550,1.8024708,1.0495337,0.8202358,1.1247725,1.7147121,0.42468593,-0.050488487,0.026174735,0.98436624,0.26842046,0.07607504,0.73201257,0.8400598,-0.07148596,-0.17596613,0.5195909,-0.083331525,-0.098970614,-0.5518181,0.5048152,764.35895,821.1722,776.4469,787.326,847.76556,0.44476318359375,-0.23883056640625,0.84869384765625,4.687957763671875,-3.431854248046875,-0.59814453125,1.0,1.0,1.0,1.0,1.0,20.0,
2023-09-09 14:33:51.604,1.8024708,1.0495337,0.8202358,1.1247725,1.7147121,0.42468593,-0.050488487,0.026174735,0.98436624,0.26842046,0.07607504,0.73201257,0.8400598,-0.07148596,-0.17596613,0.5195909,-0.083331525,-0.098970614,-0.5518181,0.5048152,788.5348,803.44324,781.685,796.1905,688.60803,0.4486083984375,-0.24212646484375,0.8575439453125,4.987030029296875,-4.598236083984375,-0.83740234375,1.0,1.0,1.0,1.0,1.0,20.0,
2023-09-09 14:33:51.614,1.8024708,1.0495337,0.8207374,1.1247725,1.7147121,0.42468593,-0.1068696,0.026174735,0.98436624,0.26842046,0.03608125,0.73201257,0.8400598,-0.07148596,-0.16208799,0.5195909,-0.083331525,-0.098970614,-0.5389658,0.5048152,819.9634,785.31134,779.2674,801.02563,846.55676,0.4486083984375,-0.24212646484375,0.8575439453125,4.987030029296875,-4.598236083984375,-0.83740234375,1.0,1.0,1.0,1.0,1.0,20.0,
2023-09-09 14:33:51.648,1.8024708,1.0495337,0.8207374,1.1247725,1.7147121,0.42468593,-0.1068696,0.026174735,0.98436624,0.26842046,0.03608125,0.73201257,0.8400598,-0.07148596,-0.16208799,0.5195909,-0.083331525,-0.098970614,-0.5389658,0.5048152,822.7839,782.8938,782.49084,808.2784,874.7619,0.455078125,-0.24267578125,0.85614013671875,5.5029296875,-3.357086181640625,-0.85235595703125,1.0,1.0,1.0,1.0,1.0,20.0,
2023-09-09 14:33:51.679,1.8024708,1.0495337,0.8207374,1.1247725,1.7147121,0.42468593,-0.1068696,0.026174735,0.98436624,0.26842046,0.03608125,0.73201257,0.8400598,-0.07148596,-0.16208799,0.5195909,-0.083331525,-0.098970614,-0.5389658,0.5048152,812.71063,772.4176,776.04395,808.68134,801.8315,0.44866943359375,-0.23968505859375,0.85784912109375,5.151519775390625,-4.119720458984375,-0.351409912109375,1.0,1.0,1.0,1.0,1.0,20.0,
2023-09-09 14:33:51.717,1.8024708,1.0495337,0.8207374,1.1247725,1.7147121,0.42468593,-0.1068696,0.026174735,0.98436624,0.26842046,0.03608125,0.73201257,0.8400598,-0.07148596,-0.16208799,0.5195909,-0.083331525,-0.098970614,-0.5389658,0.5048152,813.1135,792.96704,772.8205,795.38464,623.73627,0.4522705078125,-0.24072265625,0.85064697265625,4.762725830078125,-5.084228515625,1.57012939453125,1.0,1.0,1.0,1.0,1.0,20.0,
2023-09-09 14:33:51.718,1.8024708,1.0495337,0.8276531,1.1247725,1.7147121,0.42468593,-0.14838496,0.026174735,0.98436624,0.26842046,0.032066826,0.73201257,0.8400598,-0.07148596,-0.13719483,0.5195909,-0.083331525,-0.098970614,-0.5303569,0.5048152,811.9048,797.3993,770.0,795.38464,794.9817,0.4522705078125,-0.24072265625,0.85064697265625,4.762725830078125,-5.084228515625,1.57012939453125,1.0,1.0,1.0,1.0,1.0,20.0,
2023-09-09 14:33:51.826,1.8024708,1.0495337,0.8276531,1.1247725,1.7147121,0.42468593,-0.14838496,0.026174735,0.98436624,0.26842046,0.032066826,0.73201257,0.8400598,-0.07148596,-0.13719483,0.5195909,-0.083331525,-0.098970614,-0.5303569,0.5048152,821.1722,825.6044,776.8498,784.10254,704.7253,0.4403076171875,-0.24359130859375,0.85736083984375,3.94775390625,-4.007568359375,-0.067291259765625,1.0,1.0,1.0,1.0,1.0,20.0,
2023-09-09 14:33:51.828,1.8024708,1.0495337,0.83289224,1.1247725,1.7147121,0.42468593,-0.16954468,0.026174735,0.98436624,0.26842046,0.045724798,0.73201257,0.8400598,-0.07148596,-0.1056619,0.5195909,-0.083331525,-0.098970614,-0.5237648,0.5048152,829.6337,829.6337,773.22345,791.75824,790.14655,0.4403076171875,-0.24359130859375,0.85736083984375,3.94775390625,-4.007568359375,-0.067291259765625,1.0,1.0,1.0,1.0,1.0,20.0,
2023-09-09 14:33:51.861,1.8024708,1.0495337,0.83289224,1.1247725,1.7147121,0.42468593,-0.16954468,0.026174735,0.98436624,0.26842046,0.045724798,0.73201257,0.8400598,-0.07148596,-0.1056619,0.5195909,-0.083331525,-0.098970614,-0.5237648,0.5048152,800.2198,820.7692,773.22345,805.8608,747.03296,0.46771240234375,-0.2437744140625,0.85040283203125,3.820648193359375,-5.5328369140625,-1.353302001953125,1.0,1.0,1.0,1.0,1.0,20.0,
2023-09-09 14:33:51.921,1.8024708,1.0495337,0.83289224,1.1247725,1.7147121,0.42468593,-0.16954468,0.026174735,0.98436624,0.26842046,0.045724798,0.73201257,0.8400598,-0.07148596,-0.1056619,0.5195909,-0.083331525,-0.098970614,-0.5237648,0.5048152,842.52747,820.7692,765.9707,792.96704,977.9121,0.469970703125,-0.24481201171875,0.85546875,4.11224365234375,-4.26177978515625,-0.291595458984375,1.0,1.0,1.0,1.0,1.0,20.0,
2023-09-09 14:33:51.926,1.8024708,1.0495337,0.8291493,1.1247725,1.7147121,0.42468593,-0.17116135,0.026174735,0.98436624,0.26842046,0.046696987,0.73201257,0.8400598,-0.07148596,-0.07652985,0.5195909,-0.083331525,-0.098970614,-0.51685756,0.5048152,849.3773,811.50183,761.13556,792.1612,888.86444,0.469970703125,-0.24481201171875,0.85546875,4.11224365234375,-4.26177978515625,-0.291595458984375,1.0,1.0,1.0,1.0,1.0,20.0,
2023-09-09 14:33:51.984,1.8024708,1.0495337,0.8291493,1.1247725,1.7147121,0.42468593,-0.17116135,0.026174735,0.98436624,0.26842046,0.046696987,0.73201257,0.8400598,-0.07148596,-0.07652985,0.5195909,-0.083331525,-0.098970614,-0.51685756,0.5048152,844.1392,811.50183,772.4176,802.23444,798.20514,0.46942138671875,-0.22607421875,0.8541259765625,3.491668701171875,-3.648681640625,1.114044189453125,1.0,1.0,1.0,1.0,1.0,20.0,
2023-09-09 14:33:52.023,1.8024708,1.0495337,0.8291493,1.1247725,1.7147121,0.42468593,-0.17116135,0.026174735,0.98436624,0.26842046,0.046696987,0.73201257,0.8400598,-0.07148596,-0.07652985,0.5195909,-0.083331525,-0.098970614,-0.51685756,0.5048152,834.87177,816.7399,766.3736,795.78754,662.01465,0.4613037109375,-0.2379150390625,0.85296630859375,2.115936279296875,-3.775787353515625,1.801910400390625,1.0,1.0,1.0,1.0,1.0,20.0,
2023-09-09 14:33:52.029,1.8024708,1.0495337,0.8160804,1.1247725,1.7147121,0.42468593,-0.15586822,0.026174735,0.98436624,0.26842046,0.050053015,0.73201257,0.8400598,-0.07148596,-0.054794706,0.5195909,-0.083331525,-0.098970614,-0.5074475,0.5048152,812.3077,826.0073,770.80585,820.3663,1182.6007,0.4613037109375,-0.2379150390625,0.85296630859375,2.115936279296875,-3.775787353515625,1.801910400390625,1.0,1.0,1.0,1.0,1.0,20.0,
2023-09-09 14:33:52.136,1.8024708,1.0495337,0.8160804,1.1247725,1.7147121,0.42468593,-0.15586822,0.026174735,0.98436624,0.26842046,0.050053015,0.73201257,0.8400598,-0.07148596,-0.054794706,0.5195909,-0.083331525,-0.098970614,-0.5074475,0.5048152,814.7253,831.2454,774.0293,787.326,630.989,0.45281982421875,-0.27001953125,0.83465576171875,-0.0299072265625,-2.1234130859375,-0.07476806640625,1.0,1.0,1.0,1.0,1.0,20.0,
2023-09-09 14:33:52.143,1.8024708,1.0495337,0.79999524,1.1247725,1.7147121,0.42468593,-0.13613747,0.026174735,0.98436624,0.26842046,0.038338404,0.73201257,0.8400598,-0.07148596,-0.039961174,0.5195909,-0.083331525,-0.098970614,-0.49505186,0.5048152,795.78754,826.8132,771.6117,795.78754,853.4066,0.45281982421875,-0.27001953125,0.83465576171875,-0.0299072265625,-2.1234130859375,-0.07476806640625,1.0,1.0,1.0,1.0,1.0,20.0,
2023-09-09 14:33:52.149,1.8024708,1.0495337,0.79999524,1.1247725,1.7147121,0.42468593,-0.13613747,0.026174735,0.98436624,0.26842046,0.038338404,0.73201257,0.8400598,-0.07148596,-0.039961174,0.5195909,-0.083331525,-0.098970614,-0.49505186,0.5048152,804.2491,823.9927,762.74725,796.1905,719.6337,0.4490966796875,-0.288330078125,0.8323974609375,2.026214599609375,-3.21502685546875,0.201873779296875,1.0,1.0,1.0,1.0,1.0,20.0,
2023-09-09 14:33:52.189,1.8024708,1.0495337,0.79999524,1.1247725,1.7147121,0.42468593,-0.13613747,0.026174735,0.98436624,0.26842046,0.038338404,0.73201257,0.8400598,-0.07148596,-0.039961174,0.5195909,-0.083331525,-0.098970614,-0.49505186,0.5048152,832.0513,818.3516,764.35895,785.31134,813.91943,0.47698974609375,-0.27728271484375,0.83563232421875,5.884246826171875,-7.245025634765625,2.758941650390625,1.0,1.0,1.0,1.0,1.0,20.0,
2023-09-09 14:33:52.198,1.8024708,1.0495337,0.78406066,0.18442222,1.7147121,0.42468593,-0.119946055,-0.17853712,0.98436624,0.26842046,0.029399231,0.60668725,0.8400598,-0.07148596,-0.03039037,0.4978223,-0.083331525,-0.098970614,-0.4815251,0.45852852,851.79486,791.3553,772.4176,815.9341,787.72894,0.47698974609375,-0.27728271484375,0.83563232421875,5.884246826171875,-7.245025634765625,2.758941650390625,1.0,1.0,1.0,1.0,1.0,20.0,
2023-09-09 14:33:52.224,1.8024708,1.0495337,0.78406066,0.18442222,1.7147121,0.42468593,-0.119946055,-0.17853712,0.98436624,0.26842046,0.029399231,0.60668725,0.8400598,-0.07148596,-0.03039037,0.4978223,-0.083331525,-0.098970614,-0.4815251,0.45852852,846.9597,786.52014,773.6264,802.23444,784.10254,0.4674072265625,-0.25067138671875,0.84521484375,7.4169921875,-5.106658935546875,4.059906005859375,1.0,1.0,1.0,1.0,1.0,20.0,
2023-09-09 14:33:52.351,1.8024708,1.0495337,0.78406066,0.18442222,1.7147121,0.42468593,-0.119946055,-0.17853712,0.98436624,0.26842046,0.029399231,0.60668725,0.8400598,-0.07148596,-0.03039037,0.4978223,-0.083331525,-0.098970614,-0.4815251,0.45852852,888.86444,722.4542,757.9121,816.7399,936.4103,0.44696044921875,-0.24560546875,0.84259033203125,5.54779052734375,-3.03558349609375,1.8243408203125,1.0,1.0,1.0,1.0,1.0,20.0,
2023-09-09 14:33:52.352,1.8024708,1.0495337,0.75793964,0.16343352,1.7147121,0.42468593,-0.116178766,-0.21042655,0.98436624,0.26842046,0.034852114,0.6318663,0.8400598,-0.07148596,-0.027096719,0.5375439,-0.083331525,-0.098970614,-0.4697038,0.4384124,881.6117,725.6777,757.9121,811.9048,741.79486,0.44696044921875,-0.24560546875,0.84259033203125,5.54779052734375,-3.03558349609375,1.8243408203125,1.0,1.0,1.0,1.0,1.0,20.0,
2023-09-09 14:33:52.370,1.8024708,1.0495337,0.75793964,0.16343352,1.7147121,0.42468593,-0.116178766,-0.21042655,0.98436624,0.26842046,0.034852114,0.6318663,0.8400598,-0.07148596,-0.027096719,0.5375439,-0.083331525,-0.098970614,-0.4697038,0.4384124,877.98535,740.58606,769.19415,826.0073,711.1722,0.4344482421875,-0.26983642578125,0.8350830078125,3.297271728515625,-3.342132568359375,-1.65985107421875,1.0,1.0,1.0,1.0,1.0,20.0,
2023-09-09 14:33:52.452,1.8024708,1.0495337,0.75793964,0.16343352,1.7147121,0.42468593,-0.116178766,-0.21042655,0.98436624,0.26842046,0.034852114,0.6318663,0.8400598,-0.07148596,-0.027096719,0.5375439,-0.083331525,-0.098970614,-0.4697038,0.4384124,865.89746,771.2088,750.65936,809.4872,810.293,0.45758056640625,-0.28759765625,0.8363037109375,2.97576904296875,-5.63751220703125,-4.2767333984375,1.0,1.0,1.0,1.0,1.0,20.0,
2023-09-09 14:33:52.457,1.8024708,1.0495337,0.71606743,0.22312883,1.7147121,0.42468593,-0.120584294,-0.19054724,0.98436624,0.26842046,0.04445091,0.6390681,0.8400598,-0.07148596,-0.029246755,0.5827385,-0.083331525,-0.098970614,-0.46130264,0.43246022,860.2564,777.25275,755.09155,817.9487,797.8022,0.45758056640625,-0.28759765625,0.8363037109375,2.97576904296875,-5.63751220703125,-4.2767333984375,1.0,1.0,1.0,1.0,1.0,20.0,
2023-09-09 14:33:52.501,1.8024708,1.0495337,0.71606743,0.22312883,1.7147121,0.42468593,-0.120584294,-0.19054724,0.98436624,0.26842046,0.04445091,0.6390681,0.8400598,-0.07148596,-0.029246755,0.5827385,-0.083331525,-0.098970614,-0.46130264,0.43246022,887.25275,788.1319,767.5824,828.022,817.9487,0.494873046875,-0.26763916015625,0.846435546875,5.99639892578125,-8.25439453125,1.39068603515625,1.0,1.0,1.0,1.0,1.0,20.0,
2023-09-09 14:33:52.542,1.8024708,1.0495337,0.71606743,0.22312883,1.7147121,0.42468593,-0.120584294,-0.19054724,0.98436624,0.26842046,0.04445091,0.6390681,0.8400598,-0.07148596,-0.029246755,0.5827385,-0.083331525,-0.098970614,-0.46130264,0.43246022,875.16486,783.2967,758.315,823.9927,648.71796,0.48785400390625,-0.25653076171875,0.84356689453125,5.091705322265625,-5.659942626953125,2.61688232421875,1.0,1.0,1.0,1.0,1.0,20.0,
2023-09-09 14:33:52.547,1.8024708,1.0495337,0.6698911,0.42103907,1.7147121,0.42468593,-0.12003251,-0.11114958,0.98436624,0.26842046,0.10360463,0.65876514,0.8400598,-0.07148596,-0.032242324,0.6222482,-0.083331525,-0.098970614,-0.45601827,0.4353083,880.40295,774.43225,761.53845,841.7216,830.84247,0.48785400390625,-0.25653076171875,0.84356689453125,5.091705322265625,-5.659942626953125,2.61688232421875,1.0,1.0,1.0,1.0,1.0,20.0,
2023-09-09 14:33:52.621,1.8024708,1.0495337,0.6698911,0.42103907,1.7147121,0.42468593,-0.12003251,-0.11114958,0.98436624,0.26842046,0.10360463,0.65876514,0.8400598,-0.07148596,-0.032242324,0.6222482,-0.083331525,-0.098970614,-0.45601827,0.4353083,869.5238,746.2271,753.0769,844.1392,896.1172,0.47821044921875,-0.26171875,0.82843017578125,3.9776611328125,-2.788848876953125,0.37384033203125,1.0,1.0,1.0,1.0,1.0,20.0,
2023-09-09 14:33:52.627,1.8024708,1.0495337,0.6346176,0.42103907,1.7147121,0.42468593,-0.10625957,-0.11114958,0.98436624,0.26842046,0.17544638,0.65876514,0.8400598,-0.07148596,-0.029729739,0.6222482,-0.083331525,-0.098970614,-0.45390052,0.4353083,862.27106,757.50916,757.1062,848.97437,705.12823,0.47821044921875,-0.26171875,0.82843017578125,3.9776611328125,-2.788848876953125,0.37384033203125,1.0,1.0,1.0,1.0,1.0,20.0,
2023-09-09 14:33:52.663,1.8024708,1.0495337,0.6346176,0.42103907,1.7147121,0.42468593,-0.10625957,-0.11114958,0.98436624,0.26842046,0.17544638,0.65876514,0.8400598,-0.07148596,-0.029729739,0.6222482,-0.083331525,-0.098970614,-0.45390052,0.4353083,859.0476,765.56775,757.1062,854.61536,799.41394,0.46490478515625,-0.26629638671875,0.83026123046875,4.90478515625,-3.416900634765625,-1.71966552734375,1.0,1.0,1.0,1.0,1.0,20.0,
2023-09-09 14:33:52.694,1.8024708,1.0495337,0.6346176,0.42103907,1.7147121,0.42468593,-0.10625957,-0.11114958,0.98436624,0.26842046,0.17544638,0.65876514,0.8400598,-0.07148596,-0.029729739,0.6222482,-0.083331525,-0.098970614,-0.45390052,0.4353083,862.27106,785.31134,755.4945,864.68866,1069.7803,0.479248046875,-0.26171875,0.83282470703125,5.181427001953125,-4.605712890625,-1.54022216796875,1.0,1.0,1.0,1.0,1.0,20.0,
2023-09-09 14:33:52.699,1.8024708,1.0495337,0.6094236,0.42103907,1.7147121,0.42468593,-0.08711575,-0.11114958,0.98436624,0.26842046,0.25175783,0.65876514,0.8400598,-0.07148596,-0.019462094,0.6222482,-0.083331525,-0.098970614,-0.4570221,0.4353083,859.0476,795.38464,766.3736,864.68866,740.18317,0.479248046875,-0.26171875,0.83282470703125,5.181427001953125,-4.605712890625,-1.54022216796875,1.0,1.0,1.0,1.0,1.0,20.0,
2023-09-09 14:33:52.780,1.8024708,1.0495337,0.6094236,0.42103907,1.7147121,0.42468593,-0.08711575,-0.11114958,0.98436624,0.26842046,0.25175783,0.65876514,0.8400598,-0.07148596,-0.019462094,0.6222482,-0.083331525,-0.098970614,-0.4570221,0.4353083,873.95605,804.65204,768.3883,865.09155,856.2271,0.478759765625,-0.26214599609375,0.83551025390625,5.301055908203125,-4.4561767578125,0.097198486328125,1.0,1.0,1.0,1.0,1.0,20.0,
2023-09-09 14:33:52.846,1.8024708,1.0495337,0.59273106,0.42103907,1.7147121,0.42468593,-0.07160611,-0.11114958,0.98436624,0.26842046,0.36096466,0.65876514,0.8400598,-0.07148596,-0.0062749702,0.6222482,-0.083331525,-0.098970614,-0.46661142,0.4353083,882.4176,805.05493,762.74725,863.8828,1021.8315,0.478759765625,-0.26214599609375,0.83551025390625,5.301055908203125,-4.4561767578125,0.097198486328125,1.0,1.0,1.0,1.0,1.0,20.0,
2023-09-09 14:33:52.896,1.8024708,1.0495337,0.59273106,0.42103907,1.7147121,0.42468593,-0.07160611,-0.11114958,0.98436624,0.26842046,0.36096466,0.65876514,0.8400598,-0.07148596,-0.0062749702,0.6222482,-0.083331525,-0.098970614,-0.46661142,0.4353083,882.8205,806.6667,765.56775,853.4066,893.2967,0.4822998046875,-0.26177978515625,0.83782958984375,5.57769775390625,-3.895416259765625,0.95703125,1.0,1.0,1.0,1.0,1.0,20.0,
2023-09-09 14:33:52.939,1.8024708,1.0495337,0.59273106,0.42103907,1.7147121,0.42468593,-0.07160611,-0.11114958,0.98436624,0.26842046,0.36096466,0.65876514,0.8400598,-0.07148596,-0.0062749702,0.6222482,-0.083331525,-0.098970614,-0.46661142,0.4353083,881.2088,807.47253,768.3883,870.32965,767.1795,0.47735595703125,-0.26202392578125,0.82354736328125,5.2337646484375,-3.476715087890625,0.37384033203125,1.0,1.0,1.0,1.0,1.0,20.0,
2023-09-09 14:33:52.955,1.8024708,1.0495337,0.59273106,0.42103907,1.7147121,0.42468593,-0.07160611,-0.11114958,0.98436624,0.26842046,0.36096466,0.65876514,0.8400598,-0.07148596,-0.0062749702,0.6222482,-0.083331525,-0.098970614,-0.46661142,0.4353083,885.2381,808.68134,765.9707,869.92676,518.97437,0.47509765625,-0.2613525390625,0.8306884765625,4.964599609375,-2.325286865234375,-1.8243408203125,1.0,1.0,1.0,1.0,1.0,20.0,
2023-09-09 14:33:52.956,1.8024708,1.0495337,0.57804507,0.42103907,1.7147121,0.42468593,-0.06452253,-0.11114958,0.98436624,0.26842046,0.41637608,0.65876514,0.8400598,-0.07148596,0.0019715242,0.6222482,-0.083331525,-0.098970614,-0.4798202,0.4353083,892.0879,807.8755,765.9707,876.3736,751.8681,0.47509765625,-0.2613525390625,0.8306884765625,4.964599609375,-2.325286865234375,-1.8243408203125,1.0,1.0,1.0,1.0,1.0,20.0,
2023-09-09 14:33:52.989,1.8024708,1.0495337,0.57804507,0.42103907,1.7147121,0.42468593,-0.06452253,-0.11114958,0.98436624,0.26842046,0.41637608,0.65876514,0.8400598,-0.07148596,0.0019715242,0.6222482,-0.083331525,-0.098970614,-0.4798202,0.4353083,884.43225,784.90845,762.3443,857.03296,862.27106,0.48077392578125,-0.2598876953125,0.82684326171875,5.00946044921875,-3.222503662109375,-3.058013916015625,1.0,1.0,1.0,1.0,1.0,20.0,
2023-09-09 14:33:53.029,1.8024708,1.0495337,0.57804507,0.42103907,1.7147121,0.42468593,-0.06452253,-0.11114958,0.98436624,0.26842046,0.41637608,0.65876514,0.8400598,-0.07148596,0.0019715242,0.6222482,-0.083331525,-0.098970614,-0.4798202,0.4353083,890.07324,788.1319,759.92676,856.2271,725.6777,0.504150390625,-0.26629638671875,0.8284912109375,4.78515625,-3.828125,-2.25799560546875,1.0,1.0,1.0,1.0,1.0,20.0,
2023-09-09 14:33:53.031,1.8024708,1.0495337,0.5596006,0.42103907,1.7147121,0.42468593,-0.06312682,-0.11114958,0.98436624,0.26842046,0.41988376,0.65876514,0.8400598,-0.07148596,0.001703737,0.6222482,-0.083331525,-0.098970614,-0.48895133,0.4353083,886.8498,784.5055,767.1795,852.6007,784.10254,0.504150390625,-0.26629638671875,0.8284912109375,4.78515625,-3.828125,-2.25799560546875,1.0,1.0,1.0,1.0,1.0,20.0,
2023-09-09 14:33:53.126,1.8024708,1.0495337,0.5596006,0.42103907,1.7147121,0.42468593,-0.06312682,-0.11114958,0.98436624,0.26842046,0.41988376,0.65876514,0.8400598,-0.07148596,0.001703737,0.6222482,-0.083331525,-0.098970614,-0.48895133,0.4353083,880.80585,799.41394,771.2088,861.4652,836.4835,0.4937744140625,-0.26220703125,0.8330078125,5.09918212890625,-3.93280029296875,0.6280517578125,1.0,1.0,1.0,1.0,1.0,20.0,
2023-09-09 14:33:53.130,1.8024708,1.0495337,0.53767157,0.42103907,1.7147121,0.42468593,-0.06462113,-0.11114958,0.98436624,0.26842046,0.41988376,0.65876514,0.8400598,-0.07148596,-0.0057633864,0.6222482,-0.083331525,-0.098970614,-0.48958573,0.4353083,864.68866,797.8022,772.8205,865.4945,855.82416,0.4937744140625,-0.26220703125,0.8330078125,5.09918212890625,-3.93280029296875,0.6280517578125,1.0,1.0,1.0,1.0,1.0,20.0,
2023-09-09 14:33:53.179,1.8024708,1.0495337,0.53767157,0.42103907,1.7147121,0.42468593,-0.06462113,-0.11114958,0.98436624,0.26842046,0.41988376,0.65876514,0.8400598,-0.07148596,-0.0057633864,0.6222482,-0.083331525,-0.098970614,-0.48958573,0.4353083,848.97437,804.65204,768.3883,846.1539,801.4286,0.48663330078125,-0.26202392578125,0.82818603515625,4.71038818359375,-3.42437744140625,-0.2093505859375,1.0,1.0,1.0,1.0,1.0,20.0,
2023-09-09 14:33:53.231,1.8024708,1.0495337,0.53767157,0.42103907,1.7147121,0.42468593,-0.06462113,-0.11114958,0.98436624,0.26842046,0.41988376,0.65876514,0.8400598,-0.07148596,-0.0057633864,0.6222482,-0.083331525,-0.098970614,-0.48958573,0.4353083,830.0366,809.4872,776.04395,836.08057,623.3333,0.48931884765625,-0.25653076171875,0.826171875,5.323486328125,-3.828125,-0.0299072265625,1.0,1.0,1.0,1.0,1.0,20.0,
2023-09-09 14:33:53.236,1.8024708,1.0495337,0.512307,0.42103907,1.7147121,0.42468593,-0.06667131,-0.11114958,0.98436624,0.26842046,0.41988376,0.65876514,0.8400598,-0.07148596,-0.01873426,0.6222482,-0.083331525,-0.098970614,-0.48410487,0.4353083,834.4689,823.9927,777.25275,849.3773,1016.99634,0.48931884765625,-0.25653076171875,0.826171875,5.323486328125,-3.828125,-0.0299072265625,1.0,1.0,1.0,1.0,1.0,20.0,
2023-09-09 14:33:53.267,1.8024708,1.0495337,0.512307,0.42103907,1.7147121,0.42468593,-0.06667131,-0.11114958,0.98436624,0.26842046,0.41988376,0.65876514,0.8400598,-0.07148596,-0.01873426,0.6222482,-0.083331525,-0.098970614,-0.48410487,0.4353083,864.68866,822.381,779.2674,836.8865,850.58606,0.47772216796875,-0.2579345703125,0.83148193359375,4.717864990234375,-2.743988037109375,0.31402587890625,1.0,1.0,1.0,1.0,1.0,20.0,
2023-09-09 14:33:53.330,1.8024708,1.0495337,0.48144814,0.42103907,1.7147121,0.42468593,-0.06236749,-0.11114958,0.98436624,0.26842046,0.41988376,0.65876514,0.8400598,-0.07148596,-0.03687312,0.6222482,-0.083331525,-0.098970614,-0.47921023,0.4353083,843.73627,822.7839,780.4762,824.7985,1087.5092,0.47772216796875,-0.2579345703125,0.83148193359375,4.717864990234375,-2.743988037109375,0.31402587890625,1.0,1.0,1.0,1.0,1.0,20.0,
2023-09-09 14:33:53.387,1.8024708,1.0495337,0.48144814,0.42103907,1.7147121,0.42468593,-0.06236749,-0.11114958,0.98436624,0.26842046,0.41988376,0.65876514,0.8400598,-0.07148596,-0.03687312,0.6222482,-0.083331525,-0.098970614,-0.47921023,0.4353083,844.5421,821.978,784.10254,816.7399,665.2381,0.47833251953125,-0.25762939453125,0.83087158203125,4.478607177734375,-2.773895263671875,-0.28411865234375,1.0,1.0,1.0,1.0,1.0,20.0,
2023-09-09 14:33:53.451,1.8024708,1.0495337,0.48144814,0.42103907,1.7147121,0.42468593,-0.06236749,-0.11114958,0.98436624,0.26842046,0.41988376,0.65876514,0.8400598,-0.07148596,-0.03687312,0.6222482,-0.083331525,-0.098970614,-0.47921023,0.4353083,821.5751,821.1722,780.07324,788.5348,919.4872,0.46588134765625,-0.2413330078125,0.836669921875,4.486083984375,-2.489776611328125,-0.657958984375,1.0,1.0,1.0,1.0,1.0,20.0,
2023-09-09 14:33:53.466,1.8024708,1.0495337,0.45384634,0.44169983,1.7147121,0.42468593,-0.05711999,-0.13371967,0.98436624,0.26842046,0.41988376,0.65550673,0.8400598,-0.07148596,-0.059990503,0.64283067,-0.083331525,-0.098970614,-0.4798306,0.40411845,807.8755,813.5165,778.46155,786.1172,815.9341,0.46588134765625,-0.2413330078125,0.836669921875,4.486083984375,-2.489776611328125,-0.657958984375,1.0,1.0,1.0,1.0,1.0,20.0,
2023-09-09 14:33:53.506,1.8024708,1.0495337,0.45384634,0.44169983,1.7147121,0.42468593,-0.05711999,-0.13371967,0.98436624,0.26842046,0.41988376,0.65550673,0.8400598,-0.07148596,-0.059990503,0.64283067,-0.083331525,-0.098970614,-0.4798306,0.40411845,795.38464,815.5311,776.04395,783.69965,766.3736,0.47296142578125,-0.25653076171875,0.8343505859375,0.680389404296875,-1.973876953125,-2.1832275390625,1.0,1.0,1.0,1.0,1.0,20.0,
2023-09-09 14:33:53.525,1.8024708,1.0495337,0.45384634,0.44169983,1.7147121,0.42468593,-0.05711999,-0.13371967,0.98436624,0.26842046,0.41988376,0.65550673,0.8400598,-0.07148596,-0.059990503,0.64283067,-0.083331525,-0.098970614,-0.4798306,0.40411845,825.2015,811.0989,778.46155,792.1612,1053.2601,0.486328125,-0.29010009765625,0.8243408203125,-1.024322509765625,-1.435546875,-2.938385009765625,1.0,1.0,1.0,1.0,1.0,20.0,
2023-09-09 14:33:53.583,1.8024708,1.0495337,0.45384634,0.44169983,1.7147121,0.42468593,-0.05711999,-0.13371967,0.98436624,0.26842046,0.41988376,0.65550673,0.8400598,-0.07148596,-0.059990503,0.64283067,-0.083331525,-0.098970614,-0.4798306,0.40411845,793.7729,816.7399,780.07324,781.28204,892.49084,0.50531005859375,-0.30255126953125,0.81195068359375,1.24114990234375,-3.207550048828125,-1.36077880859375,1.0,1.0,1.0,1.0,1.0,20.0,
2023-09-09 14:33:53.585,1.8024708,1.0495337,0.4539101,0.47179028,1.7147121,0.42468593,-0.055537958,-0.12719578,0.98436624,0.26842046,0.41988376,0.6514624,0.8400598,-0.07148596,-0.08473478,0.67162496,-0.083331525,-0.098970614,-0.4878862,0.38204077,802.23444,813.5165,783.2967,776.04395,763.5531,0.50531005859375,-0.30255126953125,0.81195068359375,1.24114990234375,-3.207550048828125,-1.36077880859375,1.0,1.0,1.0,1.0,1.0,20.0,
2023-09-09 14:33:53.652,1.8024708,1.0495337,0.4539101,0.47179028,1.7147121,0.42468593,-0.055537958,-0.12719578,0.98436624,0.26842046,0.41988376,0.6514624,0.8400598,-0.07148596,-0.08473478,0.67162496,-0.083331525,-0.098970614,-0.4878862,0.38204077,826.0073,784.5055,780.07324,792.1612,825.6044,0.49737548828125,-0.289794921875,0.810791015625,7.005767822265625,-4.418792724609375,1.323394775390625,1.0,1.0,1.0,1.0,1.0,20.0,
2023-09-09 14:33:53.655,1.8024708,1.0495337,0.4879615,0.52501,1.7147121,0.42468593,-0.05194889,-0.099393286,0.98436624,0.26842046,0.41988376,0.6356335,0.8400598,-0.07148596,-0.1069284,0.707618,-0.083331525,-0.098970614,-0.50120044,0.3825331,823.9927,781.28204,783.69965,783.69965,786.1172,0.49737548828125,-0.289794921875,0.810791015625,7.005767822265625,-4.418792724609375,1.323394775390625,1.0,1.0,1.0,1.0,1.0,20.0,
2023-09-09 14:33:53.698,1.8024708,1.0495337,0.4879615,0.52501,1.7147121,0.42468593,-0.05194889,-0.099393286,0.98436624,0.26842046,0.41988376,0.6356335,0.8400598,-0.07148596,-0.1069284,0.707618,-0.083331525,-0.098970614,-0.50120044,0.3825331,836.8865,781.28204,782.49084,800.2198,832.4542,0.47894287109375,-0.26251220703125,0.8302001953125,7.902984619140625,-3.84307861328125,1.413116455078125,1.0,1.0,1.0,1.0,1.0,20.0,
2023-09-09 14:33:53.747,1.8024708,1.0495337,0.4879615,0.52501,1.7147121,0.42468593,-0.05194889,-0.099393286,0.98436624,0.26842046,0.41988376,0.6356335,0.8400598,-0.07148596,-0.1069284,0.707618,-0.083331525,-0.098970614,-0.50120044,0.3825331,846.1539,794.57874,775.2381,784.90845,715.6044,0.474365234375,-0.24749755859375,0.84130859375,6.407623291015625,-4.8150634765625,0.186920166015625,1.0,1.0,1.0,1.0,1.0,20.0,
2023-09-09 14:33:53.751,1.8024708,1.0495337,0.5229383,0.52501,1.7147121,0.42468593,-0.041826177,-0.099393286,0.98436624,0.26842046,0.41988376,0.6356335,0.8400598,-0.07148596,-0.12315062,0.707618,-0.083331525,-0.098970614,-0.51506275,0.3825331,848.5714,805.8608,785.7143,790.9524,683.7729,0.474365234375,-0.24749755859375,0.84130859375,6.407623291015625,-4.8150634765625,0.186920166015625,1.0,1.0,1.0,1.0,1.0,20.0,
2023-09-09 14:33:53.816,1.8024708,1.0495337,0.5229383,0.52501,1.7147121,0.42468593,-0.041826177,-0.099393286,0.98436624,0.26842046,0.41988376,0.6356335,0.8400598,-0.07148596,-0.12315062,0.707618,-0.083331525,-0.098970614,-0.51506275,0.3825331,841.31866,807.0696,780.87915,799.011,879.59705,0.49066162109375,-0.25506591796875,0.8397216796875,4.007568359375,-5.316009521484375,-0.560760498046875,1.0,1.0,1.0,1.0,1.0,20.0,
2023-09-09 14:33:53.851,1.8024708,1.0495337,0.5229383,0.52501,1.7147121,0.42468593,-0.041826177,-0.099393286,0.98436624,0.26842046,0.41988376,0.6356335,0.8400598,-0.07148596,-0.12315062,0.707618,-0.083331525,-0.098970614,-0.51506275,0.3825331,858.24176,804.2491,778.46155,797.8022,924.7253,0.4947509765625,-0.2696533203125,0.82135009765625,1.607513427734375,-3.69354248046875,-1.016845703125,1.0,1.0,1.0,1.0,1.0,20.0,
2023-09-09 14:33:53.856,1.8024708,1.0495337,0.55092853,0.52501,1.7147121,0.42468593,-0.018651826,-0.099393286,0.98436624,0.26842046,0.41620204,0.6356335,0.8400598,-0.07148596,-0.13329442,0.707618,-0.083331525,-0.098970614,-0.52417547,0.3825331,845.34796,812.3077,789.34064,802.6374,696.26373,0.4947509765625,-0.2696533203125,0.82135009765625,1.607513427734375,-3.69354248046875,-1.016845703125,1.0,1.0,1.0,1.0,1.0,20.0,
2023-09-09 14:33:53.925,1.8024708,1.0495337,0.55092853,0.52501,1.7147121,0.42468593,-0.018651826,-0.099393286,0.98436624,0.26842046,0.41620204,0.6356335,0.8400598,-0.07148596,-0.13329442,0.707618,-0.083331525,-0.098970614,-0.52417547,0.3825331,850.989,801.02563,783.2967,790.54944,1185.0183,0.48699951171875,-0.2861328125,0.80267333984375,2.213134765625,-2.489776611328125,-1.734619140625,1.0,1.0,1.0,1.0,1.0,20.0,
2023-09-09 14:33:53.940,1.8024708,1.428695,0.5734278,0.52501,1.7147121,0.32453975,0.007597211,-0.099393286,0.98436624,-0.005127292,0.4055903,0.6356335,0.8400598,-0.018731086,-0.14018907,0.707618,-0.083331525,-0.16511828,-0.5277603,0.3825331,832.0513,796.1905,791.3553,774.83514,563.2967,0.48699951171875,-0.2861328125,0.80267333984375,2.213134765625,-2.489776611328125,-1.734619140625,1.0,1.0,1.0,1.0,1.0,20.0,
2023-09-09 14:33:53.975,1.8024708,1.428695,0.5734278,0.52501,1.7147121,0.32453975,0.007597211,-0.099393286,0.98436624,-0.005127292,0.4055903,0.6356335,0.8400598,-0.018731086,-0.14018907,0.707618,-0.083331525,-0.16511828,-0.5277603,0.3825331,834.4689,799.011,794.17584,777.6557,760.7326,0.50244140625,-0.28448486328125,0.81005859375,5.106658935546875,-4.239349365234375,-1.472930908203125,1.0,1.0,1.0,1.0,1.0,20.0,
2023-09-09 14:33:54.006,1.8024708,1.428695,0.5734278,0.52501,1.7147121,0.32453975,0.007597211,-0.099393286,0.98436624,-0.005127292,0.4055903,0.6356335,0.8400598,-0.018731086,-0.14018907,0.707618,-0.083331525,-0.16511828,-0.5277603,0.3825331,777.6557,805.8608,787.326,779.2674,591.9048,0.5052490234375,-0.27081298828125,0.81903076171875,6.23565673828125,-5.644989013671875,2.011260986328125,1.0,1.0,1.0,1.0,1.0,20.0,
2023-09-09 14:33:54.013,1.8024708,1.434959,0.58575326,0.52501,1.7147121,0.46756253,0.019258458,-0.099393286,0.98436624,0.048398864,0.4136645,0.6356335,0.8400598,-0.053707372,-0.14538126,0.707618,-0.083331525,-0.16878821,-0.53042704,0.3825331,771.2088,807.47253,775.64105,759.5238,595.9341,0.5052490234375,-0.27081298828125,0.81903076171875,6.23565673828125,-5.644989013671875,2.011260986328125,1.0,1.0,1.0,1.0,1.0,20.0,
2023-09-09 14:33:54.075,1.8024708,1.434959,0.58575326,0.52501,1.7147121,0.46756253,0.019258458,-0.099393286,0.98436624,0.048398864,0.4136645,0.6356335,0.8400598,-0.053707372,-0.14538126,0.707618,-0.083331525,-0.16878821,-0.53042704,0.3825331,775.2381,811.0989,774.0293,765.9707,778.46155,0.4854736328125,-0.2672119140625,0.82806396484375,5.854339599609375,-4.42626953125,1.532745361328125,1.0,1.0,1.0,1.0,1.0,20.0,
2023-09-09 14:33:54.150,1.8024708,1.434959,0.58575326,0.52501,1.7147121,0.46756253,0.019258458,-0.099393286,0.98436624,0.048398864,0.4136645,0.6356335,0.8400598,-0.053707372,-0.14538126,0.707618,-0.083331525,-0.16878821,-0.53042704,0.3825331,819.15753,807.47253,775.64105,759.12085,667.6557,0.48834228515625,-0.27398681640625,0.8250732421875,4.373931884765625,-2.7215576171875,-1.98883056640625,1.0,1.0,1.0,1.0,1.0,20.0,
2023-09-09 14:33:54.151,1.8024708,1.4365946,0.58949614,0.52501,1.7147121,0.55369925,0.012569529,-0.099393286,0.98436624,0.098471366,0.42880273,0.6356335,0.8400598,-0.08540124,-0.15080857,0.707618,-0.083331525,-0.18346974,-0.53704756,0.3825331,813.1135,804.65204,775.64105,767.5824,703.91943,0.48834228515625,-0.27398681640625,0.8250732421875,4.373931884765625,-2.7215576171875,-1.98883056640625,1.0,1.0,1.0,1.0,1.0,20.0,
2023-09-09 14:33:54.194,1.8024708,1.4365946,0.58949614,0.52501,1.7147121,0.55369925,0.012569529,-0.099393286,0.98436624,0.098471366,0.42880273,0.6356335,0.8400598,-0.08540124,-0.15080857,0.707618,-0.083331525,-0.18346974,-0.53704756,0.3825331,833.2601,807.0696,777.6557,774.43225,881.6117,0.497802734375,-0.27587890625,0.82220458984375,4.02252197265625,-3.33465576171875,-1.562652587890625,1.0,1.0,1.0,1.0,1.0,20.0,
2023-09-09 14:33:54.263,1.8024708,1.4365946,0.58949614,0.52501,1.7147121,0.55369925,0.012569529,-0.099393286,0.98436624,0.098471366,0.42880273,0.6356335,0.8400598,-0.08540124,-0.15080857,0.707618,-0.083331525,-0.18346974,-0.53704756,0.3825331,820.3663,805.05493,775.64105,770.80585,899.7436,0.50665283203125,-0.28875732421875,0.81353759765625,3.529052734375,-4.5458984375,0.471038818359375,1.0,1.0,1.0,1.0,1.0,20.0,
2023-09-09 14:33:54.266,1.8024708,1.4209617,0.59033585,0.52501,1.7147121,0.5886283,0.0016001164,-0.099393286,0.98436624,0.11720861,0.411087,0.6356335,0.8400598,-0.105383106,-0.1590346,0.707618,-0.083331525,-0.20347615,-0.54603106,0.3825331,817.5458,790.9524,769.59705,751.06226,786.1172,0.50665283203125,-0.28875732421875,0.81353759765625,3.529052734375,-4.5458984375,0.471038818359375,1.0,1.0,1.0,1.0,1.0,20.0,
2023-09-09 14:33:54.299,1.8024708,1.4209617,0.59033585,0.52501,1.7147121,0.5886283,0.0016001164,-0.099393286,0.98436624,0.11720861,0.411087,0.6356335,0.8400598,-0.105383106,-0.1590346,0.707618,-0.083331525,-0.20347615,-0.54603106,0.3825331,840.5128,786.52014,776.04395,760.32965,645.09155,0.50537109375,-0.27227783203125,0.81134033203125,4.8150634765625,-4.65057373046875,1.07666015625,1.0,1.0,1.0,1.0,1.0,20.0,
2023-09-09 14:33:54.338,1.8024708,1.4209617,0.59033585,0.52501,1.7147121,0.5886283,0.0016001164,-0.099393286,0.98436624,0.11720861,0.411087,0.6356335,0.8400598,-0.105383106,-0.1590346,0.707618,-0.083331525,-0.20347615,-0.54603106,0.3825331,886.4469,780.07324,781.685,796.99634,800.2198,0.5050048828125,-0.26251220703125,0.82977294921875,4.74029541015625,-2.893524169921875,0.157012939453125,1.0,1.0,1.0,1.0,1.0,20.0,
2023-09-09 14:33:54.342,1.8024708,1.385433,0.6008464,0.52501,1.7147121,0.58600146,0.007992641,-0.099393286,0.98436624,0.11809645,0.39481482,0.6356335,0.8400598,-0.10890073,-0.17092758,0.707618,-0.083331525,-0.22364885,-0.5519855,0.3825331,867.50916,777.25275,778.86444,788.1319,859.45056,0.5050048828125,-0.26251220703125,0.82977294921875,4.74029541015625,-2.893524169921875,0.157012939453125,1.0,1.0,1.0,1.0,1.0,20.0,
2023-09-09 14:33:54.474,1.8024708,1.385433,0.6008464,0.52501,1.7147121,0.58600146,0.007992641,-0.099393286,0.98436624,0.11809645,0.39481482,0.6356335,0.8400598,-0.10890073,-0.17092758,0.707618,-0.083331525,-0.22364885,-0.5519855,0.3825331,853.8095,809.0842,781.28204,774.83514,657.1795,0.4989013671875,-0.26556396484375,0.81658935546875,3.87298583984375,-2.504730224609375,0.657958984375,1.0,1.0,1.0,1.0,1.0,20.0,
2023-09-09 14:33:54.479,1.8024708,1.3449974,0.6216192,0.52501,1.7147121,0.56850725,0.035307247,-0.099393286,0.98436624,0.11809645,0.35945618,0.6356335,0.8400598,-0.098163806,-0.1831059,0.707618,-0.083331525,-0.24316768,-0.5527885,0.3825331,849.7802,816.337,774.83514,773.22345,902.1612,0.4989013671875,-0.26556396484375,0.81658935546875,3.87298583984375,-2.504730224609375,0.657958984375,1.0,1.0,1.0,1.0,1.0,20.0,
2023-09-09 14:33:54.529,1.8024708,1.3449974,0.6216192,0.52501,1.7147121,0.56850725,0.035307247,-0.099393286,0.98436624,0.11809645,0.35945618,0.6356335,0.8400598,-0.098163806,-0.1831059,0.707618,-0.083331525,-0.24316768,-0.5527885,0.3825331,827.2161,814.3223,787.72894,770.40295,946.8865,0.4852294921875,-0.3006591796875,0.80413818359375,1.099090576171875,-1.398162841796875,-2.998199462890625,1.0,1.0,1.0,1.0,1.0,20.0,
2023-09-09 14:33:54.569,1.8024708,1.3449974,0.6216192,0.52501,1.7147121,0.56850725,0.035307247,-0.099393286,0.98436624,0.11809645,0.35945618,0.6356335,0.8400598,-0.098163806,-0.1831059,0.707618,-0.083331525,-0.24316768,-0.5527885,0.3825331,805.4579,812.71063,781.28204,745.42126,843.73627,0.52154541015625,-0.306396484375,0.79443359375,4.074859619140625,-3.9178466796875,-0.994415283203125,1.0,1.0,1.0,1.0,1.0,20.0,
2023-09-09 14:33:54.575,1.8024708,1.3102981,0.6401065,0.52501,1.7147121,0.5597028,0.06761226,-0.099393286,0.98436624,0.12459444,0.3017492,0.6356335,0.8400598,-0.080688804,-0.19362444,0.707618,-0.083331525,-0.2610426,-0.55386484,0.3825331,817.1429,816.337,786.1172,770.0,1046.0073,0.52154541015625,-0.306396484375,0.79443359375,4.074859619140625,-3.9178466796875,-0.994415283203125,1.0,1.0,1.0,1.0,1.0,20.0,
2023-09-09 14:33:54.582,1.8024708,1.3102981,0.6401065,0.52501,1.7147121,0.5597028,0.06761226,-0.099393286,0.98436624,0.12459444,0.3017492,0.6356335,0.8400598,-0.080688804,-0.19362444,0.707618,-0.083331525,-0.2610426,-0.55386484,0.3825331,806.6667,813.1135,786.52014,757.1062,714.3956,0.5078125,-0.281982421875,0.80987548828125,7.559051513671875,-4.852447509765625,2.669219970703125,1.0,1.0,1.0,1.0,1.0,20.0,
2023-09-09 14:33:54.649,1.8024708,1.2905142,0.6425468,0.52501,1.7147121,0.57095665,0.09006001,-0.099393286,0.98436624,0.17972144,0.28883338,0.6356335,0.8400598,-0.06600578,-0.20503394,0.707618,-0.083331525,-0.2763729,-0.5608248,0.3825331,792.5641,804.2491,772.8205,724.4689,860.2564,0.5078125,-0.281982421875,0.80987548828125,7.559051513671875,-4.852447509765625,2.669219970703125,1.0,1.0,1.0,1.0,1.0,20.0,
2023-09-09 14:33:54.694,1.8024708,1.2905142,0.6425468,0.52501,1.7147121,0.57095665,0.09006001,-0.099393286,0.98436624,0.17972144,0.28883338,0.6356335,0.8400598,-0.06600578,-0.20503394,0.707618,-0.083331525,-0.2763729,-0.5608248,0.3825331,799.011,805.8608,774.83514,740.58606,719.2308,0.48687744140625,-0.25811767578125,0.8212890625,6.990814208984375,-3.60382080078125,1.973876953125,1.0,1.0,1.0,1.0,1.0,20.0,
2023-09-09 14:33:54.734,1.8024708,1.2905142,0.6425468,0.52501,1.7147121,0.57095665,0.09006001,-0.099393286,0.98436624,0.17972144,0.28883338,0.6356335,0.8400598,-0.06600578,-0.20503394,0.707618,-0.083331525,-0.2763729,-0.5608248,0.3825331,830.4396,817.9487,772.8205,770.40295,637.03296,0.45703125,-0.2838134765625,0.821044921875,2.76641845703125,-1.9439697265625,-4.299163818359375,1.0,1.0,1.0,1.0,1.0,20.0,
2023-09-09 14:33:54.766,1.8024708,1.2905142,0.6425468,0.52501,1.7147121,0.57095665,0.09006001,-0.099393286,0.98436624,0.17972144,0.28883338,0.6356335,0.8400598,-0.06600578,-0.20503394,0.707618,-0.083331525,-0.2763729,-0.5608248,0.3825331,832.8571,821.1722,774.43225,779.2674,894.90845,0.52984619140625,-0.2918701171875,0.82037353515625,3.48419189453125,-5.9814453125,-4.299163818359375,1.0,1.0,1.0,1.0,1.0,20.0,
2023-09-09 14:33:54.768,1.8024708,1.2911671,0.6295243,0.52501,1.7147121,0.59417605,0.10021914,-0.099393286,0.98436624,0.23914164,0.2707566,0.6356335,0.8400598,-0.06004782,-0.21855365,0.707618,-0.083331525,-0.2890154,-0.5732344,0.3825331,825.6044,821.978,775.64105,780.4762,871.9414,0.52984619140625,-0.2918701171875,0.82037353515625,3.48419189453125,-5.9814453125,-4.299163818359375,1.0,1.0,1.0,1.0,1.0,20.0,
2023-09-09 14:33:54.815,1.8024708,1.2911671,0.6295243,0.52501,1.7147121,0.59417605,0.10021914,-0.099393286,0.98436624,0.23914164,0.2707566,0.6356335,0.8400598,-0.06004782,-0.21855365,0.707618,-0.083331525,-0.2890154,-0.5732344,0.3825331,805.8608,824.7985,779.2674,768.7912,707.9487,0.53167724609375,-0.283447265625,0.808837890625,5.09918212890625,-4.344024658203125,1.772003173828125,1.0,1.0,1.0,1.0,1.0,20.0,
2023-09-09 14:33:54.876,1.8024708,1.2911671,0.6295243,0.52501,1.7147121,0.59417605,0.10021914,-0.099393286,0.98436624,0.23914164,0.2707566,0.6356335,0.8400598,-0.06004782,-0.21855365,0.707618,-0.083331525,-0.2890154,-0.5732344,0.3825331,802.6374,807.47253,785.7143,765.56775,858.6447,0.50726318359375,-0.28216552734375,0.80517578125,4.867401123046875,-2.093505859375,2.983245849609375,1.0,1.0,1.0,1.0,1.0,20.0,
2023-09-09 14:33:54.879,1.8024708,1.3009336,0.6153747,0.52501,1.7147121,0.6111362,0.10543156,-0.099393286,0.98436624,0.25746104,0.26033404,0.6356335,0.8400598,-0.062757954,-0.2291791,0.707618,-0.083331525,-0.29807296,-0.58478487,0.3825331,811.0989,796.99634,783.69965,752.27106,684.9817,0.50726318359375,-0.28216552734375,0.80517578125,4.867401123046875,-2.093505859375,2.983245849609375,1.0,1.0,1.0,1.0,1.0,20.0,
2023-09-09 14:33:54.951,1.8024708,1.3009336,0.6153747,0.52501,1.7147121,0.6111362,0.10543156,-0.099393286,0.98436624,0.25746104,0.26033404,0.6356335,0.8400598,-0.062757954,-0.2291791,0.707618,-0.083331525,-0.29807296,-0.58478487,0.3825331,814.7253,793.36993,777.6557,755.09155,1025.0549,0.48876953125,-0.2816162109375,0.80487060546875,4.777679443359375,-2.43743896484375,0.112152099609375,1.0,1.0,1.0,1.0,1.0,20.0,
2023-09-09 14:33:54.955,1.8024708,1.3061522,0.6056881,0.52501,1.7147121,0.61418056,0.113013774,-0.099393286,0.98436624,0.26304823,0.2610654,0.6356335,0.8400598,-0.069269404,-0.22998184,0.707618,-0.083331525,-0.302427,-0.5913781,0.3825331,806.6667,787.326,775.64105,738.5714,701.50183,0.48876953125,-0.2816162109375,0.80487060546875,4.777679443359375,-2.43743896484375,0.112152099609375,1.0,1.0,1.0,1.0,1.0,20.0,
2023-09-09 14:33:54.991,1.8024708,1.3061522,0.6056881,0.52501,1.7147121,0.61418056,0.113013774,-0.099393286,0.98436624,0.26304823,0.2610654,0.6356335,0.8400598,-0.069269404,-0.22998184,0.707618,-0.083331525,-0.302427,-0.5913781,0.3825331,811.50183,783.69965,777.25275,760.32965,738.5714,0.49761962890625,-0.28887939453125,0.7991943359375,4.5758056640625,-3.6187744140625,-1.68975830078125,1.0,1.0,1.0,1.0,1.0,20.0,
2023-09-09 14:33:55.042,1.8024708,1.3061522,0.6056881,0.52501,1.7147121,0.61418056,0.113013774,-0.099393286,0.98436624,0.26304823,0.2610654,0.6356335,0.8400598,-0.069269404,-0.22998184,0.707618,-0.083331525,-0.302427,-0.5913781,0.3825331,813.91943,798.20514,774.83514,768.7912,1011.3553,0.49932861328125,-0.28192138671875,0.81036376953125,5.4132080078125,-4.852447509765625,-0.49346923828125,1.0,1.0,1.0,1.0,1.0,20.0,
2023-09-09 14:33:55.051,1.8024708,1.3054647,0.59196436,0.52501,1.7147121,0.60585886,0.12012533,-0.099393286,0.98436624,0.27359426,0.2613423,0.6356335,0.8400598,-0.076107785,-0.22137554,0.707618,-0.083331525,-0.3035437,-0.59430003,0.3825331,813.5165,800.6227,778.86444,768.3883,1037.5458,0.49932861328125,-0.28192138671875,0.81036376953125,5.4132080078125,-4.852447509765625,-0.49346923828125,1.0,1.0,1.0,1.0,1.0,20.0,
2023-09-09 14:33:55.089,1.8024708,1.3054647,0.59196436,0.52501,1.7147121,0.60585886,0.12012533,-0.099393286,0.98436624,0.27359426,0.2613423,0.6356335,0.8400598,-0.076107785,-0.22137554,0.707618,-0.083331525,-0.3035437,-0.59430003,0.3825331,820.3663,808.68134,779.67035,758.71796,608.022,0.50653076171875,-0.28765869140625,0.814208984375,5.196380615234375,-5.0244140625,0.590667724609375,1.0,1.0,1.0,1.0,1.0,20.0,
2023-09-09 14:33:55.150,1.8024708,1.2951009,0.5654927,0.52501,1.7147121,0.61259794,0.120613396,-0.099393286,0.98436624,0.27802724,0.2613423,0.6356335,0.8400598,-0.0867661,-0.20954347,0.707618,-0.083331525,-0.30899262,-0.5979293,0.3825331,796.5934,809.0842,762.74725,781.685,637.4359,0.50653076171875,-0.28765869140625,0.814208984375,5.196380615234375,-5.0244140625,0.590667724609375,1.0,1.0,1.0,1.0,1.0,20.0,
2023-09-09 14:33:55.184,1.8024708,1.2951009,0.5654927,0.52501,1.7147121,0.61259794,0.120613396,-0.099393286,0.98436624,0.27802724,0.2613423,0.6356335,0.8400598,-0.0867661,-0.20954347,0.707618,-0.083331525,-0.30899262,-0.5979293,0.3825331,805.05493,807.47253,755.09155,765.9707,828.8278,0.5040283203125,-0.28472900390625,0.82330322265625,4.538421630859375,-5.00946044921875,0.49346923828125,1.0,1.0,1.0,1.0,1.0,20.0,
2023-09-09 14:33:55.240,1.8024708,1.2951009,0.5654927,0.52501,1.7147121,0.61259794,0.120613396,-0.099393286,0.98436624,0.27802724,0.2613423,0.6356335,0.8400598,-0.0867661,-0.20954347,0.707618,-0.083331525,-0.30899262,-0.5979293,0.3825331,819.5604,812.71063,758.315,771.2088,731.31866,0.51983642578125,-0.27899169921875,0.80963134765625,3.431854248046875,-3.39447021484375,0.067291259765625,1.0,1.0,1.0,1.0,1.0,20.0,
2023-09-09 14:33:56.076,0.96978873,1.2954739,0.57433283,0.52501,0.44061065,0.5024098,0.006077174,-0.099393286,0.44983366,0.26935065,-0.002907172,0.6356335,0.23736277,-0.072740376,-0.18650524,0.707618,0.033993915,-0.3991442,-0.67439467,0.3825331,842.9304,796.5934,778.0586,808.2784,782.8938,0.5093994140625,-0.29083251953125,0.76953125,2.51220703125,-3.386993408203125,-0.3289794921875,1.0,1.0,1.0,1.0,1.0,20.0,
2023-09-09 14:33:56.117,0.96978873,1.2954739,0.57433283,0.52501,0.44061065,0.5024098,0.006077174,-0.099393286,0.44983366,0.26935065,-0.002907172,0.6356335,0.23736277,-0.072740376,-0.18650524,0.707618,0.033993915,-0.3991442,-0.67439467,0.3825331,859.85345,813.5165,780.07324,810.696,1373.9927,0.50604248046875,-0.3138427734375,0.78436279296875,1.831817626953125,-2.953338623046875,-3.409423828125,1.0,1.0,1.0,1.0,1.0,20.0,
2023-09-09 14:33:56.180,0.96978873,1.2954739,0.57433283,0.52501,0.44061065,0.5024098,0.006077174,-0.099393286,0.44983366,0.26935065,-0.002907172,0.6356335,0.23736277,-0.072740376,-0.18650524,0.707618,0.033993915,-0.3991442,-0.67439467,0.3825331,836.08057,809.0842,789.7436,798.20514,713.5897,0.5523681640625,-0.31842041015625,0.78759765625,3.581390380859375,-6.81884765625,-1.80938720703125,1.0,1.0,1.0,1.0,1.0,20.0,
2023-09-09 14:33:56.185,0.96978873,1.3176795,0.5598006,0.52501,0.44061065,0.47909048,-0.037850708,-0.099393286,0.44983366,0.2628043,-0.015397264,0.6356335,0.23736277,-0.09013053,-0.1714999,0.707618,0.033993915,-0.39196643,-0.6840491,0.3825331,834.87177,811.9048,786.9231,790.9524,724.4689,0.5523681640625,-0.31842041015625,0.78759765625,3.581390380859375,-6.81884765625,-1.80938720703125,1.0,1.0,1.0,1.0,1.0,20.0,
2023-09-09 14:33:56.281,0.96978873,1.3176795,0.5598006,0.52501,0.44061065,0.47909048,-0.037850708,-0.099393286,0.44983366,0.2628043,-0.015397264,0.6356335,0.23736277,-0.09013053,-0.1714999,0.707618,0.033993915,-0.39196643,-0.6840491,0.3825331,829.6337,801.4286,790.54944,802.6374,834.87177,0.54827880859375,-0.3046875,0.78765869140625,5.659942626953125,-4.08233642578125,1.86920166015625,1.0,1.0,1.0,1.0,1.0,20.0,
2023-09-09 14:33:56.287,0.96978873,1.320044,0.57738674,0.52501,0.44061065,0.4179947,-0.0536778,-0.099393286,0.44983366,0.23009342,-0.06378551,0.6356335,0.23736277,-0.10293078,-0.15923591,0.707618,0.033993915,-0.384201,-0.69612795,0.3825331,821.1722,800.6227,786.1172,783.2967,745.0183,0.54827880859375,-0.3046875,0.78765869140625,5.659942626953125,-4.08233642578125,1.86920166015625,1.0,1.0,1.0,1.0,1.0,20.0,
2023-09-09 14:33:56.325,0.96978873,1.320044,0.57738674,0.52501,0.44061065,0.4179947,-0.0536778,-0.099393286,0.44983366,0.23009342,-0.06378551,0.6356335,0.23736277,-0.10293078,-0.15923591,0.707618,0.033993915,-0.384201,-0.69612795,0.3825331,809.4872,789.34064,783.2967,769.59705,603.1868,0.51568603515625,-0.314697265625,0.77850341796875,4.5758056640625,-2.878570556640625,-1.173858642578125,1.0,1.0,1.0,1.0,1.0,20.0,
2023-09-09 14:33:56.360,0.96978873,1.320044,0.57738674,0.52501,0.44061065,0.4179947,-0.0536778,-0.099393286,0.44983366,0.23009342,-0.06378551,0.6356335,0.23736277,-0.10293078,-0.15923591,0.707618,0.033993915,-0.384201,-0.69612795,0.3825331,803.0403,766.77655,782.0879,768.3883,719.2308,0.54071044921875,-0.3031005859375,0.78961181640625,6.3104248046875,-3.925323486328125,-2.5421142578125,1.0,1.0,1.0,1.0,1.0,20.0,
2023-09-09 14:33:56.366,0.96978873,1.3066682,0.61863065,0.52501,0.44061065,0.33051616,-0.052879132,-0.099393286,0.44983366,0.17546031,-0.16298002,0.6356335,0.23736277,-0.10383237,-0.15521275,0.707618,0.033993915,-0.3787127,-0.71450484,0.3825331,803.0403,782.49084,790.14655,775.2381,847.76556,0.54071044921875,-0.3031005859375,0.78961181640625,6.3104248046875,-3.925323486328125,-2.5421142578125,1.0,1.0,1.0,1.0,1.0,20.0,
2023-09-09 14:33:56.424,0.96978873,1.3066682,0.61863065,0.52501,0.44061065,0.33051616,-0.052879132,-0.099393286,0.44983366,0.17546031,-0.16298002,0.6356335,0.23736277,-0.10383237,-0.15521275,0.707618,0.033993915,-0.3787127,-0.71450484,0.3825331,807.0696,784.10254,790.9524,781.685,898.1319,0.5389404296875,-0.28839111328125,0.7906494140625,5.151519775390625,-3.39447021484375,-0.59814453125,1.0,1.0,1.0,1.0,1.0,20.0,
2023-09-09 14:33:56.488,0.96978873,1.2953826,0.667952,0.52501,0.44061065,0.24290603,-0.059080392,-0.099393286,0.44983366,0.13079056,-0.262961,0.6356335,0.23736277,-0.094536565,-0.16099547,0.707618,0.033993915,-0.381318,-0.7421445,0.3825331,782.8938,801.8315,794.57874,778.86444,673.69965,0.5389404296875,-0.28839111328125,0.7906494140625,5.151519775390625,-3.39447021484375,-0.59814453125,1.0,1.0,1.0,1.0,1.0,20.0,
2023-09-09 14:33:56.522,0.96978873,1.2953826,0.667952,0.52501,0.44061065,0.24290603,-0.059080392,-0.099393286,0.44983366,0.13079056,-0.262961,0.6356335,0.23736277,-0.094536565,-0.16099547,0.707618,0.033993915,-0.381318,-0.7421445,0.3825331,788.1319,801.02563,794.9817,776.04395,792.1612,0.5328369140625,-0.296875,0.77752685546875,3.99261474609375,-4.373931884765625,-0.321502685546875,1.0,1.0,1.0,1.0,1.0,20.0,
2023-09-09 14:33:56.554,0.96978873,1.2953826,0.667952,0.52501,0.44061065,0.24290603,-0.059080392,-0.099393286,0.44983366,0.13079056,-0.262961,0.6356335,0.23736277,-0.094536565,-0.16099547,0.707618,0.033993915,-0.381318,-0.7421445,0.3825331,783.69965,806.26373,787.326,762.74725,920.293,0.532470703125,-0.3031005859375,0.77783203125,4.78515625,-3.940277099609375,-1.7047119140625,1.0,1.0,1.0,1.0,1.0,20.0,
2023-09-09 14:33:56.636,0.96978873,1.2953826,0.667952,0.52501,0.44061065,0.24290603,-0.059080392,-0.099393286,0.44983366,0.13079056,-0.262961,0.6356335,0.23736277,-0.094536565,-0.16099547,0.707618,0.033993915,-0.381318,-0.7421445,0.3825331,785.7143,793.36993,782.0879,762.74725,718.8278,0.54119873046875,-0.29815673828125,0.7877197265625,5.45806884765625,-4.837493896484375,-1.248626708984375,1.0,1.0,1.0,1.0,1.0,20.0,
2023-09-09 14:33:56.637,0.96978873,1.2953143,0.7198319,0.52501,0.44061065,0.17923957,-0.0730949,-0.099393286,0.44983366,0.09765609,-0.3643168,0.6356335,0.23736277,-0.07846708,-0.17239891,0.707618,0.033993915,-0.3948155,-0.77340347,0.3825331,782.8938,792.96704,779.2674,756.7033,572.1612,0.54119873046875,-0.29815673828125,0.7877197265625,5.45806884765625,-4.837493896484375,-1.248626708984375,1.0,1.0,1.0,1.0,1.0,20.0,
2023-09-09 14:33:56.699,0.96978873,1.2953143,0.7198319,0.52501,0.44061065,0.17923957,-0.0730949,-0.099393286,0.44983366,0.09765609,-0.3643168,0.6356335,0.23736277,-0.07846708,-0.17239891,0.707618,0.033993915,-0.3948155,-0.77340347,0.3825331,801.8315,790.54944,786.52014,759.5238,726.8865,0.5390625,-0.298828125,0.78082275390625,5.7122802734375,-3.8580322265625,-1.45050048828125,1.0,1.0,1.0,1.0,1.0,20.0,
2023-09-09 14:33:56.720,0.96978873,1.2953143,0.7198319,0.52501,0.44061065,0.17923957,-0.0730949,-0.099393286,0.44983366,0.09765609,-0.3643168,0.6356335,0.23736277,-0.07846708,-0.17239891,0.707618,0.033993915,-0.3948155,-0.77340347,0.3825331,790.54944,803.8461,795.38464,756.7033,779.2674,0.5494384765625,-0.29766845703125,0.78472900390625,6.153411865234375,-5.14404296875,0.8074951171875,1.0,1.0,1.0,1.0,1.0,20.0,
2023-09-09 14:33:56.724,0.96978873,1.3020868,0.7198319,0.52501,0.44061065,0.13769448,-0.0730949,-0.099393286,0.44983366,0.060920775,-0.3643168,0.6356335,0.23736277,-0.061693016,-0.17239891,0.707618,0.033993915,-0.41181657,-0.77340347,0.3825331,796.99634,805.4579,791.75824,752.674,616.4835,0.5494384765625,-0.29766845703125,0.78472900390625,6.153411865234375,-5.14404296875,0.8074951171875,1.0,1.0,1.0,1.0,1.0,20.0,
2023-09-09 14:33:56.794,0.96978873,1.3020868,0.7198319,0.52501,0.44061065,0.13769448,-0.0730949,-0.099393286,0.44983366,0.060920775,-0.3643168,0.6356335,0.23736277,-0.061693016,-0.17239891,0.707618,0.033993915,-0.41181657,-0.77340347,0.3825331,814.7253,834.87177,799.81683,791.75824,762.3443,0.55828857421875,-0.29522705078125,0.7774658203125,5.360870361328125,-5.360870361328125,2.250518798828125,1.0,1.0,1.0,1.0,1.0,20.0,
2023-09-09 14:33:56.831,0.96978873,1.3020868,0.7198319,0.52501,0.44061065,0.13769448,-0.0730949,-0.099393286,0.44983366,0.060920775,-0.3643168,0.6356335,0.23736277,-0.061693016,-0.17239891,0.707618,0.033993915,-0.41181657,-0.77340347,0.3825331,813.91943,825.6044,779.67035,775.64105,946.8865,0.5506591796875,-0.28857421875,0.7781982421875,5.301055908203125,-4.658050537109375,3.147735595703125,1.0,1.0,1.0,1.0,1.0,20.0,
2023-09-09 14:33:56.899,0.96978873,1.3020868,0.7198319,0.52501,0.44061065,0.13769448,-0.0730949,-0.099393286,0.44983366,0.060920775,-0.3643168,0.6356335,0.23736277,-0.061693016,-0.17239891,0.707618,0.033993915,-0.41181657,-0.77340347,0.3825331,833.2601,832.8571,785.31134,792.96704,638.24176,0.5531005859375,-0.2904052734375,0.780029296875,4.119720458984375,-3.222503662109375,1.86920166015625,1.0,1.0,1.0,1.0,1.0,20.0,
2023-09-09 14:33:56.935,0.96978873,1.3020868,0.7198319,0.52501,0.44061065,0.13769448,-0.0730949,-0.099393286,0.44983366,0.060920775,-0.3643168,0.6356335,0.23736277,-0.061693016,-0.17239891,0.707618,0.033993915,-0.41181657,-0.77340347,0.3825331,841.31866,818.3516,769.59705,794.17584,848.1685,0.54559326171875,-0.29412841796875,0.7926025390625,3.282318115234375,-2.489776611328125,1.876678466796875,1.0,1.0,1.0,1.0,1.0,20.0,
2023-09-09 14:33:57.044,0.96978873,1.3020868,0.7198319,0.52501,0.44061065,0.13769448,-0.0730949,-0.099393286,0.44983366,0.060920775,-0.3643168,0.6356335,0.23736277,-0.061693016,-0.17239891,0.707618,0.033993915,-0.41181657,-0.77340347,0.3825331,828.8278,780.87915,744.61536,827.2161,683.7729,0.51507568359375,-0.3125,0.76812744140625,1.71966552734375,-1.054229736328125,0.770111083984375,1.0,1.0,1.0,1.0,1.0,20.0,
2023-09-09 14:33:57.102,0.96978873,1.3020868,0.7198319,0.52501,0.44061065,0.13769448,-0.0730949,-0.099393286,0.44983366,0.060920775,-0.3643168,0.6356335,0.23736277,-0.061693016,-0.17239891,0.707618,0.033993915,-0.41181657,-0.77340347,0.3825331,828.022,782.49084,740.18317,840.5128,794.17584,0.5477294921875,-0.32257080078125,0.7530517578125,3.760833740234375,-5.57769775390625,-2.026214599609375,1.0,1.0,1.0,1.0,1.0,20.0,
2023-09-09 14:33:57.150,0.96978873,1.3020868,0.7198319,0.52501,0.44061065,0.13769448,-0.0730949,-0.099393286,0.44983366,0.060920775,-0.3643168,0.6356335,0.23736277,-0.061693016,-0.17239891,0.707618,0.033993915,-0.41181657,-0.77340347,0.3825331,761.13556,709.9634,709.5604,773.6264,893.2967,0.563720703125,-0.30712890625,0.76812744140625,6.14593505859375,-6.018829345703125,0.007476806640625,1.0,1.0,1.0,1.0,1.0,20.0,
2023-09-09 14:33:57.166,0.96978873,1.3020868,0.7198319,0.52501,0.44061065,0.13769448,-0.0730949,-0.099393286,0.44983366,0.060920775,-0.3643168,0.6356335,0.23736277,-0.061693016,-0.17239891,0.707618,0.033993915,-0.41181657,-0.77340347,0.3825331,743.8095,510.1099,621.31866,746.63007,668.0586,0.52490234375,-0.30084228515625,0.7845458984375,5.42816162109375,-3.386993408203125,-0.366363525390625,1.0,1.0,1.0,1.0,1.0,20.0,
2023-09-09 14:33:57.204,0.96978873,1.3020868,0.7198319,0.52501,0.44061065,0.13769448,-0.0730949,-0.099393286,0.44983366,0.060920775,-0.3643168,0.6356335,0.23736277,-0.061693016,-0.17239891,0.707618,0.033993915,-0.41181657,-0.77340347,0.3825331,776.8498,577.8022,650.7326,809.4872,967.4359,0.5606689453125,-0.309814453125,0.78387451171875,4.80010986328125,-3.701019287109375,-3.117828369140625,1.0,1.0,1.0,1.0,1.0,20.0,
2023-09-09 14:33:57.276,0.96978873,1.3020868,0.7198319,0.52501,0.44061065,0.13769448,-0.0730949,-0.099393286,0.44983366,0.060920775,-0.3643168,0.6356335,0.23736277,-0.061693016,-0.17239891,0.707618,0.033993915,-0.41181657,-0.77340347,0.3825331,799.41394,743.8095,742.6007,856.63007,691.02563,0.5531005859375,-0.30316162109375,0.77606201171875,4.14215087890625,-3.446807861328125,-1.084136962890625,1.0,1.0,1.0,1.0,1.0,20.0,
2023-09-09 14:33:57.361,0.96978873,1.3020868,0.7198319,0.52501,0.44061065,0.13769448,-0.0730949,-0.099393286,0.44983366,0.060920775,-0.3643168,0.6356335,0.23736277,-0.061693016,-0.17239891,0.707618,0.033993915,-0.41181657,-0.77340347,0.3825331,824.7985,787.72894,760.7326,869.5238,846.1539,0.558837890625,-0.2994384765625,0.7696533203125,3.656158447265625,-2.99072265625,0.082244873046875,1.0,1.0,1.0,1.0,1.0,20.0,
2023-09-09 14:33:57.396,0.96978873,1.3020868,0.7198319,0.52501,0.44061065,0.13769448,-0.0730949,-0.099393286,0.44983366,0.060920775,-0.3643168,0.6356335,0.23736277,-0.061693016,-0.17239891,0.707618,0.033993915,-0.41181657,-0.77340347,0.3825331,812.3077,804.65204,772.8205,852.6007,747.4359,0.54559326171875,-0.30584716796875,0.76519775390625,4.08233642578125,-2.40753173828125,-0.127105712890625,1.0,1.0,1.0,1.0,1.0,20.0,
2023-09-09 14:33:57.452,0.96978873,1.3020868,0.7198319,0.52501,0.44061065,0.13769448,-0.0730949,-0.099393286,0.44983366,0.060920775,-0.3643168,0.6356335,0.23736277,-0.061693016,-0.17239891,0.707618,0.033993915,-0.41181657,-0.77340347,0.3825331,821.978,813.91943,783.2967,861.8681,653.5531,0.54608154296875,-0.30474853515625,0.77117919921875,4.089813232421875,-3.267364501953125,-1.4654541015625,1.0,1.0,1.0,1.0,1.0,20.0,
2023-09-09 14:33:57.497,0.96978873,1.3020868,0.7198319,0.52501,0.44061065,0.13769448,-0.0730949,-0.099393286,0.44983366,0.060920775,-0.3643168,0.6356335,0.23736277,-0.061693016,-0.17239891,0.707618,0.033993915,-0.41181657,-0.77340347,0.3825331,835.6777,821.5751,791.3553,853.4066,1006.9231,0.55615234375,-0.30859375,0.77410888671875,4.209442138671875,-4.4561767578125,-0.590667724609375,1.0,1.0,1.0,1.0,1.0,20.0,
2023-09-09 14:33:57.571,0.96978873,1.3020868,0.7198319,0.52501,0.44061065,0.13769448,-0.0730949,-0.099393286,0.44983366,0.060920775,-0.3643168,0.6356335,0.23736277,-0.061693016,-0.17239891,0.707618,0.033993915,-0.41181657,-0.77340347,0.3825331,813.1135,801.02563,780.87915,834.0659,1060.5128,0.54541015625,-0.31732177734375,0.7681884765625,4.000091552734375,-3.6187744140625,-0.441131591796875,1.0,1.0,1.0,1.0,1.0,20.0,
2023-09-09 14:33:57.612,0.96978873,1.3020868,0.7198319,0.52501,0.44061065,0.13769448,-0.0730949,-0.099393286,0.44983366,0.060920775,-0.3643168,0.6356335,0.23736277,-0.061693016,-0.17239891,0.707618,0.033993915,-0.41181657,-0.77340347,0.3825331,803.8461,812.3077,782.8938,832.8571,853.8095,0.5560302734375,-0.30511474609375,0.771728515625,5.323486328125,-3.42437744140625,-0.58319091796875,1.0,1.0,1.0,1.0,1.0,20.0,
2023-09-09 14:33:57.666,0.96978873,1.3020868,0.7198319,0.52501,0.44061065,0.13769448,-0.0730949,-0.099393286,0.44983366,0.060920775,-0.3643168,0.6356335,0.23736277,-0.061693016,-0.17239891,0.707618,0.033993915,-0.41181657,-0.77340347,0.3825331,771.2088,780.4762,762.74725,790.54944,799.41394,0.54229736328125,-0.30157470703125,0.7679443359375,5.046844482421875,-3.349609375,-0.37384033203125,1.0,1.0,1.0,1.0,1.0,20.0,
2023-09-09 14:33:57.733,0.96978873,1.3020868,0.7198319,0.52501,0.44061065,0.13769448,-0.0730949,-0.099393286,0.44983366,0.060920775,-0.3643168,0.6356335,0.23736277,-0.061693016,-0.17239891,0.707618,0.033993915,-0.41181657,-0.77340347,0.3825331,778.0586,772.8205,756.30035,791.3553,634.61536,0.54547119140625,-0.31390380859375,0.76348876953125,3.7384033203125,-3.78326416015625,-2.863616943359375,1.0,1.0,1.0,1.0,1.0,20.0,
2023-09-09 14:33:57.833,0.96978873,1.3020868,0.7198319,0.52501,0.44061065,0.13769448,-0.0730949,-0.099393286,0.44983366,0.060920775,-0.3643168,0.6356335,0.23736277,-0.061693016,-0.17239891,0.707618,0.033993915,-0.41181657,-0.77340347,0.3825331,789.34064,810.293,777.25275,813.1135,656.77655,0.57769775390625,-0.3114013671875,0.77081298828125,4.47113037109375,-5.644989013671875,-1.981353759765625,1.0,1.0,1.0,1.0,1.0,20.0,
2023-09-09 14:33:57.870,0.96978873,1.3020868,0.7198319,0.52501,0.44061065,0.13769448,-0.0730949,-0.099393286,0.44983366,0.060920775,-0.3643168,0.6356335,0.23736277,-0.061693016,-0.17239891,0.707618,0.033993915,-0.41181657,-0.77340347,0.3825331,798.20514,799.41394,772.01465,811.0989,847.3626,0.5679931640625,-0.29791259765625,0.77520751953125,5.734710693359375,-3.491668701171875,-0.276641845703125,1.0,1.0,1.0,1.0,1.0,20.0,
2023-09-09 14:33:57.910,0.96978873,1.3020868,0.7198319,0.52501,0.44061065,0.13769448,-0.0730949,-0.099393286,0.44983366,0.060920775,-0.3643168,0.6356335,0.23736277,-0.061693016,-0.17239891,0.707618,0.033993915,-0.41181657,-0.77340347,0.3825331,786.52014,814.7253,760.32965,786.9231,944.4689,0.5341796875,-0.29534912109375,0.7713623046875,3.768310546875,-1.024322509765625,-1.188812255859375,1.0,1.0,1.0,1.0,1.0,20.0,
2023-09-09 14:33:57.952,0.96978873,1.3020868,0.7198319,0.52501,0.44061065,0.13769448,-0.0730949,-0.099393286,0.44983366,0.060920775,-0.3643168,0.6356335,0.23736277,-0.061693016,-0.17239891,0.707618,0.033993915,-0.41181657,-0.77340347,0.3825331,794.17584,830.0366,763.5531,790.54944,832.4542,0.5408935546875,-0.3243408203125,0.75341796875,2.071075439453125,-1.7645263671875,-4.852447509765625,1.0,1.0,1.0,1.0,1.0,20.0,
2023-09-09 14:33:58.050,0.96978873,1.3020868,0.7198319,0.52501,0.44061065,0.13769448,-0.0730949,-0.099393286,0.44983366,0.060920775,-0.3643168,0.6356335,0.23736277,-0.061693016,-0.17239891,0.707618,0.033993915,-0.41181657,-0.77340347,0.3825331,793.7729,820.7692,761.53845,783.2967,730.9158,0.58441162109375,-0.33251953125,0.74578857421875,4.17205810546875,-5.5029296875,-2.115936279296875,1.0,1.0,1.0,1.0,1.0,20.0,
2023-09-09 14:33:58.102,0.96978873,1.3020868,0.7198319,0.52501,0.44061065,0.13769448,-0.0730949,-0.099393286,0.44983366,0.060920775,-0.3643168,0.6356335,0.23736277,-0.061693016,-0.17239891,0.707618,0.033993915,-0.41181657,-0.77340347,0.3825331,784.5055,810.293,766.3736,784.5055,698.68134,0.57574462890625,-0.31341552734375,0.76190185546875,7.237548828125,-5.271148681640625,3.162689208984375,1.0,1.0,1.0,1.0,1.0,20.0,
2023-09-09 14:33:58.136,0.96978873,1.3020868,0.7198319,0.52501,0.44061065,0.13769448,-0.0730949,-0.099393286,0.44983366,0.060920775,-0.3643168,0.6356335,0.23736277,-0.061693016,-0.17239891,0.707618,0.033993915,-0.41181657,-0.77340347,0.3825331,784.10254,814.3223,757.50916,784.10254,691.4286,0.5360107421875,-0.3135986328125,0.765869140625,6.631927490234375,-3.476715087890625,1.188812255859375,1.0,1.0,1.0,1.0,1.0,20.0,
2023-09-09 14:33:58.178,0.96978873,1.3020868,0.7198319,0.52501,0.44061065,0.13769448,-0.0730949,-0.099393286,0.44983366,0.060920775,-0.3643168,0.6356335,0.23736277,-0.061693016,-0.17239891,0.707618,0.033993915,-0.41181657,-0.77340347,0.3825331,789.7436,809.4872,749.85345,791.75824,800.2198,0.56390380859375,-0.29833984375,0.77984619140625,5.360870361328125,-4.254302978515625,-1.8243408203125,1.0,1.0,1.0,1.0,1.0,20.0,
2023-09-09 14:33:58.251,0.96978873,1.3020868,0.7198319,0.52501,0.44061065,0.13769448,-0.0730949,-0.099393286,0.44983366,0.060920775,-0.3643168,0.6356335,0.23736277,-0.061693016,-0.17239891,0.707618,0.033993915,-0.41181657,-0.77340347,0.3825331,793.36993,817.9487,747.4359,781.28204,667.25275,0.56744384765625,-0.30169677734375,0.7625732421875,3.596343994140625,-3.087921142578125,-1.36077880859375,1.0,1.0,1.0,1.0,1.0,20.0,
2023-09-09 14:33:58.326,0.96978873,1.3020868,0.7198319,0.52501,0.44061065,0.13769448,-0.0730949,-0.099393286,0.44983366,0.060920775,-0.3643168,0.6356335,0.23736277,-0.061693016,-0.17239891,0.707618,0.033993915,-0.41181657,-0.77340347,0.3825331,792.96704,798.60803,752.674,785.7143,873.5531,0.568603515625,-0.3109130859375,0.75433349609375,3.7384033203125,-3.536529541015625,0.0299072265625,1.0,1.0,1.0,1.0,1.0,20.0,
2023-09-09 14:33:58.417,0.96978873,1.3020868,0.7198319,0.52501,0.44061065,0.13769448,-0.0730949,-0.099393286,0.44983366,0.060920775,-0.3643168,0.6356335,0.23736277,-0.061693016,-0.17239891,0.707618,0.033993915,-0.41181657,-0.77340347,0.3825331,804.2491,778.46155,751.8681,776.04395,646.7033,0.5667724609375,-0.3079833984375,0.7572021484375,5.18890380859375,-3.3795166015625,0.171966552734375,1.0,1.0,1.0,1.0,1.0,20.0,
2023-09-09 14:33:58.453,0.96978873,1.3020868,0.7198319,0.52501,0.44061065,0.13769448,-0.0730949,-0.099393286,0.44983366,0.060920775,-0.3643168,0.6356335,0.23736277,-0.061693016,-0.17239891,0.707618,0.033993915,-0.41181657,-0.77340347,0.3825331,800.6227,757.1062,747.03296,774.0293,984.35895,0.57208251953125,-0.30389404296875,0.76519775390625,5.286102294921875,-2.489776611328125,-0.55328369140625,1.0,1.0,1.0,1.0,1.0,20.0,
2023-09-09 14:33:58.476,0.96978873,1.3020868,0.7198319,0.52501,0.44061065,0.13769448,-0.0730949,-0.099393286,0.44983366,0.060920775,-0.3643168,0.6356335,0.23736277,-0.061693016,-0.17239891,0.707618,0.033993915,-0.41181657,-0.77340347,0.3825331,815.9341,764.7619,751.8681,786.1172,809.0842,0.56781005859375,-0.30804443359375,0.7650146484375,4.882354736328125,-2.474822998046875,-0.007476806640625,1.0,1.0,1.0,1.0,1.0,20.0,
2023-09-09 14:33:58.507,0.96978873,1.3020868,0.7198319,0.52501,0.44061065,0.13769448,-0.0730949,-0.099393286,0.44983366,0.060920775,-0.3643168,0.6356335,0.23736277,-0.061693016,-0.17239891,0.707618,0.033993915,-0.41181657,-0.77340347,0.3825331,805.05493,780.4762,758.315,765.16486,635.82416,0.5570068359375,-0.31304931640625,0.75994873046875,4.6954345703125,-2.639312744140625,-0.538330078125,1.0,1.0,1.0,1.0,1.0,20.0,
2023-09-09 14:33:58.635,0.96978873,1.3020868,0.7198319,0.52501,0.44061065,0.13769448,-0.0730949,-0.099393286,0.44983366,0.060920775,-0.3643168,0.6356335,0.23736277,-0.061693016,-0.17239891,0.707618,0.033993915,-0.41181657,-0.77340347,0.3825331,791.75824,797.8022,760.32965,747.03296,877.98535,0.56329345703125,-0.30902099609375,0.75811767578125,4.23187255859375,-3.267364501953125,-0.70281982421875,1.0,1.0,1.0,1.0,1.0,20.0,
2023-09-09 14:33:58.679,0.96978873,1.3020868,0.7198319,0.52501,0.44061065,0.13769448,-0.0730949,-0.099393286,0.44983366,0.060920775,-0.3643168,0.6356335,0.23736277,-0.061693016,-0.17239891,0.707618,0.033993915,-0.41181657,-0.77340347,0.3825331,780.07324,789.34064,758.71796,741.79486,722.8571,0.5633544921875,-0.30731201171875,0.758544921875,4.78515625,-4.254302978515625,-0.059814453125,1.0,1.0,1.0,1.0,1.0,20.0,
2023-09-09 14:33:58.710,0.96978873,1.3020868,0.7198319,0.52501,0.44061065,0.13769448,-0.0730949,-0.099393286,0.44983366,0.060920775,-0.3643168,0.6356335,0.23736277,-0.061693016,-0.17239891,0.707618,0.033993915,-0.41181657,-0.77340347,0.3825331,792.1612,796.5934,758.71796,776.04395,1135.0549,0.55963134765625,-0.30950927734375,0.76226806640625,5.96649169921875,-4.306640625,0.291595458984375,1.0,1.0,1.0,1.0,1.0,20.0,
2023-09-09 14:34:00.468,0.96978873,1.3020868,0.28417382,1.2263278,0.44061065,0.13769448,0.100600146,0.7859513,0.44983366,0.060920775,0.03408722,0.8451233,0.23736277,-0.061693016,-0.15575814,0.53013784,0.033993915,-0.41181657,-0.5008686,0.31523043,792.1612,803.0403,762.74725,755.89746,790.54944,0.59521484375,-0.31072998046875,0.75189208984375,5.570220947265625,-3.42437744140625,0.40374755859375,1.0,1.0,1.0,1.0,1.0,20.0,
2023-09-09 14:34:00.505,0.96978873,1.3020868,0.28417382,1.2263278,0.44061065,0.13769448,0.100600146,0.7859513,0.44983366,0.060920775,0.03408722,0.8451233,0.23736277,-0.061693016,-0.15575814,0.53013784,0.033993915,-0.41181657,-0.5008686,0.31523043,789.7436,780.87915,763.95605,764.35895,912.23444,0.610107421875,-0.29931640625,0.74493408203125,4.83001708984375,-4.42626953125,1.786956787109375,1.0,1.0,1.0,1.0,1.0,20.0,
2023-09-09 14:34:00.569,0.96978873,1.3020868,0.28417382,1.2263278,0.44061065,0.13769448,0.100600146,0.7859513,0.44983366,0.060920775,0.03408722,0.8451233,0.23736277,-0.061693016,-0.15575814,0.53013784,0.033993915,-0.41181657,-0.5008686,0.31523043,786.52014,768.7912,768.3883,757.9121,753.0769,0.601806640625,-0.30096435546875,0.74493408203125,4.41131591796875,-0.157012939453125,1.936492919921875,1.0,1.0,1.0,1.0,1.0,20.0,
2023-09-09 14:34:00.574,0.96978873,1.3020868,0.31568334,1.2065628,0.44061065,0.13769448,0.076718666,0.7697991,0.44983366,0.060920775,0.07538452,0.8508013,0.23736277,-0.061693016,-0.15885901,0.5568101,0.033993915,-0.41181657,-0.50687855,0.31060073,776.04395,760.7326,757.9121,771.6117,760.7326,0.601806640625,-0.30096435546875,0.74493408203125,4.41131591796875,-0.157012939453125,1.936492919921875,1.0,1.0,1.0,1.0,1.0,20.0,
2023-09-09 14:34:00.604,0.96978873,1.3020868,0.31568334,1.2065628,0.44061065,0.13769448,0.076718666,0.7697991,0.44983366,0.060920775,0.07538452,0.8508013,0.23736277,-0.061693016,-0.15885901,0.5568101,0.033993915,-0.41181657,-0.50687855,0.31060073,763.1502,760.32965,745.82416,733.3333,789.34064,0.59344482421875,-0.31512451171875,0.7528076171875,3.3795166015625,2.429962158203125,0.919647216796875,1.0,1.0,1.0,1.0,1.0,20.0,
2023-09-09 14:34:00.624,0.96978873,1.3020868,0.37409917,1.1712859,0.44061065,0.13769448,0.06577619,0.75442344,0.44983366,0.060920775,0.09442554,0.8635073,0.23736277,-0.061693016,-0.16115725,0.58658063,0.033993915,-0.41181657,-0.5145397,0.31284827,789.7436,793.36993,768.7912,772.8205,751.8681,0.59344482421875,-0.31512451171875,0.7528076171875,3.3795166015625,2.429962158203125,0.919647216796875,1.0,1.0,1.0,1.0,1.0,20.0,
2023-09-09 14:34:00.670,0.96978873,1.3020868,0.37409917,1.1712859,0.44061065,0.13769448,0.06577619,0.75442344,0.44983366,0.060920775,0.09442554,0.8635073,0.23736277,-0.061693016,-0.16115725,0.58658063,0.033993915,-0.41181657,-0.5145397,0.31284827,781.28204,799.41394,764.7619,785.31134,716.0073,0.65814208984375,-0.3277587890625,0.7515869140625,2.220611572265625,14.632110595703123,1.39068603515625,1.0,1.0,1.0,1.0,1.0,20.0,
2023-09-09 14:34:00.714,0.96978873,1.3020868,0.37409917,1.1712859,0.44061065,0.13769448,0.06577619,0.75442344,0.44983366,0.060920775,0.09442554,0.8635073,0.23736277,-0.061693016,-0.16115725,0.58658063,0.033993915,-0.41181657,-0.5145397,0.31284827,675.31134,744.61536,799.011,664.83514,733.73627,0.60540771484375,-0.34063720703125,0.7696533203125,5.106658935546875,40.412139892578125,4.358978271484375,1.0,1.0,1.0,1.0,1.0,20.0,
2023-09-09 14:34:00.722,0.96978873,1.3020868,0.37749717,1.1712859,0.44061065,0.13769448,0.083079524,0.75442344,0.44983366,0.060920775,0.09442554,0.8635073,0.23736277,-0.061693016,-0.15784757,0.58658063,0.033993915,-0.41181657,-0.51829064,0.31284827,361.8315,452.49084,556.4469,417.03296,891.685,0.60540771484375,-0.34063720703125,0.7696533203125,5.106658935546875,40.412139892578125,4.358978271484375,1.0,1.0,1.0,1.0,1.0,20.0,
2023-09-09 14:34:00.749,0.96978873,1.3020868,0.37749717,1.1712859,0.44061065,0.13769448,0.083079524,0.75442344,0.44983366,0.060920775,0.09442554,0.8635073,0.23736277,-0.061693016,-0.15784757,0.58658063,0.033993915,-0.41181657,-0.51829064,0.31284827,394.8718,485.1282,583.44324,449.2674,788.93774,0.508056640625,-0.36016845703125,0.79266357421875,5.8319091796875,43.701934814453125,-0.964508056640625,1.0,1.0,1.0,1.0,1.0,20.0,
2023-09-09 14:34:00.808,0.96978873,1.3020868,0.37749717,1.1712859,0.44061065,0.13769448,0.083079524,0.75442344,0.44983366,0.060920775,0.09442554,0.8635073,0.23736277,-0.061693016,-0.15784757,0.58658063,0.033993915,-0.41181657,-0.51829064,0.31284827,655.16486,1063.3334,678.1319,727.6923,637.8388,0.4473876953125,-0.32806396484375,0.82110595703125,10.833892822265623,29.89227294921875,-0.01495361328125,1.0,1.0,1.0,1.0,1.0,20.0,
2023-09-09 14:34:00.875,0.96978873,1.3020868,0.37749717,1.1712859,0.44061065,0.13769448,0.083079524,0.75442344,0.44983366,0.060920775,0.09442554,0.8635073,0.23736277,-0.061693016,-0.15784757,0.58658063,0.033993915,-0.41181657,-0.51829064,0.31284827,429.12088,1100.8059,685.38464,508.09525,844.5421,0.4072265625,-0.28973388671875,0.81884765625,12.374114990234377,18.968658447265625,1.79443359375,1.0,1.0,1.0,1.0,1.0,20.0,
2023-09-09 14:34:00.876,0.96978873,1.3020868,0.3973924,1.1712859,0.44061065,0.13769448,0.10723175,0.75442344,0.44983366,0.060920775,0.09442554,0.8635073,0.23736277,-0.061693016,-0.14689682,0.58658063,0.033993915,-0.41181657,-0.5155419,0.31284827,437.58243,1094.762,704.7253,531.4652,1190.2565,0.4072265625,-0.28973388671875,0.81884765625,12.374114990234377,18.968658447265625,1.79443359375,1.0,1.0,1.0,1.0,1.0,20.0,
2023-09-09 14:34:00.968,0.96978873,1.3020868,0.3973924,1.1712859,0.44061065,0.13769448,0.10723175,0.75442344,0.44983366,0.060920775,0.09442554,0.8635073,0.23736277,-0.061693016,-0.14689682,0.58658063,0.033993915,-0.41181657,-0.5155419,0.31284827,657.5824,1164.0659,822.7839,676.9231,723.2601,0.3692626953125,-0.27099609375,0.83782958984375,12.57598876953125,10.908660888671877,0.829925537109375,1.0,1.0,1.0,1.0,1.0,20.0,
2023-09-09 14:34:00.971,0.96978873,1.3020868,0.42950502,1.1712859,0.44061065,0.13769448,0.13285321,0.75442344,0.44983366,0.060920775,0.09442554,0.8635073,0.23736277,-0.061693016,-0.12969954,0.58658063,0.033993915,-0.41181657,-0.5082353,0.31284827,666.04395,1162.0513,805.4579,675.31134,885.64105,0.3692626953125,-0.27099609375,0.83782958984375,12.57598876953125,10.908660888671877,0.829925537109375,1.0,1.0,1.0,1.0,1.0,20.0,
2023-09-09 14:34:01.008,0.96978873,1.3020868,0.42950502,1.1712859,0.44061065,0.13769448,0.13285321,0.75442344,0.44983366,0.060920775,0.09442554,0.8635073,0.23736277,-0.061693016,-0.12969954,0.58658063,0.033993915,-0.41181657,-0.5082353,0.31284827,645.89746,1101.2087,742.6007,660.80585,1168.0952,0.3663330078125,-0.27239990234375,0.8643798828125,8.89739990234375,5.14404296875,-1.682281494140625,1.0,1.0,1.0,1.0,1.0,20.0,
2023-09-09 14:34:01.071,0.96978873,1.3020868,0.42950502,1.1712859,0.44061065,0.13769448,0.13285321,0.75442344,0.44983366,0.060920775,0.09442554,0.8635073,0.23736277,-0.061693016,-0.12969954,0.58658063,0.033993915,-0.41181657,-0.5082353,0.31284827,732.1245,1021.8315,741.39197,705.9341,877.1795,0.38897705078125,-0.29736328125,0.854736328125,3.289794921875,-5.96649169921875,-5.7720947265625,1.0,1.0,1.0,1.0,1.0,20.0,
2023-09-09 14:34:01.075,0.96978873,1.3020868,0.4602553,1.1778017,0.44061065,0.13769448,0.14912586,0.7814958,0.44983366,0.060920775,0.09442554,0.8635073,0.23736277,-0.061693016,-0.1099684,0.59897554,0.033993915,-0.41181657,-0.4953994,0.28471693,761.13556,990.0,736.9597,730.5128,820.7692,0.38897705078125,-0.29736328125,0.854736328125,3.289794921875,-5.96649169921875,-5.7720947265625,1.0,1.0,1.0,1.0,1.0,20.0,
2023-09-09 14:34:01.110,0.96978873,1.3020868,0.4602553,1.1778017,0.44061065,0.13769448,0.14912586,0.7814958,0.44983366,0.060920775,0.09442554,0.8635073,0.23736277,-0.061693016,-0.1099684,0.59897554,0.033993915,-0.41181657,-0.4953994,0.28471693,803.8461,959.3773,776.4469,773.6264,602.7839,0.42236328125,-0.2965087890625,0.843017578125,2.73651123046875,-11.103057861328123,-5.136566162109375,1.0,1.0,1.0,1.0,1.0,20.0,
2023-09-09 14:34:01.145,0.96978873,1.3020868,0.4602553,1.1778017,0.44061065,0.13769448,0.14912586,0.7814958,0.44983366,0.060920775,0.09442554,0.8635073,0.23736277,-0.061693016,-0.1099684,0.59897554,0.033993915,-0.41181657,-0.4953994,0.28471693,875.16486,926.337,826.4103,853.8095,809.89014,0.43206787109375,-0.29815673828125,0.83917236328125,5.136566162109375,-11.185302734375,-0.964508056640625,1.0,1.0,1.0,1.0,1.0,20.0,
2023-09-09 14:34:01.156,0.96978873,1.3020868,0.4783248,1.199364,0.44061065,0.13769448,0.1380652,0.77948153,0.44983366,0.060920775,0.09411822,0.8635073,0.23736277,-0.061693016,-0.09286945,0.6178472,0.033993915,-0.41181657,-0.47530177,0.26514727,874.35895,862.27106,807.8755,866.30035,898.5348,0.43206787109375,-0.29815673828125,0.83917236328125,5.136566162109375,-11.185302734375,-0.964508056640625,1.0,1.0,1.0,1.0,1.0,20.0,
2023-09-09 14:34:01.224,0.96978873,1.3020868,0.4783248,1.199364,0.44061065,0.13769448,0.1380652,0.77948153,0.44983366,0.060920775,0.09411822,0.8635073,0.23736277,-0.061693016,-0.09286945,0.6178472,0.033993915,-0.41181657,-0.47530177,0.26514727,886.8498,760.32965,842.9304,906.1905,710.7692,0.4517822265625,-0.294921875,0.85260009765625,4.403839111328125,-7.357177734375,0.4486083984375,1.0,1.0,1.0,1.0,1.0,20.0,
2023-09-09 14:34:01.230,0.96978873,1.3020868,0.48535597,1.1796333,0.44061065,0.13769448,0.08244292,0.6986624,0.44983366,0.060920775,0.092205346,0.85996187,0.23736277,-0.061693016,-0.08399716,0.6408448,0.033993915,-0.41181657,-0.44969088,0.26769796,852.6007,688.20514,847.3626,865.89746,1062.9304,0.4517822265625,-0.294921875,0.85260009765625,4.403839111328125,-7.357177734375,0.4486083984375,1.0,1.0,1.0,1.0,1.0,20.0,
2023-09-09 14:34:01.291,0.96978873,1.3020868,0.48535597,1.1796333,0.44061065,0.13769448,0.08244292,0.6986624,0.44983366,0.060920775,0.092205346,0.85996187,0.23736277,-0.061693016,-0.08399716,0.6408448,0.033993915,-0.41181657,-0.44969088,0.26769796,847.76556,661.2088,827.2161,858.24176,864.68866,0.448486328125,-0.304443359375,0.8353271484375,4.553375244140625,-6.736602783203125,-0.007476806640625,1.0,1.0,1.0,1.0,1.0,20.0,
2023-09-09 14:34:01.327,0.96978873,1.3020868,0.48535597,1.1796333,0.44061065,0.13769448,0.08244292,0.6986624,0.44983366,0.060920775,0.092205346,0.85996187,0.23736277,-0.061693016,-0.08399716,0.6408448,0.033993915,-0.41181657,-0.44969088,0.26769796,828.8278,632.6007,806.6667,812.71063,902.96704,0.46063232421875,-0.302490234375,0.846923828125,5.390777587890625,-4.538421630859375,2.295379638671875,1.0,1.0,1.0,1.0,1.0,20.0,
2023-09-09 14:34:01.343,0.96978873,1.3020868,0.49026677,1.1796333,0.44061065,0.13769448,-0.02656152,0.6986624,0.44983366,0.060920775,0.072547264,0.85996187,0.23736277,-0.061693016,-0.08596738,0.6408448,0.033993915,-0.41181657,-0.42469966,0.26769796,805.05493,620.9158,770.0,790.54944,652.74725,0.46063232421875,-0.302490234375,0.846923828125,5.390777587890625,-4.538421630859375,2.295379638671875,1.0,1.0,1.0,1.0,1.0,20.0,
2023-09-09 14:34:01.408,0.96978873,1.3020868,0.49026677,1.1796333,0.44061065,0.13769448,-0.02656152,0.6986624,0.44983366,0.060920775,0.072547264,0.85996187,0.23736277,-0.061693016,-0.08596738,0.6408448,0.033993915,-0.41181657,-0.42469966,0.26769796,808.68134,616.8865,770.0,792.96704,637.8388,0.43939208984375,-0.302978515625,0.84808349609375,4.90478515625,-4.927215576171875,3.058013916015625,1.0,1.0,1.0,1.0,1.0,20.0,
2023-09-09 14:34:01.480,0.96978873,1.3020868,0.49026677,1.1796333,0.44061065,0.13769448,-0.02656152,0.6986624,0.44983366,0.060920775,0.072547264,0.85996187,0.23736277,-0.061693016,-0.08596738,0.6408448,0.033993915,-0.41181657,-0.42469966,0.26769796,758.315,595.5311,734.5421,752.27106,764.7619,0.4583740234375,-0.30169677734375,0.84912109375,5.24871826171875,-4.127197265625,2.10845947265625,1.0,1.0,1.0,1.0,1.0,20.0,
2023-09-09 14:34:01.481,0.96978873,1.3020868,0.5045101,1.1796333,0.44061065,0.13769448,-0.1719385,0.6986624,0.44983366,0.060920775,0.034058858,0.85996187,0.23736277,-0.061693016,-0.09549785,0.6408448,0.033993915,-0.41181657,-0.40731233,0.26769796,754.68866,593.91943,734.94507,755.4945,546.3736,0.4583740234375,-0.30169677734375,0.84912109375,5.24871826171875,-4.127197265625,2.10845947265625,1.0,1.0,1.0,1.0,1.0,20.0,
2023-09-09 14:34:01.515,0.96978873,1.3020868,0.5045101,1.1796333,0.44061065,0.13769448,-0.1719385,0.6986624,0.44983366,0.060920775,0.034058858,0.85996187,0.23736277,-0.061693016,-0.09549785,0.6408448,0.033993915,-0.41181657,-0.40731233,0.26769796,763.1502,622.1245,723.663,759.92676,627.3626,0.4375,-0.298583984375,0.84393310546875,6.168365478515625,-2.332763671875,3.06549072265625,1.0,1.0,1.0,1.0,1.0,20.0,
2023-09-09 14:34:01.607,0.96978873,1.3020868,0.5045101,1.1796333,0.44061065,0.13769448,-0.1719385,0.6986624,0.44983366,0.060920775,0.034058858,0.85996187,0.23736277,-0.061693016,-0.09549785,0.6408448,0.033993915,-0.41181657,-0.40731233,0.26769796,784.5055,679.7436,765.9707,785.31134,823.1868,0.41632080078125,-0.28814697265625,0.84124755859375,6.945953369140625,-0.949554443359375,2.3028564453125,1.0,1.0,1.0,1.0,1.0,20.0,
2023-09-09 14:34:01.609,0.96978873,1.3020868,0.54040104,1.1796333,0.44061065,0.13769448,-0.29286858,0.6986624,0.44983366,0.060920775,-0.024765508,0.85996187,0.23736277,-0.061693016,-0.10761945,0.6408448,0.033993915,-0.41181657,-0.40166438,0.26769796,772.01465,684.17584,763.1502,792.1612,584.2491,0.41632080078125,-0.28814697265625,0.84124755859375,6.945953369140625,-0.949554443359375,2.3028564453125,1.0,1.0,1.0,1.0,1.0,20.0,
2023-09-09 14:34:01.643,0.96978873,1.3020868,0.54040104,1.1796333,0.44061065,0.13769448,-0.29286858,0.6986624,0.44983366,0.060920775,-0.024765508,0.85996187,0.23736277,-0.061693016,-0.10761945,0.6408448,0.033993915,-0.41181657,-0.40166438,0.26769796,767.98535,705.9341,765.16486,767.5824,848.1685,0.4017333984375,-0.27093505859375,0.85455322265625,5.36834716796875,-3.78326416015625,0.441131591796875,1.0,1.0,1.0,1.0,1.0,20.0,
2023-09-09 14:34:01.682,0.96978873,1.3020868,0.54040104,1.1796333,0.44061065,0.13769448,-0.29286858,0.6986624,0.44983366,0.060920775,-0.024765508,0.85996187,0.23736277,-0.061693016,-0.10761945,0.6408448,0.033993915,-0.41181657,-0.40166438,0.26769796,759.92676,730.10986,771.6117,784.5055,720.84247,0.4097900390625,-0.27667236328125,0.85479736328125,3.132781982421875,-4.38140869140625,-1.016845703125,1.0,1.0,1.0,1.0,1.0,20.0,
2023-09-09 14:34:01.686,0.96978873,1.3020868,0.60077584,1.1796333,0.44061065,0.13769448,-0.3363434,0.6986624,0.44983366,0.060920775,-0.10975008,0.85996187,0.23736277,-0.061693016,-0.1207557,0.6408448,0.033993915,-0.41181657,-0.40533787,0.26769796,759.92676,751.8681,767.1795,763.5531,905.78754,0.4097900390625,-0.27667236328125,0.85479736328125,3.132781982421875,-4.38140869140625,-1.016845703125,1.0,1.0,1.0,1.0,1.0,20.0,
2023-09-09 14:34:01.759,0.96978873,1.3020868,0.60077584,1.1796333,0.44061065,0.13769448,-0.3363434,0.6986624,0.44983366,0.060920775,-0.10975008,0.85996187,0.23736277,-0.061693016,-0.1207557,0.6408448,0.033993915,-0.41181657,-0.40533787,0.26769796,755.4945,753.0769,774.0293,770.80585,868.71796,0.429443359375,-0.29241943359375,0.83380126953125,0.478515625,-5.375823974609375,-4.6954345703125,1.0,1.0,1.0,1.0,1.0,20.0,
2023-09-09 14:34:01.767,0.96978873,1.3020868,0.68095905,1.1796333,0.44061065,0.13769448,-0.33150038,0.6986624,0.44983366,0.060920775,-0.18043032,0.85996187,0.23736277,-0.061693016,-0.1380042,0.6408448,0.033993915,-0.41181657,-0.41335562,0.26769796,757.9121,742.1978,771.6117,773.6264,941.2454,0.429443359375,-0.29241943359375,0.83380126953125,0.478515625,-5.375823974609375,-4.6954345703125,1.0,1.0,1.0,1.0,1.0,20.0,
2023-09-09 14:34:01.799,0.96978873,1.3020868,0.68095905,1.1796333,0.44061065,0.13769448,-0.33150038,0.6986624,0.44983366,0.060920775,-0.18043032,0.85996187,0.23736277,-0.061693016,-0.1380042,0.6408448,0.033993915,-0.41181657,-0.41335562,0.26769796,759.12085,727.28937,763.95605,757.50916,745.82416,0.450439453125,-0.3055419921875,0.840087890625,0.201873779296875,-5.465545654296875,-5.27862548828125,1.0,1.0,1.0,1.0,1.0,20.0,
2023-09-09 14:34:01.844,0.96978873,1.3020868,0.68095905,1.1796333,0.44061065,0.13769448,-0.33150038,0.6986624,0.44983366,0.060920775,-0.18043032,0.85996187,0.23736277,-0.061693016,-0.1380042,0.6408448,0.033993915,-0.41181657,-0.41335562,0.26769796,766.3736,692.23444,767.1795,772.01465,877.5824,0.462158203125,-0.31201171875,0.8306884765625,0.22430419921875,-5.84686279296875,-2.908477783203125,1.0,1.0,1.0,1.0,1.0,20.0,
2023-09-09 14:34:01.908,0.96978873,1.3020868,0.68095905,1.1796333,0.44061065,0.13769448,-0.33150038,0.6986624,0.44983366,0.060920775,-0.18043032,0.85996187,0.23736277,-0.061693016,-0.1380042,0.6408448,0.033993915,-0.41181657,-0.41335562,0.26769796,755.09155,657.1795,790.54944,756.30035,695.05493,0.4520263671875,-0.326416015625,0.82562255859375,-0.829925537109375,-4.239349365234375,-2.355194091796875,1.0,1.0,1.0,1.0,1.0,20.0,
2023-09-09 14:34:01.981,0.96978873,1.3020868,0.68095905,1.1796333,0.44061065,0.13769448,-0.33150038,0.6986624,0.44983366,0.060920775,-0.18043032,0.85996187,0.23736277,-0.061693016,-0.1380042,0.6408448,0.033993915,-0.41181657,-0.41335562,0.26769796,780.87915,715.6044,783.69965,762.74725,907.8022,0.4613037109375,-0.34637451171875,0.8121337890625,0.28411865234375,-4.702911376953125,-3.75335693359375,1.0,1.0,1.0,1.0,1.0,20.0,
2023-09-09 14:34:02.064,0.96978873,1.3020868,0.68095905,1.1796333,0.44061065,0.13769448,-0.33150038,0.6986624,0.44983366,0.060920775,-0.18043032,0.85996187,0.23736277,-0.061693016,-0.1380042,0.6408448,0.033993915,-0.41181657,-0.41335562,0.26769796,774.43225,744.21246,761.9414,755.4945,655.9707,0.47686767578125,-0.3321533203125,0.825439453125,3.69354248046875,-5.60760498046875,-1.188812255859375,1.0,1.0,1.0,1.0,1.0,20.0,
2023-09-09 14:34:02.110,0.96978873,1.3020868,0.68095905,1.1796333,0.44061065,0.13769448,-0.33150038,0.6986624,0.44983366,0.060920775,-0.18043032,0.85996187,0.23736277,-0.061693016,-0.1380042,0.6408448,0.033993915,-0.41181657,-0.41335562,0.26769796,762.74725,736.55676,748.6447,750.65936,874.35895,0.46881103515625,-0.31829833984375,0.8271484375,3.54400634765625,-6.736602783203125,-0.01495361328125,1.0,1.0,1.0,1.0,1.0,20.0,
2023-09-09 14:34:02.150,0.96978873,1.3020868,0.68095905,1.1796333,0.44061065,0.13769448,-0.33150038,0.6986624,0.44983366,0.060920775,-0.18043032,0.85996187,0.23736277,-0.061693016,-0.1380042,0.6408448,0.033993915,-0.41181657,-0.41335562,0.26769796,760.7326,748.24176,748.6447,766.3736,896.9231,0.46240234375,-0.31884765625,0.82269287109375,3.3795166015625,-4.104766845703125,-2.250518798828125,1.0,1.0,1.0,1.0,1.0,20.0,
2023-09-09 14:34:02.199,0.96978873,1.3020868,0.68095905,1.1796333,0.44061065,0.13769448,-0.33150038,0.6986624,0.44983366,0.060920775,-0.18043032,0.85996187,0.23736277,-0.061693016,-0.1380042,0.6408448,0.033993915,-0.41181657,-0.41335562,0.26769796,749.45056,760.7326,737.3626,743.8095,736.1539,0.46142578125,-0.32354736328125,0.8203125,2.833709716796875,-3.297271728515625,-3.90289306640625,1.0,1.0,1.0,1.0,1.0,20.0,
2023-09-09 14:34:02.302,0.96978873,1.3020868,0.68095905,1.1796333,0.44061065,0.13769448,-0.33150038,0.6986624,0.44983366,0.060920775,-0.18043032,0.85996187,0.23736277,-0.061693016,-0.1380042,0.6408448,0.033993915,-0.41181657,-0.41335562,0.26769796,748.24176,776.8498,745.82416,730.10986,891.28204,0.4669189453125,-0.3265380859375,0.8154296875,3.84307861328125,-5.084228515625,-2.8411865234375,1.0,1.0,1.0,1.0,1.0,20.0,
2023-09-09 14:34:02.322,0.96978873,1.3020868,0.68095905,1.1796333,0.44061065,0.13769448,-0.33150038,0.6986624,0.44983366,0.060920775,-0.18043032,0.85996187,0.23736277,-0.061693016,-0.1380042,0.6408448,0.033993915,-0.41181657,-0.41335562,0.26769796,778.86444,801.02563,758.71796,732.9304,582.6374,0.4766845703125,-0.3221435546875,0.81146240234375,4.1571044921875,-5.630035400390625,-1.891632080078125,1.0,1.0,1.0,1.0,1.0,20.0,
2023-09-09 14:34:02.355,0.96978873,1.3020868,0.68095905,1.1796333,0.44061065,0.13769448,-0.33150038,0.6986624,0.44983366,0.060920775,-0.18043032,0.85996187,0.23736277,-0.061693016,-0.1380042,0.6408448,0.033993915,-0.41181657,-0.41335562,0.26769796,775.64105,813.5165,761.9414,729.707,906.1905,0.485595703125,-0.3251953125,0.8218994140625,4.388885498046875,-7.484283447265625,-0.485992431640625,1.0,1.0,1.0,1.0,1.0,20.0,
2023-09-09 14:34:02.402,0.96978873,1.3020868,0.68095905,1.1796333,0.44061065,0.13769448,-0.33150038,0.6986624,0.44983366,0.060920775,-0.18043032,0.85996187,0.23736277,-0.061693016,-0.1380042,0.6408448,0.033993915,-0.41181657,-0.41335562,0.26769796,768.7912,805.8608,755.89746,741.39197,871.53845,0.49981689453125,-0.31622314453125,0.810791015625,4.732818603515625,-6.4300537109375,-0.897216796875,1.0,1.0,1.0,1.0,1.0,20.0,
2023-09-09 14:34:02.497,0.96978873,1.3020868,0.68095905,1.1796333,0.44061065,0.13769448,-0.33150038,0.6986624,0.44983366,0.060920775,-0.18043032,0.85996187,0.23736277,-0.061693016,-0.1380042,0.6408448,0.033993915,-0.41181657,-0.41335562,0.26769796,793.7729,782.8938,754.68866,752.674,848.1685,0.4888916015625,-0.31207275390625,0.8133544921875,4.6356201171875,-6.3702392578125,-0.0897216796875,1.0,1.0,1.0,1.0,1.0,20.0,
2023-09-09 14:34:02.550,0.96978873,1.3020868,0.68095905,1.1796333,0.44061065,0.13769448,-0.33150038,0.6986624,0.44983366,0.060920775,-0.18043032,0.85996187,0.23736277,-0.061693016,-0.1380042,0.6408448,0.033993915,-0.41181657,-0.41335562,0.26769796,784.5055,754.68866,745.82416,735.7509,855.82416,0.48455810546875,-0.31585693359375,0.81005859375,4.299163818359375,-6.160888671875,-1.6448974609375,1.0,1.0,1.0,1.0,1.0,20.0,
2023-09-09 14:34:02.619,0.96978873,1.3020868,0.68095905,1.1796333,0.44061065,0.13769448,-0.33150038,0.6986624,0.44983366,0.060920775,-0.18043032,0.85996187,0.23736277,-0.061693016,-0.1380042,0.6408448,0.033993915,-0.41181657,-0.41335562,0.26769796,782.0879,763.95605,774.0293,739.3773,616.08057,0.49920654296875,-0.3153076171875,0.81451416015625,3.81317138671875,-5.8917236328125,-1.51031494140625,1.0,1.0,1.0,1.0,1.0,20.0,
2023-09-09 14:34:02.654,0.96978873,1.3020868,0.68095905,1.1796333,0.44061065,0.13769448,-0.33150038,0.6986624,0.44983366,0.060920775,-0.18043032,0.85996187,0.23736277,-0.061693016,-0.1380042,0.6408448,0.033993915,-0.41181657,-0.41335562,0.26769796,791.3553,792.1612,776.04395,749.45056,952.52747,0.50213623046875,-0.31585693359375,0.8065185546875,3.028106689453125,-5.226287841796875,-1.263580322265625,1.0,1.0,1.0,1.0,1.0,20.0,
2023-09-09 14:34:02.693,0.96978873,1.3020868,0.68095905,1.1796333,0.44061065,0.13769448,-0.33150038,0.6986624,0.44983366,0.060920775,-0.18043032,0.85996187,0.23736277,-0.061693016,-0.1380042,0.6408448,0.033993915,-0.41181657,-0.41335562,0.26769796,807.0696,817.5458,788.5348,740.989,731.7216,0.49591064453125,-0.3258056640625,0.8040771484375,3.39447021484375,-4.32159423828125,-1.4056396484375,1.0,1.0,1.0,1.0,1.0,20.0,
2023-09-09 14:34:02.794,0.96978873,1.3020868,0.68095905,1.1796333,0.44061065,0.13769448,-0.33150038,0.6986624,0.44983366,0.060920775,-0.18043032,0.85996187,0.23736277,-0.061693016,-0.1380042,0.6408448,0.033993915,-0.41181657,-0.41335562,0.26769796,798.20514,828.8278,757.1062,751.8681,875.56775,0.501708984375,-0.32562255859375,0.799072265625,2.370147705078125,-4.104766845703125,-3.043060302734375,1.0,1.0,1.0,1.0,1.0,20.0,
2023-09-09 14:34:02.850,0.96978873,1.3020868,0.68095905,1.1796333,0.44061065,0.13769448,-0.33150038,0.6986624,0.44983366,0.060920775,-0.18043032,0.85996187,0.23736277,-0.061693016,-0.1380042,0.6408448,0.033993915,-0.41181657,-0.41335562,0.26769796,882.01465,923.1135,855.82416,841.7216,792.5641,0.49627685546875,-0.3330078125,0.79620361328125,3.46923828125,-4.02252197265625,-2.444915771484375,1.0,1.0,1.0,1.0,1.0,20.0,
2023-09-09 14:34:02.901,0.96978873,1.3020868,0.68095905,1.1796333,0.44061065,0.13769448,-0.33150038,0.6986624,0.44983366,0.060920775,-0.18043032,0.85996187,0.23736277,-0.061693016,-0.1380042,0.6408448,0.033993915,-0.41181657,-0.41335562,0.26769796,814.3223,874.35895,808.68134,819.9634,1027.4725,0.5068359375,-0.3203125,0.7960205078125,5.286102294921875,-5.256195068359375,-0.5682373046875,1.0,1.0,1.0,1.0,1.0,20.0,
2023-09-09 14:34:02.937,0.96978873,1.3020868,0.68095905,1.1796333,0.44061065,0.13769448,-0.33150038,0.6986624,0.44983366,0.060920775,-0.18043032,0.85996187,0.23736277,-0.061693016,-0.1380042,0.6408448,0.033993915,-0.41181657,-0.41335562,0.26769796,799.41394,844.94507,783.69965,772.8205,864.2857,0.4931640625,-0.33233642578125,0.79461669921875,4.673004150390625,-4.179534912109375,-0.605621337890625,1.0,1.0,1.0,1.0,1.0,20.0,
2023-09-09 14:34:02.975,0.96978873,1.3020868,0.68095905,1.1796333,0.44061065,0.13769448,-0.33150038,0.6986624,0.44983366,0.060920775,-0.18043032,0.85996187,0.23736277,-0.061693016,-0.1380042,0.6408448,0.033993915,-0.41181657,-0.41335562,0.26769796,787.326,838.9011,768.7912,764.35895,660.40295,0.5181884765625,-0.324462890625,0.79766845703125,4.867401123046875,-5.27862548828125,0.426177978515625,1.0,1.0,1.0,1.0,1.0,20.0,
2023-09-09 14:34:03.070,0.96978873,1.3020868,0.68095905,1.1796333,0.44061065,0.13769448,-0.33150038,0.6986624,0.44983366,0.060920775,-0.18043032,0.85996187,0.23736277,-0.061693016,-0.1380042,0.6408448,0.033993915,-0.41181657,-0.41335562,0.26769796,783.69965,827.619,761.53845,776.04395,888.46155,0.520751953125,-0.318359375,0.79925537109375,3.865509033203125,-4.41131591796875,0.336456298828125,1.0,1.0,1.0,1.0,1.0,20.0,
2023-09-09 14:34:03.124,0.96978873,1.3020868,0.68095905,1.1796333,0.44061065,0.13769448,-0.33150038,0.6986624,0.44983366,0.060920775,-0.18043032,0.85996187,0.23736277,-0.061693016,-0.1380042,0.6408448,0.033993915,-0.41181657,-0.41335562,0.26769796,772.4176,821.978,766.3736,741.79486,686.1905,0.4967041015625,-0.31201171875,0.79925537109375,4.56085205078125,-3.03558349609375,1.831817626953125,1.0,1.0,1.0,1.0,1.0,20.0,
2023-09-09 14:34:03.163,0.96978873,1.3020868,0.68095905,1.1796333,0.44061065,0.13769448,-0.33150038,0.6986624,0.44983366,0.060920775,-0.18043032,0.85996187,0.23736277,-0.061693016,-0.1380042,0.6408448,0.033993915,-0.41181657,-0.41335562,0.26769796,759.92676,835.6777,773.22345,747.4359,697.47253,0.4742431640625,-0.34234619140625,0.782470703125,2.265472412109375,-1.158905029296875,-2.28790283203125,1.0,1.0,1.0,1.0,1.0,20.0,
2023-09-09 14:34:03.219,0.96978873,1.3020868,0.68095905,1.1796333,0.44061065,0.13769448,-0.33150038,0.6986624,0.44983366,0.060920775,-0.18043032,0.85996187,0.23736277,-0.061693016,-0.1380042,0.6408448,0.033993915,-0.41181657,-0.41335562,0.26769796,753.47986,828.022,776.4469,742.6007,1023.8461,0.5140380859375,-0.3355712890625,0.78778076171875,4.78515625,-6.527252197265625,-1.95892333984375,1.0,1.0,1.0,1.0,1.0,20.0,
2023-09-09 14:34:03.331,0.96978873,1.3020868,0.68095905,1.1796333,0.44061065,0.13769448,-0.33150038,0.6986624,0.44983366,0.060920775,-0.18043032,0.85996187,0.23736277,-0.061693016,-0.1380042,0.6408448,0.033993915,-0.41181657,-0.41335562,0.26769796,760.7326,815.5311,778.46155,770.0,869.12085,0.53045654296875,-0.33612060546875,0.79205322265625,5.0543212890625,-6.856231689453125,1.128997802734375,1.0,1.0,1.0,1.0,1.0,20.0,
2023-09-09 14:34:03.353,0.96978873,1.3020868,0.68095905,1.1796333,0.44061065,0.13769448,-0.33150038,0.6986624,0.44983366,0.060920775,-0.18043032,0.85996187,0.23736277,-0.061693016,-0.1380042,0.6408448,0.033993915,-0.41181657,-0.41335562,0.26769796,764.35895,821.978,787.326,790.9524,784.90845,0.5224609375,-0.3341064453125,0.78680419921875,5.450592041015625,-4.373931884765625,1.054229736328125,1.0,1.0,1.0,1.0,1.0,20.0,
2023-09-09 14:34:03.385,0.96978873,1.3020868,0.68095905,1.1796333,0.44061065,0.13769448,-0.33150038,0.6986624,0.44983366,0.060920775,-0.18043032,0.85996187,0.23736277,-0.061693016,-0.1380042,0.6408448,0.033993915,-0.41181657,-0.41335562,0.26769796,762.3443,819.15753,781.28204,780.07324,569.34064,0.52093505859375,-0.3330078125,0.789306640625,5.809478759765625,-2.788848876953125,-1.607513427734375,1.0,1.0,1.0,1.0,1.0,20.0,
2023-09-09 14:34:09.782,1.1089823,1.4061582,0.9630155,1.1796333,0.68266344,0.7137638,0.3760875,0.6986624,0.30730858,0.3468123,0.21219221,0.85996187,0.3685191,-0.1904999,-0.06649677,0.6408448,0.16506797,-0.36447117,-0.528531,0.26769796,773.22345,784.5055,765.16486,776.04395,823.1868,0.57415771484375,-0.33526611328125,0.7342529296875,5.15899658203125,-2.2430419921875,0.22430419921875,1.0,1.0,1.0,1.0,1.0,20.0,
2023-09-09 14:34:09.841,1.1089823,1.4061582,0.9630155,1.1796333,0.68266344,0.7137638,0.3760875,0.6986624,0.30730858,0.3468123,0.21219221,0.85996187,0.3685191,-0.1904999,-0.06649677,0.6408448,0.16506797,-0.36447117,-0.528531,0.26769796,768.3883,784.10254,763.1502,789.34064,897.72894,0.57415771484375,-0.33990478515625,0.7392578125,4.605712890625,-2.691650390625,-0.58319091796875,1.0,1.0,1.0,1.0,1.0,20.0,
2023-09-09 14:34:09.910,1.1089823,1.4061582,0.9630155,1.1796333,0.68266344,0.7137638,0.3760875,0.6986624,0.30730858,0.3468123,0.21219221,0.85996187,0.3685191,-0.1904999,-0.06649677,0.6408448,0.16506797,-0.36447117,-0.528531,0.26769796,790.9524,779.67035,775.64105,807.8755,854.21246,0.57965087890625,-0.343017578125,0.72930908203125,4.59075927734375,-2.52716064453125,-1.128997802734375,1.0,1.0,1.0,1.0,1.0,20.0,
2023-09-09 14:34:09.919,1.0692631,1.4061582,0.9107216,0.8709043,0.6450809,0.7137638,0.34297273,0.5773013,0.3158171,0.3468123,0.21047226,0.6395842,0.34754914,-0.1904999,-0.046902794,0.66298443,0.16206437,-0.36447117,-0.53391415,0.32028297,802.6374,767.5824,758.315,793.36993,718.4249,0.57965087890625,-0.343017578125,0.72930908203125,4.59075927734375,-2.52716064453125,-1.128997802734375,1.0,1.0,1.0,1.0,1.0,20.0,
2023-09-09 14:34:09.931,1.0692631,1.4061582,0.9107216,0.8709043,0.6450809,0.7137638,0.34297273,0.5773013,0.3158171,0.3468123,0.21047226,0.6395842,0.34754914,-0.1904999,-0.046902794,0.66298443,0.16206437,-0.36447117,-0.53391415,0.32028297,797.8022,768.3883,760.32965,790.9524,618.49817,0.576416015625,-0.3431396484375,0.73626708984375,5.869293212890625,-2.452392578125,-1.428070068359375,1.0,1.0,1.0,1.0,1.0,20.0,
2023-09-09 14:34:09.963,1.0692631,1.4061582,0.9107216,0.8709043,0.6450809,0.7137638,0.34297273,0.5773013,0.3158171,0.3468123,0.21047226,0.6395842,0.34754914,-0.1904999,-0.046902794,0.66298443,0.16206437,-0.36447117,-0.53391415,0.32028297,805.05493,771.2088,757.9121,815.5311,913.8461,0.581787109375,-0.33941650390625,0.7398681640625,4.964599609375,-2.46734619140625,-0.83740234375,1.0,1.0,1.0,1.0,1.0,20.0,
2023-09-09 14:34:10.001,1.0692631,1.4061582,0.9107216,0.8709043,0.6450809,0.7137638,0.34297273,0.5773013,0.3158171,0.3468123,0.21047226,0.6395842,0.34754914,-0.1904999,-0.046902794,0.66298443,0.16206437,-0.36447117,-0.53391415,0.32028297,798.60803,781.685,752.674,829.2308,832.8571,0.57159423828125,-0.34521484375,0.7374267578125,4.792633056640625,-0.0,-0.142059326171875,1.0,1.0,1.0,1.0,1.0,20.0,
2023-09-09 14:34:10.002,1.0295275,1.4061582,0.85911345,0.8709043,0.6036464,0.7137638,0.31192395,0.5773013,0.32461223,0.3468123,0.21047226,0.6395842,0.33113787,-0.1904999,-0.03918536,0.66298443,0.164832,-0.36447117,-0.5387894,0.32028297,795.38464,779.2674,749.45056,825.2015,714.3956,0.57159423828125,-0.34521484375,0.7374267578125,4.792633056640625,-0.0,-0.142059326171875,1.0,1.0,1.0,1.0,1.0,20.0,
2023-09-09 14:34:10.115,1.0295275,1.4061582,0.85911345,0.8709043,0.6036464,0.7137638,0.31192395,0.5773013,0.32461223,0.3468123,0.21047226,0.6395842,0.33113787,-0.1904999,-0.03918536,0.66298443,0.164832,-0.36447117,-0.5387894,0.32028297,795.38464,791.75824,741.39197,843.3333,718.8278,0.572509765625,-0.34344482421875,0.7401123046875,4.38140869140625,-2.04864501953125,-0.9271240234375,1.0,1.0,1.0,1.0,1.0,20.0,
2023-09-09 14:34:10.117,1.0295275,1.4061582,0.8229018,0.8709043,0.6036464,0.7137638,0.2933449,0.5773013,0.32461223,0.3468123,0.21047226,0.6395842,0.33113787,-0.1904999,-0.039226618,0.66298443,0.164832,-0.36447117,-0.5418541,0.32028297,788.1319,782.8938,736.9597,821.978,682.1612,0.572509765625,-0.34344482421875,0.7401123046875,4.38140869140625,-2.04864501953125,-0.9271240234375,1.0,1.0,1.0,1.0,1.0,20.0,
2023-09-09 14:34:10.150,1.0295275,1.4061582,0.8229018,0.8709043,0.6036464,0.7137638,0.2933449,0.5773013,0.32461223,0.3468123,0.21047226,0.6395842,0.33113787,-0.1904999,-0.039226618,0.66298443,0.164832,-0.36447117,-0.5418541,0.32028297,800.2198,781.685,733.73627,822.381,849.3773,0.57562255859375,-0.34161376953125,0.73858642578125,4.41131591796875,-2.280426025390625,-0.37384033203125,1.0,1.0,1.0,1.0,1.0,20.0,
2023-09-09 14:34:10.204,1.0295275,1.4061582,0.8229018,0.8709043,0.6036464,0.7137638,0.2933449,0.5773013,0.32461223,0.3468123,0.21047226,0.6395842,0.33113787,-0.1904999,-0.039226618,0.66298443,0.164832,-0.36447117,-0.5418541,0.32028297,819.5604,792.1612,731.31866,816.337,628.5714,0.573974609375,-0.34228515625,0.74114990234375,4.56085205078125,-2.429962158203125,-0.186920166015625,1.0,1.0,1.0,1.0,1.0,20.0,
2023-09-09 14:34:10.208,1.0295275,1.4061582,0.8193918,0.8709043,0.6036464,0.7137638,0.28741834,0.5773013,0.32461223,0.3468123,0.21047226,0.6395842,0.33113787,-0.1904999,-0.043242343,0.66298443,0.164832,-0.36447117,-0.5427009,0.32028297,811.9048,780.4762,734.94507,824.3956,787.326,0.573974609375,-0.34228515625,0.74114990234375,4.56085205078125,-2.429962158203125,-0.186920166015625,1.0,1.0,1.0,1.0,1.0,20.0,
2023-09-09 14:34:10.239,1.0295275,1.4061582,0.8193918,0.8709043,0.6036464,0.7137638,0.28741834,0.5773013,0.32461223,0.3468123,0.21047226,0.6395842,0.33113787,-0.1904999,-0.043242343,0.66298443,0.164832,-0.36447117,-0.5427009,0.32028297,832.8571,794.9817,737.3626,829.6337,811.9048,0.56439208984375,-0.34368896484375,0.73773193359375,4.97955322265625,-2.938385009765625,-0.52337646484375,1.0,1.0,1.0,1.0,1.0,20.0,
2023-09-09 14:34:10.305,1.0295275,1.4061582,0.8193918,0.8709043,0.6036464,0.7137638,0.28741834,0.5773013,0.32461223,0.3468123,0.21047226,0.6395842,0.33113787,-0.1904999,-0.043242343,0.66298443,0.164832,-0.36447117,-0.5427009,0.32028297,839.707,794.17584,733.3333,828.8278,782.8938,0.58465576171875,-0.34295654296875,0.73431396484375,4.134674072265625,-3.701019287109375,-1.188812255859375,1.0,1.0,1.0,1.0,1.0,20.0,
2023-09-09 14:34:10.310,1.0295275,1.4061582,0.86849916,0.8709043,0.6036464,0.7137638,0.28596628,0.5773013,0.32461223,0.3468123,0.20909946,0.6395842,0.33113787,-0.1904999,-0.04748172,0.66298443,0.164832,-0.36447117,-0.54176587,0.32028297,827.619,793.36993,742.1978,833.663,602.7839,0.58465576171875,-0.34295654296875,0.73431396484375,4.134674072265625,-3.701019287109375,-1.188812255859375,1.0,1.0,1.0,1.0,1.0,20.0,
2023-09-09 14:34:10.427,1.0295275,1.4061582,0.86849916,0.8709043,0.6036464,0.7137638,0.28596628,0.5773013,0.32461223,0.3468123,0.20909946,0.6395842,0.33113787,-0.1904999,-0.04748172,0.66298443,0.164832,-0.36447117,-0.54176587,0.32028297,823.1868,785.31134,743.00366,815.9341,906.5934,0.5750732421875,-0.3426513671875,0.73162841796875,5.14404296875,-3.96270751953125,0.04486083984375,1.0,1.0,1.0,1.0,1.0,20.0,
