timestamp,RAW_TP9,RAW_AF7,RAW_AF8,RAW_TP10,AUX_RIGHT
1694300308.008,727.6923,772.4176,777.6557,779.67035,776.04395
1694300308.008,727.28937,773.22345,778.46155,788.1319,840.9158
1694300308.0089998,727.28937,774.83514,778.86444,796.1905,927.1429
1694300308.01,724.0659,775.64105,780.87915,781.685,821.978
1694300308.01,726.08057,776.4469,780.87915,780.87915,723.2601
1694300308.0110002,730.5128,779.2674,780.07324,790.14655,924.3223
1694300308.0110002,730.10986,776.8498,778.86444,781.685,1014.17584
1694300308.012,731.31866,774.83514,776.04395,780.07324,866.30035
1694300308.012,737.3626,775.64105,774.83514,783.2967,799.81683
1694300308.013,739.3773,774.83514,774.43225,780.4762,923.91943
1694300308.0140002,746.63007,777.6557,776.8498,781.28204,966.2271
1694300308.0140002,753.47986,781.28204,778.86444,776.4469,853.8095
1694300308.05,749.85345,778.86444,777.6557,779.67035,836.4835
1694300308.051,757.1062,784.5055,779.67035,790.14655,876.77655
1694300308.0540001,758.71796,789.7436,780.87915,790.54944,823.9927
1694300308.055,752.27106,784.90845,778.0586,778.0586,731.7216
1694300308.055,758.71796,783.2967,778.46155,774.0293,799.41394
1694300308.056,770.40295,789.34064,780.87915,783.69965,1087.9121
1694300308.057,767.98535,789.7436,781.28204,778.0586,1020.2198
1694300308.0579998,764.7619,786.9231,782.49084,772.8205,815.9341
1694300308.0579998,767.1795,787.72894,787.326,782.8938,837.28937
1694300308.059,761.13556,784.90845,784.90845,795.78754,1059.7069
1694300308.059,759.5238,781.685,781.685,789.7436,931.1722
1694300308.06,765.56775,777.6557,782.49084,779.2674,782.0879
1694300308.0609999,763.1502,774.43225,782.49084,784.10254,973.47986
1694300308.0609999,757.50916,776.04395,783.2967,790.9524,1017.3993
1694300308.062,755.89746,776.04395,780.87915,788.93774,885.64105
1694300308.062,757.1062,776.8498,777.25275,778.86444,814.3223
1694300308.062,758.71796,776.04395,778.46155,767.98535,842.9304
1694300308.063,762.3443,776.04395,777.6557,773.6264,882.8205
1694300308.063,765.56775,774.0293,777.25275,782.0879,840.9158
1694300308.063,764.7619,774.83514,780.4762,782.49084,812.71063
1694300308.0649998,761.13556,776.4469,779.67035,788.93774,973.8828
1694300308.0649998,761.9414,776.04395,779.2674,793.36993,1071.7949
1694300308.066,766.3736,780.07324,780.87915,774.0293,799.81683
1694300308.0670002,761.13556,780.07324,783.69965,774.43225,739.7802
1694300308.099,754.68866,782.8938,786.1172,794.17584,831.2454
1694300308.1,757.50916,783.69965,786.9231,785.31134,835.2747
1694300308.1009998,759.92676,782.8938,786.9231,775.64105,821.978
1694300308.1009998,761.13556,787.326,790.14655,780.87915,843.73627
1694300308.105,759.12085,784.90845,794.17584,786.1172,914.2491
1694300308.105,746.2271,780.87915,793.36993,785.31134,896.1172
1694300308.106,743.8095,779.67035,790.9524,784.90845,867.9121
1694300308.107,752.674,777.25275,792.5641,777.6557,833.663
1694300308.107,758.71796,778.86444,794.57874,784.90845,1056.0806
1694300308.108,756.7033,781.28204,795.38464,782.49084,1019.41394
1694300308.109,753.0769,779.67035,792.1612,763.5531,774.0293
1694300308.109,753.8828,778.86444,790.54944,760.7326,807.47253
1694300308.145,751.4652,780.87915,794.9817,765.56775,863.0769
1694300308.146,750.65936,787.72894,796.1905,762.74725,839.304
1694300308.146,752.27106,791.3553,797.8022,767.5824,780.4762
1694300308.147,746.63007,783.2967,798.20514,764.7619,828.4249
1694300308.147,746.2271,776.8498,795.38464,764.7619,874.35895
1694300308.148,745.0183,778.86444,790.14655,765.16486,848.97437
1694300308.148,745.42126,782.49084,792.96704,761.53845,844.1392
1694300308.149,755.89746,784.10254,795.78754,778.46155,985.56775
1694300308.149,760.32965,784.90845,792.1612,795.38464,1216.044
1694300308.149,753.0769,786.1172,794.57874,784.5055,962.1978
1694300308.15,747.4359,784.10254,790.54944,778.86444,810.293
1694300308.151,755.4945,784.5055,786.1172,772.8205,873.5531
1694300308.1820002,758.71796,783.2967,786.52014,773.6264,829.6337
1694300308.183,749.85345,782.8938,785.31134,791.75824,834.0659
1694300308.183,745.42126,782.49084,784.90845,804.2491,853.00366
1694300308.184,750.2564,781.685,784.90845,803.8461,878.7912
1694300308.184,753.8828,780.4762,786.1172,793.36993,821.5751
1694300308.185,751.4652,775.64105,782.49084,778.46155,815.9341
1694300308.187,746.2271,777.6557,783.69965,769.19415,939.6337
1694300308.188,747.8388,783.2967,785.7143,768.7912,1139.4872
1694300308.188,753.47986,784.10254,784.90845,769.59705,1023.44324
1694300308.188,751.8681,786.1172,790.9524,782.0879,847.76556
1694300308.189,752.674,790.9524,790.9524,796.5934,898.5348
1694300308.19,757.1062,794.57874,790.9524,805.05493,948.0952
1694300308.232,749.85345,788.1319,789.34064,794.57874,949.304
1694300308.233,750.65936,785.31134,789.34064,786.9231,830.0366
1694300308.233,753.0769,786.9231,790.9524,782.8938,822.381
1694300308.233,750.2564,784.10254,786.9231,772.01465,938.4249
1694300308.234,751.4652,785.7143,786.52014,775.64105,814.3223
1694300308.2350001,749.85345,785.31134,788.5348,786.9231,798.20514
1694300308.2350001,751.4652,782.8938,784.90845,791.3553,1077.8389
1694300308.236,750.65936,788.5348,781.685,788.1319,1168.9011
1694300308.236,751.4652,788.93774,780.4762,772.01465,836.8865
1694300308.237,749.45056,786.52014,780.87915,775.64105,785.31134
1694300308.237,745.42126,786.52014,783.69965,782.49084,886.8498
1694300308.237,748.6447,784.90845,784.10254,768.7912,832.4542
1694300308.2649999,750.65936,785.31134,784.5055,756.30035,814.3223
1694300308.2659998,745.0183,782.8938,786.9231,759.12085,846.9597
1694300308.267,750.65936,781.28204,785.31134,774.0293,927.9487
1694300308.267,746.2271,780.07324,786.1172,790.14655,859.0476
1694300308.268,742.6007,781.685,786.52014,786.9231,770.40295
1694300308.268,753.8828,782.0879,783.69965,771.6117,856.63007
1694300308.269,753.47986,784.10254,782.8938,773.22345,1102.4176
1694300308.269,743.4066,786.9231,782.0879,768.3883,982.74725
1694300308.272,745.0183,788.1319,785.31134,770.40295,815.12823
1694300308.272,755.09155,790.9524,787.326,776.04395,820.7692
1694300308.272,752.674,788.93774,786.1172,789.34064,875.9707
1694300308.273,749.0476,784.5055,783.69965,791.75824,846.55676
1694300308.3470001,751.8681,787.326,783.69965,784.5055,778.86444
1694300308.348,758.71796,787.326,787.72894,793.36993,849.3773
1694300308.349,755.4945,785.31134,788.93774,801.02563,990.80585
1694300308.349,756.30035,787.72894,787.72894,792.96704,919.4872
1694300308.3500001,767.5824,788.93774,789.34064,796.1905,792.96704
1694300308.3500001,761.9414,789.7436,786.52014,789.34064,1015.78754
1694300308.3500001,754.2857,789.34064,784.90845,781.685,1210.0
1694300308.351,747.4359,784.5055,786.1172,783.69965,917.0696
1694300308.352,746.2271,783.2967,789.7436,792.5641,765.9707
1694300308.352,755.89746,787.326,789.7436,793.7729,976.30035
1694300308.353,768.7912,788.93774,789.34064,801.02563,1043.1868
1694300308.353,767.98535,786.52014,788.93774,805.05493,776.8498
1694300308.4,759.12085,779.2674,788.93774,784.10254,747.03296
1694300308.401,761.9414,783.69965,788.5348,777.6557,849.3773
1694300308.402,758.315,785.7143,785.7143,782.8938,845.7509
1694300308.402,759.5238,782.8938,790.9524,788.93774,767.98535
1694300308.403,763.1502,783.2967,793.7729,796.1905,780.87915
1694300308.403,757.50916,779.67035,785.7143,790.54944,888.86444
1694300308.403,751.4652,780.4762,784.5055,794.17584,880.80585
1694300308.404,751.8681,784.10254,787.72894,787.326,847.3626
1694300308.404,749.85345,785.31134,782.8938,787.326,821.978
1694300308.405,746.2271,784.90845,778.86444,785.7143,1073.8096
1694300308.407,749.45056,782.8938,782.8938,776.8498,1014.17584
1694300308.408,757.9121,784.10254,785.31134,782.8938,774.43225
1694300308.447,763.5531,784.5055,784.90845,794.9817,912.23444
1694300308.447,771.2088,787.72894,786.9231,802.23444,992.01465
1694300308.448,772.01465,792.96704,784.5055,789.34064,788.5348
1694300308.448,772.8205,791.3553,782.0879,781.28204,733.73627
1694300308.448,782.0879,792.96704,780.87915,788.5348,830.0366
1694300308.449,771.6117,790.54944,779.67035,794.57874,898.5348
1694300308.449,761.9414,782.8938,781.28204,787.326,900.54944
1694300308.449,757.1062,782.0879,779.2674,781.685,794.17584
1694300308.4499998,746.2271,782.8938,778.0586,796.5934,1036.337
1694300308.4499998,743.4066,782.0879,779.2674,810.696,1247.0696
1694300308.4499998,734.94507,782.49084,781.685,806.6667,892.49084
1694300308.451,738.1685,785.31134,785.31134,807.8755,759.92676
1694300308.498,748.6447,785.7143,784.10254,808.68134,794.9817
1694300308.499,745.0183,784.10254,785.31134,802.6374,773.6264
1694300308.499,734.1392,786.1172,786.9231,798.20514,767.1795
1694300308.5,731.31866,787.72894,782.0879,802.6374,808.68134
1694300308.5,747.4359,788.5348,776.8498,792.96704,857.4359
1694300308.5,745.0183,786.1172,774.0293,775.2381,907.3993
1694300308.501,736.9597,781.28204,773.6264,773.22345,886.04395
1694300308.501,738.97437,779.2674,777.6557,792.1612,850.58606
1694300308.502,743.00366,778.46155,779.2674,813.1135,1120.9524
1694300308.502,748.6447,780.4762,775.64105,806.26373,1022.23444
1694300308.502,748.6447,782.0879,774.0293,801.8315,745.0183
1694300308.503,751.06226,781.28204,774.83514,801.02563,911.8315
1694300308.556,755.09155,781.28204,778.0586,799.011,1102.8206
1694300308.557,751.06226,782.8938,777.25275,791.3553,894.10254
1694300308.558,749.45056,781.28204,775.64105,772.4176,783.2967
1694300308.558,757.1062,778.46155,780.07324,769.59705,866.30035
1694300308.558,751.8681,776.04395,780.4762,778.0586,951.7216
1694300308.559,741.79486,776.4469,780.87915,774.43225,910.2198
1694300308.559,740.58606,781.28204,780.87915,764.35895,873.5531
1694300308.559,741.79486,784.90845,780.07324,759.5238,1009.7436
1694300308.56,745.82416,785.31134,784.10254,760.32965,1112.8938
1694300308.56,741.79486,784.5055,786.1172,763.1502,867.50916
1694300308.5609999,738.97437,779.67035,784.10254,780.87915,811.50183
1694300308.5609999,747.4359,782.0879,783.69965,792.5641,897.326
1694300308.608,746.2271,788.93774,788.5348,792.5641,901.75824
1694300308.609,741.39197,787.72894,788.5348,778.46155,868.315
1694300308.61,746.63007,785.31134,784.10254,758.71796,855.0183
1694300308.61,743.8095,782.8938,780.87915,764.35895,982.74725
1694300308.611,737.76556,782.8938,778.0586,764.35895,946.4835
1694300308.612,740.58606,784.5055,778.46155,750.65936,900.9524
1694300308.612,743.00366,785.7143,778.46155,743.4066,1000.4762
1694300308.613,736.55676,788.93774,778.0586,754.2857,1195.4945
1694300308.613,738.97437,789.7436,776.4469,759.5238,999.2674
1694300308.614,746.2271,788.5348,778.86444,754.68866,764.7619
1694300308.614,745.0183,789.34064,784.90845,745.0183,805.8608
1694300308.615,743.4066,788.93774,782.8938,730.10986,840.9158
1694300308.616,738.97437,785.31134,775.64105,729.304,846.9597
1694300308.616,734.5421,785.31134,778.0586,734.94507,806.26373
1694300308.62,735.34796,785.31134,785.7143,745.0183,885.2381
1694300308.62,734.94507,781.685,784.5055,757.1062,1006.52014
1694300308.621,734.1392,779.2674,781.28204,749.85345,875.9707
1694300308.621,740.58606,782.8938,782.8938,738.97437,823.9927
1694300308.6220002,740.58606,785.31134,781.685,740.18317,1039.9634
1694300308.6220002,742.1978,783.69965,781.28204,743.8095,1149.5604
1694300308.6230001,735.34796,782.49084,780.4762,735.34796,865.4945
1694300308.6230001,730.5128,780.07324,776.8498,745.0183,748.24176
1694300308.624,743.4066,778.86444,777.6557,765.9707,946.4835
1694300308.624,743.8095,778.86444,780.07324,768.3883,973.8828
1694300308.675,737.76556,782.8938,780.4762,763.1502,787.326
1694300308.676,740.18317,785.7143,778.0586,746.63007,784.5055
1694300308.676,743.4066,784.10254,776.4469,744.61536,850.989
1694300308.677,744.61536,784.5055,781.28204,759.12085,842.9304
1694300308.6780002,745.82416,788.93774,782.49084,766.77655,815.9341
1694300308.6780002,748.24176,790.54944,780.07324,768.3883,891.685
1694300308.6790001,746.63007,785.7143,776.8498,747.03296,1174.5421
1694300308.6790001,738.97437,782.49084,772.8205,740.989,1027.8755
1694300308.68,742.1978,786.52014,775.64105,747.4359,737.3626
1694300308.68,745.0183,787.72894,778.46155,753.8828,803.44324
1694300308.681,741.79486,785.31134,782.49084,770.40295,963.8095
1694300308.681,742.1978,782.0879,780.4762,769.59705,884.43225
1694300308.705,740.58606,781.28204,776.04395,752.27106,817.5458
1694300308.7059999,738.5714,778.46155,777.25275,746.63007,824.3956
1694300308.7059999,740.18317,776.4469,776.4469,760.32965,926.7399
1694300308.707,741.79486,780.87915,779.67035,766.3736,866.7033
1694300308.711,744.21246,781.685,781.28204,772.4176,796.1905
1694300308.712,740.58606,777.6557,776.8498,762.74725,949.707
1694300308.7129998,734.1392,778.0586,769.59705,747.03296,997.6557
1694300308.714,739.7802,782.49084,770.40295,747.4359,833.663
1694300308.714,745.82416,785.7143,776.4469,747.03296,759.5238
1694300308.7150002,747.03296,780.4762,778.46155,754.68866,1019.011
1694300308.716,742.6007,775.2381,778.86444,764.7619,1174.9451
1694300308.717,745.82416,775.64105,779.2674,755.09155,844.1392
1694300308.76,748.24176,776.8498,781.28204,755.09155,772.4176
1694300308.761,749.45056,779.67035,782.0879,763.95605,900.14655
1694300308.7619998,756.7033,781.28204,780.4762,772.4176,888.46155
1694300308.763,754.68866,781.28204,782.49084,774.83514,826.4103
1694300308.764,753.47986,783.2967,784.10254,763.95605,829.2308
1694300308.7649999,753.47986,784.5055,780.4762,752.674,948.9011
1694300308.7649999,755.09155,783.2967,780.4762,761.13556,975.4945
1694300308.766,753.47986,783.2967,781.28204,778.0586,853.8095
1694300308.767,757.9121,783.69965,781.28204,771.6117,882.8205
1694300308.767,756.7033,781.685,780.07324,757.9121,1079.0476
1694300308.768,745.0183,777.25275,778.86444,752.27106,912.6374
1694300308.769,745.0183,777.6557,778.0586,755.09155,770.0
1694300308.8140001,746.2271,782.8938,778.46155,758.71796,950.9158
1694300308.815,747.8388,789.7436,783.2967,759.12085,1075.0183
1694300308.816,753.8828,791.3553,783.69965,758.71796,870.32965
1694300308.817,755.09155,785.7143,783.69965,757.9121,773.22345
1694300308.8179998,753.8828,786.1172,786.9231,771.6117,869.92676
1694300308.8179998,749.85345,784.90845,781.685,772.01465,979.92676
1694300308.823,753.47986,780.87915,779.67035,759.5238,906.5934
1694300308.824,755.09155,782.0879,786.9231,765.56775,807.47253
1694300308.825,744.21246,780.87915,782.8938,766.3736,967.4359
1694300308.826,738.5714,780.4762,779.67035,772.4176,1072.6007
1694300308.8270001,737.3626,783.69965,779.67035,779.2674,829.2308
1694300308.8270001,730.9158,784.90845,778.86444,784.10254,787.72894
1694300308.871,735.34796,782.49084,782.49084,779.2674,904.9817
1694300308.873,734.1392,787.326,782.49084,762.3443,874.35895
1694300308.8739998,725.2747,784.10254,779.67035,758.71796,794.9817
1694300308.8739998,720.84247,776.8498,777.25275,765.9707,860.2564
1694300308.875,732.52747,777.25275,776.04395,773.22345,1003.2967
1694300308.876,737.76556,778.86444,776.04395,774.83514,977.9121
1694300308.8769999,733.3333,776.04395,776.4469,770.80585,874.35895
1694300308.8769999,732.1245,774.0293,775.2381,763.95605,881.2088
1694300308.878,735.34796,775.64105,777.25275,784.10254,1134.249
1694300308.879,735.34796,775.64105,777.25275,778.0586,1011.75824
1694300308.88,726.4835,776.8498,776.4469,753.47986,772.8205
1694300308.881,719.6337,775.2381,775.2381,762.3443,834.4689
1694300308.929,720.4396,774.43225,772.01465,756.7033,921.50183
1694300308.9299998,718.4249,771.6117,772.01465,732.9304,895.31134
1694300308.931,724.87177,772.8205,776.8498,748.6447,831.2454
1694300308.931,734.94507,778.46155,780.4762,773.22345,884.0293
1694300308.932,734.5421,780.07324,778.0586,778.46155,937.619
1694300308.9329998,739.7802,780.4762,778.0586,778.0586,830.84247
1694300308.9329998,745.82416,778.86444,778.0586,779.67035,789.34064
1694300308.934,750.65936,778.86444,778.46155,773.22345,1003.2967
1694300308.938,746.2271,778.46155,780.4762,764.35895,1260.7693
1694300308.938,743.4066,777.6557,780.07324,765.56775,967.4359
1694300308.9390001,742.1978,774.83514,779.67035,776.4469,757.9121
1694300308.9390001,734.1392,773.6264,780.87915,785.7143,834.87177
1694300308.945,739.7802,780.4762,784.90845,784.5055,823.9927
1694300308.9459999,744.21246,779.67035,784.90845,758.315,780.4762
1694300308.947,744.61536,779.2674,783.2967,748.24176,816.7399
1694300308.948,746.2271,778.46155,785.7143,767.98535,917.8755
1694300308.948,745.0183,777.25275,785.7143,778.46155,873.5531
1694300308.949,753.47986,782.8938,786.1172,780.07324,796.99634
1694300308.949,751.4652,780.4762,786.1172,771.2088,807.47253
1694300308.95,749.45056,773.6264,784.5055,770.40295,1081.8682
1694300308.95,751.4652,771.6117,782.0879,765.16486,1071.7949
1694300308.951,750.65936,774.43225,786.52014,765.56775,821.978
1694300308.951,751.8681,778.46155,789.34064,780.07324,828.8278
1694300308.952,745.42126,779.2674,787.72894,785.7143,907.8022
1694300308.994,743.4066,781.28204,789.34064,784.90845,857.03296
1694300308.994,745.42126,780.07324,788.1319,772.01465,780.87915
1694300308.9950001,739.7802,778.86444,788.5348,770.80585,828.8278
1694300308.996,739.3773,780.87915,786.52014,781.685,955.34796
1694300308.997,747.4359,780.87915,783.2967,768.7912,885.2381
1694300308.997,744.21246,783.69965,785.7143,745.0183,782.0879
1694300308.9980001,743.4066,780.87915,787.326,761.53845,956.9597
1694300308.9980001,747.03296,778.86444,786.52014,786.1172,1111.2821
1694300308.999,738.1685,788.1319,790.14655,788.1319,842.9304
1694300309.0,738.1685,788.93774,788.5348,772.8205,792.5641
1694300309.004,743.00366,783.2967,780.87915,746.2271,987.98535
1694300309.0049999,738.1685,782.0879,778.46155,760.7326,922.3077
1694300309.057,735.34796,784.5055,780.4762,780.4762,780.07324
1694300309.0579998,738.1685,785.7143,778.46155,774.83514,839.304
1694300309.059,733.73627,782.49084,774.83514,774.43225,968.24176
1694300309.059,730.5128,780.87915,775.2381,780.07324,888.0586
1694300309.06,737.76556,781.685,774.43225,778.86444,748.24176
1694300309.0609999,747.03296,780.07324,775.64105,788.1319,843.3333
1694300309.062,741.39197,777.25275,774.43225,787.326,1217.2528
1694300309.062,729.304,777.25275,774.43225,775.64105,1052.8572
1694300309.063,728.49817,774.0293,775.64105,774.43225,785.7143
1694300309.064,732.9304,773.22345,773.22345,765.9707,800.2198
1694300309.0649998,727.28937,774.83514,775.2381,764.7619,821.1722
1694300309.0649998,726.4835,775.64105,773.6264,774.83514,884.43225
1694300309.091,737.3626,775.64105,772.8205,783.69965,856.2271
1694300309.092,742.6007,776.04395,771.6117,788.93774,900.9524
1694300309.092,738.97437,776.4469,770.0,796.5934,1132.2344
1694300309.093,738.97437,776.04395,770.80585,765.56775,909.81683
1694300309.094,742.1978,775.64105,774.0293,749.45056,749.45056
1694300309.095,740.58606,774.83514,777.25275,783.2967,973.0769
1694300309.096,738.1685,776.4469,777.6557,795.78754,1011.75824
1694300309.096,742.1978,778.0586,778.0586,790.9524,809.0842
1694300309.097,751.06226,781.685,776.04395,767.98535,778.86444
1694300309.0979998,751.06226,785.31134,778.46155,763.1502,994.43225
1694300309.0979998,752.674,786.9231,782.8938,779.67035,1011.3553
1694300309.099,753.0769,783.2967,782.49084,780.07324,843.3333
1694300309.134,745.82416,778.0586,779.67035,778.46155,836.08057
1694300309.135,751.4652,778.46155,776.8498,775.2381,884.0293
1694300309.136,762.3443,781.28204,779.67035,778.0586,890.07324
1694300309.1369998,766.77655,782.0879,782.0879,782.0879,860.2564
1694300309.1379998,775.2381,782.49084,778.46155,777.6557,898.93774
1694300309.1390002,775.2381,778.86444,778.86444,778.86444,1164.4689
1694300309.14,766.3736,779.67035,782.49084,783.2967,1058.4982
1694300309.14,763.5531,777.6557,782.0879,778.0586,814.7253
1694300309.141,771.6117,776.04395,782.49084,790.14655,936.8132
1694300309.1420002,769.59705,780.07324,785.7143,799.011,1149.5604
1694300309.1420002,761.53845,780.07324,781.685,792.1612,921.0989
1694300309.1430001,768.7912,780.4762,781.685,786.1172,736.55676
1694300309.1699998,776.8498,780.4762,782.49084,788.5348,952.1245
1694300309.171,774.0293,779.67035,778.0586,803.8461,1049.6337
1694300309.172,770.80585,779.67035,778.0586,794.17584,859.0476
1694300309.172,770.80585,778.46155,777.25275,782.0879,754.2857
1694300309.1729999,770.80585,777.25275,773.6264,781.685,792.5641
1694300309.174,767.1795,780.4762,772.4176,770.80585,884.83514
1694300309.175,767.98535,780.4762,776.04395,783.2967,906.1905
1694300309.177,773.22345,781.28204,779.2674,793.7729,855.42126
1694300309.178,769.19415,784.5055,776.8498,789.7436,1003.69965
1694300309.1790001,763.1502,785.7143,776.4469,787.326,1226.1172
1694300309.1790001,767.98535,787.326,777.25275,787.326,922.71063
1694300309.18,761.9414,785.7143,778.46155,799.011,770.0
1694300309.217,758.315,786.1172,780.4762,794.17584,876.3736
1694300309.218,765.16486,783.2967,776.8498,777.6557,844.5421
1694300309.2220001,759.12085,781.685,774.43225,780.87915,807.8755
1694300309.223,758.71796,779.67035,774.83514,783.69965,811.0989
1694300309.223,763.5531,779.2674,776.4469,785.31134,875.56775
1694300309.224,757.50916,779.67035,776.4469,788.93774,919.0842
1694300309.224,758.315,781.28204,774.43225,790.14655,873.1502
1694300309.225,765.56775,784.90845,778.46155,790.54944,829.6337
1694300309.225,767.1795,783.69965,782.0879,797.8022,1063.3334
1694300309.2259998,772.4176,784.5055,779.67035,782.49084,987.1795
1694300309.227,778.86444,784.10254,777.25275,775.64105,771.2088
1694300309.227,779.67035,786.9231,778.0586,784.5055,886.4469
1694300309.2510002,782.49084,790.14655,779.2674,790.14655,1094.359
1694300309.2510002,786.1172,789.34064,781.28204,790.54944,899.7436
1694300309.252,780.4762,789.7436,783.2967,789.7436,754.2857
1694300309.253,768.7912,789.34064,781.28204,782.8938,822.381
1694300309.253,754.2857,784.5055,776.04395,789.7436,802.6374
1694300309.2540002,743.8095,782.49084,780.4762,798.60803,858.24176
1694300309.2540002,746.2271,786.1172,781.28204,782.0879,886.4469
1694300309.255,747.03296,783.69965,777.6557,778.86444,974.2857
1694300309.255,739.3773,782.49084,781.28204,798.20514,1108.0586
1694300309.256,736.9597,784.90845,780.87915,789.7436,890.07324
1694300309.256,740.989,785.31134,780.07324,768.3883,799.011
1694300309.257,748.24176,787.326,780.4762,759.92676,851.79486
1694300309.329,748.24176,787.326,775.2381,771.2088,888.0586
1694300309.33,745.42126,786.52014,773.6264,782.8938,828.4249
1694300309.331,747.03296,785.7143,773.6264,770.80585,820.3663
1694300309.332,749.45056,784.90845,773.22345,768.3883,967.4359
1694300309.3379998,749.0476,787.72894,776.04395,768.7912,874.35895
1694300309.339,752.674,788.5348,777.6557,764.7619,796.5934
1694300309.34,756.7033,786.9231,775.2381,762.74725,941.6484
1694300309.3409998,753.8828,787.72894,772.4176,774.83514,1154.3956
1694300309.3430002,744.21246,788.1319,774.83514,782.49084,994.0293
1694300309.3430002,750.65936,790.54944,775.64105,763.95605,785.31134
1694300309.344,755.4945,794.9817,774.83514,761.53845,811.50183
1694300309.345,757.50916,793.36993,777.25275,776.4469,855.0183
1694300309.376,759.92676,789.7436,775.2381,784.10254,918.68134
1694300309.3769999,761.13556,789.34064,767.98535,776.04395,763.95605
1694300309.3779998,767.1795,791.3553,767.5824,757.9121,834.4689
1694300309.379,766.3736,788.1319,770.0,761.13556,1243.0403
1694300309.38,763.1502,788.93774,768.3883,773.22345,1056.8865
1694300309.38,759.12085,792.96704,768.3883,772.8205,855.42126
1694300309.381,755.89746,794.57874,770.80585,776.4469,1037.1428
1694300309.3820002,752.674,794.9817,772.4176,782.8938,1068.5714
1694300309.3820002,751.8681,794.9817,774.0293,788.1319,820.7692
1694300309.3830001,756.7033,792.96704,776.04395,788.1319,781.685
1694300309.384,757.9121,788.93774,774.0293,780.4762,889.2674
1694300309.385,760.32965,791.3553,772.4176,769.19415,853.8095
1694300309.418,761.53845,792.5641,772.8205,771.2088,785.7143
1694300309.4190001,759.5238,788.5348,772.8205,783.69965,818.7546
1694300309.4190001,759.92676,786.52014,770.0,776.8498,871.9414
1694300309.42,759.12085,786.52014,767.1795,774.83514,856.2271
1694300309.42,758.315,786.1172,770.40295,778.46155,788.93774
1694300309.421,760.32965,785.31134,770.0,775.2381,881.6117
1694300309.425,761.53845,789.34064,767.5824,787.326,1240.6227
1694300309.425,763.1502,792.1612,768.7912,793.36993,1116.1172
1694300309.4259999,766.3736,789.34064,771.2088,780.4762,824.7985
1694300309.4259999,769.59705,788.93774,773.22345,767.98535,844.1392
1694300309.427,758.315,790.14655,772.8205,767.1795,1086.7032
1694300309.427,753.47986,790.54944,773.6264,776.8498,952.1245
1694300309.468,754.68866,787.326,776.04395,783.2967,778.0586
1694300309.4689999,758.315,789.34064,777.25275,786.52014,882.4176
1694300309.47,760.32965,791.75824,779.2674,782.8938,997.25275
1694300309.47,758.315,790.54944,780.07324,772.8205,850.18317
1694300309.471,760.7326,788.93774,777.6557,782.8938,715.6044
1694300309.472,772.4176,790.9524,775.2381,786.9231,870.32965
1694300309.472,767.1795,794.17584,779.2674,783.2967,979.92676
1694300309.473,766.3736,792.96704,781.28204,786.9231,934.7985
1694300309.473,772.01465,788.93774,779.2674,779.2674,821.978
1694300309.473,767.1795,788.1319,780.07324,769.59705,947.6923
1694300309.474,766.77655,794.57874,779.67035,781.28204,1080.2565
1694300309.474,759.12085,794.57874,780.87915,786.1172,879.59705
1694300309.5110002,759.92676,790.9524,783.69965,790.9524,839.707
1694300309.513,763.95605,795.38464,783.2967,805.8608,888.86444
1694300309.514,762.74725,796.1905,780.07324,796.99634,852.1978
1694300309.515,764.35895,792.5641,775.64105,786.1172,800.2198
1694300309.516,761.9414,791.75824,772.8205,786.9231,865.4945
1694300309.516,753.47986,787.72894,771.6117,792.96704,909.81683
1694300309.517,754.2857,785.7143,772.01465,798.60803,837.28937
1694300309.5180001,756.30035,788.93774,776.4469,803.0403,767.98535
1694300309.521,752.674,786.9231,776.04395,801.02563,788.1319
1694300309.521,750.65936,782.0879,770.80585,795.78754,1057.6923
1694300309.5219998,745.42126,782.0879,770.40295,790.9524,984.35895
1694300309.5219998,740.18317,781.28204,772.4176,799.011,762.74725
1694300309.559,741.39197,786.9231,775.2381,805.05493,857.8388
1694300309.56,740.989,788.5348,778.46155,780.4762,1120.1465
1694300309.56,742.1978,783.69965,780.87915,763.95605,951.31866
1694300309.5609999,743.4066,783.2967,784.5055,779.2674,771.6117
1694300309.5609999,745.82416,783.69965,785.7143,798.60803,819.9634
1694300309.563,750.2564,782.49084,782.49084,799.011,894.10254
1694300309.564,755.09155,780.87915,780.87915,784.90845,927.1429
1694300309.5649998,753.8828,784.5055,783.2967,777.25275,853.00366
1694300309.5649998,744.61536,785.7143,782.8938,771.6117,932.381
1694300309.5660002,741.39197,783.69965,785.7143,775.64105,938.4249
1694300309.5670002,745.0183,786.1172,788.5348,792.96704,850.18317
1694300309.5670002,753.47986,784.5055,784.10254,792.96704,807.47253
1694300309.612,753.47986,783.69965,780.4762,791.3553,1054.0659
1694300309.613,754.68866,783.2967,784.10254,791.3553,1334.1025
1694300309.614,763.1502,785.7143,788.5348,793.36993,968.24176
1694300309.614,754.68866,790.9524,786.1172,791.3553,778.0586
1694300309.615,738.97437,787.326,782.8938,778.0586,866.7033
1694300309.616,741.79486,784.10254,782.49084,777.25275,886.04395
1694300309.6169999,745.42126,785.31134,779.67035,776.8498,894.10254
1694300309.6169999,744.61536,788.5348,779.2674,776.04395,856.63007
1694300309.6179998,744.21246,786.9231,776.04395,779.67035,1030.6959
1694300309.6179998,743.4066,787.72894,773.22345,763.1502,943.2601
1694300309.621,745.0183,790.14655,773.6264,754.2857,779.67035
1694300309.6220002,749.45056,788.93774,776.04395,751.4652,880.40295
1694300309.654,747.8388,786.52014,775.64105,746.2271,950.9158
1694300309.654,745.42126,783.69965,775.64105,761.13556,862.27106
1694300309.655,746.2271,785.7143,780.4762,773.6264,792.1612
1694300309.655,751.4652,785.7143,782.0879,782.49084,943.2601
1694300309.656,758.315,790.14655,779.67035,795.38464,1114.5055
1694300309.656,761.9414,794.57874,780.07324,795.78754,943.2601
1694300309.6569998,764.7619,790.54944,782.49084,799.011,811.0989
1694300309.6569998,769.19415,788.5348,785.31134,793.36993,962.1978
1694300309.6579998,764.35895,789.34064,779.2674,785.7143,1067.7656
1694300309.6579998,755.09155,788.1319,777.6557,788.93774,835.2747
1694300309.6579998,755.09155,786.1172,780.4762,796.1905,753.0769
1694300309.6590002,762.3443,787.326,781.28204,793.36993,799.011
1694300309.697,765.56775,787.72894,783.2967,788.1319,760.7326
1694300309.698,767.1795,788.5348,782.49084,781.28204,764.7619
1694300309.6990001,765.56775,788.93774,782.0879,772.8205,848.1685
1694300309.6990001,767.5824,787.72894,786.1172,786.9231,889.2674
1694300309.7,770.40295,788.1319,786.52014,799.011,903.7729
1694300309.7,765.56775,786.9231,787.326,788.5348,916.26373
1694300309.701,764.7619,784.90845,786.9231,785.31134,880.40295
1694300309.701,770.0,786.9231,782.49084,794.57874,1233.37
1694300309.7020001,770.80585,788.1319,783.69965,792.5641,1191.4652
1694300309.7020001,774.0293,786.9231,784.90845,783.2967,786.9231
1694300309.703,772.8205,788.5348,786.1172,785.7143,758.315
1694300309.703,773.22345,787.72894,786.9231,790.9524,829.6337
1694300309.747,778.46155,788.5348,785.31134,803.0403,889.2674
1694300309.748,769.59705,788.1319,786.52014,801.4286,827.2161
1694300309.7489998,766.3736,783.69965,788.1319,788.1319,801.8315
1694300309.7500002,771.6117,784.10254,786.52014,778.86444,894.90845
1694300309.7500002,763.5531,787.72894,786.52014,771.6117,831.2454
1694300309.7510002,758.71796,787.72894,786.1172,763.1502,854.61536
1694300309.752,766.77655,786.52014,785.31134,778.86444,1025.8608
1694300309.753,757.9121,784.10254,785.31134,784.90845,986.3736
1694300309.753,749.0476,785.31134,787.72894,774.43225,826.0073
1694300309.754,753.47986,788.5348,785.7143,753.8828,774.83514
1694300309.755,755.09155,788.1319,781.685,749.0476,992.01465
1694300309.755,753.0769,787.72894,783.69965,768.3883,1209.1941
1694300309.812,755.4945,789.7436,783.2967,770.0,879.59705
1694300309.813,765.16486,792.1612,783.69965,768.7912,764.35895
1694300309.8140001,764.35895,794.9817,785.7143,769.59705,907.8022
1694300309.8140001,763.1502,792.1612,781.685,770.0,842.9304
1694300309.815,760.32965,788.5348,780.4762,773.6264,794.57874
1694300309.815,752.674,786.9231,782.8938,774.83514,968.6447
1694300309.816,745.82416,787.326,783.69965,777.25275,1242.2344
1694300309.816,743.4066,786.1172,783.69965,765.16486,1050.0366
1694300309.817,751.8681,784.90845,783.2967,749.85345,792.1612
1694300309.8179998,755.89746,786.1172,784.5055,751.06226,808.2784
1694300309.8179998,748.6447,786.1172,784.90845,752.674,839.304
1694300309.819,747.8388,784.10254,784.10254,761.9414,840.10986
1694300309.8470001,748.6447,780.07324,783.69965,766.77655,853.4066
1694300309.848,743.4066,777.6557,786.9231,771.6117,913.8461
1694300309.852,745.0183,778.86444,786.52014,766.3736,1114.1025
1694300309.853,749.85345,780.4762,780.4762,756.7033,926.7399
1694300309.854,742.6007,780.07324,778.46155,763.1502,748.24176
1694300309.854,739.7802,782.8938,780.07324,772.01465,904.57874
1694300309.855,747.4359,782.49084,782.8938,772.4176,952.52747
1694300309.855,751.4652,780.4762,783.2967,761.9414,857.4359
1694300309.856,749.0476,778.0586,781.28204,764.7619,798.20514
1694300309.8569999,749.85345,777.6557,782.8938,772.8205,914.65204
1694300309.8569999,745.82416,781.685,784.5055,770.40295,909.81683
1694300309.8579998,746.2271,782.0879,784.90845,770.0,761.13556
1694300309.896,749.45056,781.28204,782.8938,770.0,766.77655
1694300309.8969998,745.42126,781.28204,778.46155,776.04395,862.27106
1694300309.8969998,749.0476,780.07324,775.2381,781.685,942.8571
1694300309.8979998,747.8388,776.04395,772.01465,753.47986,842.1245
1694300309.8979998,745.42126,775.2381,767.5824,733.3333,823.1868
1694300309.8990002,737.3626,774.83514,761.53845,749.45056,1118.1318
1694300309.8990002,728.0952,770.80585,762.3443,753.0769,1059.3041
1694300309.9,740.58606,767.98535,767.5824,747.03296,828.8278
1694300309.9,740.58606,770.40295,770.80585,749.0476,846.1539
1694300309.901,729.707,769.59705,772.01465,758.315,1089.1208
1694300309.9020002,743.4066,766.3736,770.40295,756.30035,955.7509
1694300309.9020002,749.0476,769.19415,774.0293,754.68866,755.09155
1694300309.9459999,740.58606,770.40295,776.4469,761.9414,947.6923
1694300309.947,741.79486,771.6117,776.4469,767.5824,1020.6227
1694300309.948,741.39197,776.8498,775.2381,771.6117,826.8132
1694300309.948,738.97437,778.46155,774.43225,779.67035,776.4469
1694300309.952,732.1245,775.64105,774.0293,779.2674,881.6117
1694300309.9529998,732.9304,776.8498,770.40295,774.0293,967.03296
1694300309.9539998,733.3333,776.4469,768.7912,773.22345,950.10986
1694300309.9539998,734.1392,772.8205,770.40295,773.22345,806.6667
1694300309.9550002,739.7802,774.43225,772.01465,779.67035,951.7216
1694300309.9550002,735.34796,775.64105,773.22345,785.7143,1199.1208
1694300309.956,738.97437,775.2381,772.01465,782.0879,925.12823
1694300309.956,746.2271,777.25275,770.0,767.5824,780.4762
1694300309.9859998,748.6447,775.2381,770.0,760.32965,840.10986
1694300309.987,749.0476,776.4469,772.8205,765.56775,832.4542
1694300309.988,743.00366,780.87915,774.0293,753.8828,819.15753
1694300309.9889998,739.7802,778.86444,778.0586,753.8828,838.9011
1694300309.9889998,741.39197,776.8498,778.46155,765.56775,854.61536
1694300309.99,745.42126,780.4762,780.4762,766.77655,910.2198
1694300309.99,750.2564,783.2967,782.8938,770.80585,936.0073
1694300309.9910002,755.89746,781.28204,778.86444,763.95605,936.8132
1694300309.9910002,754.2857,777.6557,777.6557,776.8498,1240.2197
1694300309.992,747.03296,775.64105,775.64105,790.54944,1246.6666
1694300309.993,743.4066,777.25275,773.6264,780.4762,837.6923
1694300309.993,743.8095,776.4469,776.8498,779.67035,794.9817
1694300310.016,754.68866,779.2674,780.87915,781.28204,866.30035
1694300310.017,751.06226,780.87915,778.86444,786.9231,815.9341
1694300310.018,750.2564,782.8938,780.87915,790.14655,776.04395
1694300310.018,755.09155,779.2674,780.87915,781.28204,780.4762
1694300310.019,753.47986,775.2381,778.0586,777.6557,860.2564
1694300310.019,754.2857,779.2674,781.28204,793.36993,884.43225
1694300310.024,747.8388,783.2967,782.49084,798.20514,853.00366
1694300310.024,750.2564,782.49084,782.0879,794.57874,958.97437
1694300310.0249999,756.30035,781.28204,781.28204,791.3553,1042.7839
1694300310.0259998,754.2857,783.2967,782.0879,765.16486,844.1392
1694300310.027,755.89746,784.5055,784.90845,761.9414,871.13556
1694300310.028,754.68866,786.52014,779.67035,774.0293,1015.38464
1694300310.1030002,756.30035,786.1172,775.64105,771.6117,925.5311
1694300310.105,756.30035,783.69965,778.46155,777.25275,796.99634
1694300310.106,753.47986,780.87915,780.87915,784.90845,853.4066
1694300310.106,757.50916,777.6557,780.07324,777.25275,895.31134
1694300310.107,747.03296,780.07324,778.0586,770.80585,874.35895
1694300310.107,740.18317,778.46155,778.86444,772.4176,872.3443
1694300310.108,747.8388,779.2674,780.07324,773.6264,886.4469
1694300310.109,746.63007,780.87915,781.685,775.2381,936.4103
1694300310.109,736.1539,775.2381,779.67035,783.2967,895.7143
1694300310.1100001,725.6777,768.7912,777.25275,784.90845,788.93774
1694300310.1100001,720.0366,766.77655,780.87915,785.31134,797.3993
1694300310.111,722.8571,767.1795,783.69965,796.1905,1108.0586
1694300310.168,730.9158,762.3443,783.2967,793.7729,1008.93774
1694300310.169,737.3626,760.7326,781.28204,783.69965,828.8278
1694300310.1699998,734.5421,760.32965,779.67035,784.10254,911.8315
1694300310.1699998,736.55676,761.13556,783.2967,782.8938,919.89014
1694300310.171,751.4652,767.5824,786.9231,782.49084,814.7253
1694300310.172,761.9414,773.6264,785.31134,782.0879,813.5165
1694300310.1729999,759.12085,775.2381,778.86444,770.40295,938.8278
1694300310.175,759.12085,776.4469,777.25275,760.7326,930.7692
1694300310.1790001,761.53845,783.2967,783.2967,767.5824,832.4542
1694300310.18,763.1502,783.2967,788.5348,769.59705,788.93774
1694300310.181,763.95605,777.6557,787.72894,780.87915,1030.2931
1694300310.1820002,759.92676,779.67035,784.90845,799.81683,1239.011
1694300310.19,756.7033,782.0879,785.7143,795.78754,931.1722
1694300310.191,754.68866,782.49084,782.49084,788.1319,822.381
1694300310.192,749.45056,782.0879,780.87915,791.3553,1107.2528
1694300310.192,740.989,780.4762,784.10254,794.9817,1110.4762
1694300310.1929998,740.58606,775.2381,780.4762,761.13556,811.50183
1694300310.1939998,750.2564,772.01465,778.46155,742.1978,861.06226
1694300310.1939998,758.315,776.4469,782.49084,758.71796,996.4469
1694300310.1950002,759.92676,782.8938,783.69965,771.6117,886.04395
1694300310.1950002,754.2857,783.69965,784.5055,775.2381,777.25275
1694300310.196,758.71796,781.685,782.49084,767.1795,795.78754
1694300310.196,768.7912,780.4762,781.28204,762.3443,1103.2234
1694300310.197,771.2088,777.25275,780.4762,761.9414,1109.6703
1694300310.224,772.8205,776.04395,776.8498,766.77655,805.8608
1694300310.225,761.53845,778.0586,781.28204,771.6117,771.6117
1694300310.2259998,747.8388,778.46155,780.87915,776.04395,935.6044
1694300310.227,746.63007,777.25275,775.64105,773.6264,824.3956
1694300310.227,744.61536,779.2674,777.6557,778.86444,732.1245
1694300310.228,747.8388,784.5055,778.0586,790.54944,963.8095
1694300310.228,750.2564,786.9231,776.04395,796.1905,1066.9597
1694300310.2289999,747.8388,786.1172,776.4469,787.326,870.32965
1694300310.2289999,748.6447,786.1172,775.64105,773.22345,803.8461
1694300310.23,746.63007,783.2967,776.4469,770.40295,947.6923
1694300310.233,747.4359,782.0879,775.2381,774.43225,985.56775
1694300310.234,739.3773,781.685,772.4176,770.0,773.22345
1694300310.264,740.18317,781.685,775.64105,770.0,783.2967
1694300310.2649999,751.4652,781.685,778.46155,771.6117,863.8828
1694300310.2649999,750.65936,781.28204,774.0293,769.59705,867.9121
1694300310.2659998,752.27106,782.8938,772.01465,759.92676,829.6337
1694300310.2659998,764.35895,786.9231,774.0293,752.27106,839.707
1694300310.267,767.98535,786.52014,776.4469,764.7619,1021.8315
1694300310.267,763.1502,781.28204,778.0586,787.72894,1020.2198
1694300310.268,756.30035,779.67035,779.67035,801.8315,852.6007
1694300310.268,761.53845,786.52014,783.2967,800.2198,844.1392
1694300310.269,776.04395,798.60803,784.5055,798.20514,1128.608
1694300310.269,778.86444,801.8315,786.52014,801.02563,1011.75824
1694300310.2700002,767.5824,791.75824,787.72894,801.4286,764.7619
1694300310.292,764.7619,789.34064,782.49084,802.6374,897.72894
1694300310.2940001,778.46155,794.17584,781.28204,799.011,1026.2638
1694300310.296,779.67035,792.1612,783.69965,800.2198,857.4359
1694300310.297,767.98535,785.31134,782.49084,802.23444,762.3443
1694300310.297,773.6264,788.93774,781.685,803.0403,804.65204
1694300310.2979999,783.2967,794.57874,780.87915,802.6374,935.2015
1694300310.299,776.4469,794.17584,779.2674,800.2198,966.63007
1694300310.299,780.07324,795.78754,781.685,799.41394,782.8938
1694300310.3,778.86444,794.9817,781.28204,808.2784,896.52014
1694300310.3,769.59705,794.9817,782.0879,826.8132,1128.2051
1694300310.3009999,781.685,798.20514,785.31134,815.9341,863.47986
1694300310.3009999,780.4762,798.20514,784.5055,799.011,789.34064
1694300310.333,761.53845,794.57874,780.87915,796.99634,964.61536
1694300310.333,754.68866,794.57874,777.25275,800.2198,890.07324
1694300310.334,751.8681,794.9817,772.8205,794.17584,782.49084
1694300310.334,752.27106,790.54944,771.6117,792.1612,831.2454
1694300310.335,757.50916,789.7436,776.04395,797.8022,889.2674
1694300310.335,759.92676,790.9524,777.6557,797.8022,956.55676
1694300310.336,757.9121,792.1612,781.28204,807.47253,949.707
1694300310.336,761.53845,792.5641,781.28204,809.89014,884.83514
1694300310.337,770.0,791.3553,778.86444,795.78754,1080.6593
1694300310.337,752.27106,787.72894,777.6557,785.7143,997.6557
1694300310.3379998,738.1685,788.5348,775.64105,784.10254,762.74725
1694300310.3379998,740.18317,788.5348,778.0586,792.96704,801.8315
1694300310.392,742.6007,789.34064,779.2674,804.65204,900.54944
1694300310.393,746.2271,789.34064,772.8205,796.5934,893.2967
1694300310.393,740.989,784.5055,774.43225,783.69965,803.0403
1694300310.3939998,741.39197,783.69965,781.28204,771.6117,861.8681
1694300310.3939998,745.82416,785.31134,784.5055,774.43225,1023.44324
1694300310.395,746.63007,781.685,785.7143,786.1172,943.663
1694300310.395,749.85345,779.67035,782.8938,789.7436,882.01465
1694300310.396,751.4652,784.90845,781.28204,794.17584,977.50916
1694300310.396,754.68866,786.9231,784.10254,803.0403,1140.2931
1694300310.3969998,757.9121,786.52014,782.49084,796.99634,888.0586
1694300310.3969998,749.85345,782.49084,779.67035,786.9231,774.43225
1694300310.3980002,749.0476,782.49084,781.685,794.17584,911.8315
1694300310.429,755.89746,784.5055,781.685,799.81683,863.0769
1694300310.43,757.50916,784.10254,779.2674,798.60803,806.26373
1694300310.4339998,761.53845,779.67035,779.2674,789.34064,841.31866
1694300310.4350002,769.19415,778.86444,777.6557,787.326,883.6264
1694300310.4350002,779.67035,787.72894,784.10254,812.71063,911.02563
1694300310.436,789.34064,799.41394,794.9817,829.2308,892.49084
1694300310.436,803.44324,808.2784,806.26373,827.619,907.8022
1694300310.437,826.4103,825.6044,819.9634,833.663,1163.663
1694300310.437,834.4689,838.49817,823.5897,829.2308,1102.0146
1694300310.4380002,823.9927,838.49817,822.381,831.6484,823.5897
1694300310.4390001,819.15753,834.4689,823.5897,839.304,811.50183
1694300310.4390001,819.15753,832.4542,827.619,851.39197,839.304
1694300310.461,816.337,834.0659,830.4396,855.82416,869.5238
1694300310.4620001,812.71063,832.0513,825.2015,841.31866,815.9341
1694300310.4620001,808.68134,836.08057,826.0073,849.3773,847.76556
1694300310.463,812.3077,842.52747,835.2747,866.30035,899.34064
1694300310.464,817.5458,844.1392,839.707,863.47986,844.94507
1694300310.465,807.0696,842.9304,838.49817,854.61536,815.9341
1694300310.465,793.7729,838.0952,837.6923,842.1245,1008.93774
1694300310.4659998,793.36993,835.2747,834.4689,827.619,1378.8279
1694300310.467,788.1319,835.2747,831.6484,835.2747,1168.0952
1694300310.467,784.5055,834.4689,832.0513,847.3626,845.7509
1694300310.468,792.5641,831.2454,826.4103,837.28937,842.9304
1694300310.468,790.9524,829.2308,828.022,823.1868,810.293
1694300310.523,777.25275,825.6044,830.4396,821.1722,807.0696
1694300310.523,778.86444,822.7839,830.84247,830.84247,818.7546
1694300310.524,783.69965,822.381,831.2454,829.6337,828.4249
1694300310.524,770.40295,826.8132,831.2454,799.011,821.1722
1694300310.527,767.98535,832.4542,833.2601,782.49084,804.65204
1694300310.528,771.6117,813.5165,828.8278,791.75824,932.7839
1694300310.528,758.315,766.77655,825.2015,803.0403,1206.3737
1694300310.529,747.03296,741.79486,824.7985,789.7436,1025.0549
1694300310.529,743.4066,741.39197,827.619,781.28204,721.2454
1694300310.53,739.7802,744.21246,832.4542,789.34064,838.0952
1694300310.53,742.6007,743.4066,832.0513,788.93774,1039.9634
1694300310.53,742.6007,745.42126,827.2161,767.98535,913.44324
1694300310.598,738.5714,751.4652,828.4249,745.0183,826.4103
1694300310.599,733.73627,749.0476,823.1868,741.39197,847.76556
1694300310.599,733.73627,750.2564,821.978,758.71796,996.8498
1694300310.6,734.1392,745.82416,826.0073,768.7912,874.35895
1694300310.6009998,732.52747,738.97437,822.7839,767.1795,788.5348
1694300310.6009998,728.0952,743.8095,818.3516,775.64105,967.8388
1694300310.6019998,727.6923,749.0476,816.337,779.2674,990.80585
1694300310.6019998,733.3333,748.24176,813.5165,774.43225,834.4689
1694300310.6030002,739.7802,744.61536,808.2784,771.6117,804.2491
1694300310.6030002,749.45056,741.39197,805.8608,776.04395,971.4652
1694300310.604,737.76556,741.39197,803.0403,776.04395,965.42126
1694300310.605,732.1245,742.1978,798.60803,759.92676,761.13556
1694300310.6369998,744.21246,745.42126,795.38464,763.1502,818.7546
1694300310.638,748.6447,748.24176,792.5641,752.674,965.0183
1694300310.6390002,754.2857,752.27106,794.17584,761.9414,890.07324
1694300310.64,759.12085,757.1062,796.1905,784.10254,797.8022
1694300310.64,752.27106,755.4945,791.3553,786.1172,823.9927
1694300310.641,756.7033,756.30035,788.93774,795.38464,983.1502
1694300310.645,763.95605,758.71796,787.326,789.7436,950.5128
1694300310.6460001,763.5531,757.50916,782.49084,781.28204,849.3773
1694300310.647,766.77655,755.89746,780.07324,782.0879,869.5238
1694300310.648,770.0,752.27106,777.25275,781.685,1086.3004
1694300310.648,781.28204,755.89746,780.87915,781.685,944.4689
1694300310.649,786.52014,757.9121,781.685,784.5055,737.76556
1694300310.6729999,775.2381,755.09155,778.46155,801.02563,897.72894
1694300310.6739998,766.3736,756.30035,780.4762,820.3663,1069.7803
1694300310.675,766.3736,754.2857,780.87915,820.7692,952.52747
1694300310.675,771.2088,754.2857,779.2674,798.20514,795.78754
1694300310.676,775.2381,759.12085,784.10254,793.7729,854.21246
1694300310.677,780.07324,757.1062,781.28204,801.4286,999.67035
1694300310.677,774.43225,757.9121,776.8498,805.4579,996.4469
1694300310.6790001,755.4945,763.5531,780.07324,805.4579,877.5824
1694300310.681,755.4945,765.16486,780.87915,806.26373,944.0659
1694300310.682,769.19415,763.95605,778.46155,817.9487,1115.7142
1694300310.684,773.6264,762.3443,777.6557,827.619,894.90845
1694300310.685,771.2088,764.35895,777.25275,816.7399,836.8865
1694300310.7129998,767.98535,765.16486,778.0586,800.2198,895.31134
1694300310.7129998,770.80585,768.3883,778.46155,800.6227,802.6374
1694300310.714,777.6557,771.6117,781.28204,801.4286,753.8828
1694300310.714,774.0293,772.8205,783.2967,795.78754,779.2674
1694300310.7150002,772.01465,772.01465,779.67035,784.5055,840.9158
1694300310.7150002,771.6117,769.59705,778.86444,784.10254,899.7436
1694300310.716,760.32965,774.83514,786.52014,782.49084,896.9231
1694300310.716,758.315,778.86444,786.9231,770.80585,924.3223
1694300310.72,759.92676,776.4469,784.10254,792.1612,1146.7399
1694300310.721,762.3443,771.6117,781.28204,803.8461,1097.1794
1694300310.721,762.3443,768.3883,778.0586,790.54944,814.3223
1694300310.722,760.32965,767.5824,777.25275,788.1319,846.9597
1694300310.78,763.95605,774.43225,778.0586,792.96704,916.6667
1694300310.781,765.56775,779.2674,778.86444,799.011,824.7985
1694300310.782,770.80585,779.67035,778.46155,809.0842,778.46155
1694300310.783,769.19415,779.2674,776.8498,821.5751,830.0366
1694300310.783,765.9707,779.67035,776.8498,811.0989,876.77655
1694300310.784,764.7619,777.6557,778.86444,793.7729,876.3736
1694300310.784,759.5238,777.25275,779.2674,787.72894,852.1978
1694300310.7849998,763.1502,778.86444,779.67035,792.96704,944.87177
1694300310.7849998,762.3443,777.6557,778.86444,814.3223,1253.5165
1694300310.7859998,758.315,777.6557,778.86444,807.47253,982.3443
1694300310.7870002,762.74725,780.87915,782.49084,784.90845,799.011
1694300310.7870002,760.32965,777.6557,778.46155,781.28204,885.2381
1694300310.837,761.13556,778.86444,777.25275,793.7729,804.65204
1694300310.838,758.71796,782.8938,780.4762,802.6374,794.17584
1694300310.838,760.7326,781.28204,780.4762,789.34064,857.4359
1694300310.839,765.9707,780.87915,780.4762,781.685,854.21246
1694300310.839,764.7619,780.4762,777.6557,770.80585,801.02563
1694300310.84,756.7033,780.07324,777.6557,780.87915,819.5604
1694300310.8409998,755.4945,783.69965,781.28204,805.05493,881.6117
1694300310.8409998,760.32965,787.326,782.49084,808.2784,1096.3737
1694300310.8419998,759.12085,784.10254,777.25275,793.36993,1000.87915
1694300310.8419998,761.53845,782.49084,775.2381,786.9231,761.53845
1694300310.8470001,752.674,784.5055,776.8498,795.78754,850.989
1694300310.848,749.0476,788.93774,775.64105,788.1319,966.63007
1694300310.894,751.4652,788.93774,774.0293,778.86444,889.67035
1694300310.895,755.09155,783.2967,775.64105,794.57874,784.5055
1694300310.895,767.1795,786.52014,776.4469,790.54944,809.0842
1694300310.896,764.7619,785.7143,775.2381,783.2967,998.46155
1694300310.8969998,756.30035,779.67035,773.6264,786.1172,874.7619
1694300310.8969998,760.7326,786.52014,776.04395,786.1172,783.69965
1694300310.8979998,771.6117,792.1612,778.46155,790.14655,998.46155
1694300310.8990002,771.6117,799.81683,777.6557,790.14655,1089.1208
1694300310.8990002,772.8205,854.21246,775.2381,777.25275,828.022
1694300310.9,791.3553,890.87915,776.04395,770.0,749.85345
1694300310.901,793.7729,888.0586,778.46155,781.28204,813.5165
1694300310.901,781.28204,884.0293,779.2674,796.1905,784.10254
1694300310.929,778.0586,881.2088,778.46155,792.96704,753.0769
1694300310.9299998,771.2088,874.35895,777.6557,778.86444,867.1062
1694300310.931,757.9121,869.92676,781.28204,787.72894,1043.5897
1694300310.931,742.6007,863.8828,781.28204,795.38464,993.22345
1694300310.932,740.58606,855.42126,776.4469,788.93774,842.52747
1694300310.9329998,743.8095,848.97437,775.64105,779.67035,887.25275
1694300310.9329998,752.27106,847.3626,777.25275,778.86444,1129.414
1694300310.934,750.65936,848.97437,776.04395,785.31134,971.4652
1694300310.934,750.2564,846.9597,776.04395,796.99634,820.7692
1694300310.9350002,756.30035,843.73627,774.83514,793.36993,870.32965
1694300310.936,755.4945,838.9011,769.19415,778.0586,880.80585
1694300310.936,759.5238,836.8865,772.01465,774.0293,854.61536
1694300310.984,760.7326,834.0659,776.4469,778.86444,859.0476
1694300310.9859998,756.7033,827.619,773.6264,773.6264,909.81683
1694300310.987,761.53845,822.381,773.22345,770.80585,1016.99634
1694300310.988,768.3883,820.7692,775.64105,772.4176,900.54944
1694300310.9889998,757.50916,819.15753,773.6264,760.32965,814.3223
1694300310.99,757.1062,819.5604,771.6117,752.27106,1036.7399
1694300310.9910002,754.68866,820.3663,772.01465,767.1795,1382.0513
1694300310.9910002,751.4652,815.9341,773.22345,779.67035,1050.0366
1694300310.992,752.27106,812.71063,779.2674,785.31134,751.4652
1694300310.993,747.03296,814.7253,777.25275,783.69965,858.24176
1694300310.994,755.4945,815.5311,770.40295,768.3883,850.989
1694300310.994,761.53845,811.50183,769.59705,755.89746,786.9231
1694300311.052,761.9414,811.50183,771.2088,760.32965,816.337
1694300311.053,755.09155,811.0989,770.0,764.7619,843.3333
1694300311.0540001,749.45056,809.89014,771.6117,774.83514,813.91943
1694300311.0540001,756.30035,804.2491,771.2088,782.0879,791.75824
1694300311.055,756.30035,800.6227,771.2088,775.2381,842.9304
1694300311.056,753.0769,800.2198,773.22345,773.6264,895.7143
1694300311.056,755.4945,802.23444,774.0293,776.4469,848.1685
1694300311.057,763.1502,801.4286,773.22345,787.72894,816.337
1694300311.059,765.9707,801.02563,770.40295,788.93774,872.74725
1694300311.06,759.92676,801.8315,767.5824,780.87915,1000.87915
1694300311.06,743.8095,801.4286,765.9707,790.9524,904.17584
1694300311.0609999,740.58606,795.38464,764.7619,794.17584,839.304
1694300311.063,746.63007,788.1319,763.5531,782.0879,947.6923
1694300311.064,752.27106,790.14655,769.59705,787.326,1187.4359
1694300311.068,751.4652,791.3553,770.0,793.7729,1073.0037
1694300311.069,747.8388,792.1612,765.9707,787.72894,791.3553
1694300311.0700002,749.45056,793.36993,770.40295,784.5055,833.663
1694300311.0700002,753.47986,790.54944,772.4176,783.69965,910.6227
1694300311.071,756.7033,785.7143,770.40295,789.7436,899.34064
1694300311.071,749.0476,784.5055,767.5824,794.17584,819.9634
1694300311.072,743.4066,784.90845,767.98535,796.1905,964.61536
1694300311.073,736.9597,785.31134,769.19415,809.4872,1330.8792
1694300311.073,739.7802,785.7143,767.5824,783.2967,981.9414
1694300311.074,751.4652,788.1319,767.1795,766.77655,730.9158
1694300311.106,745.0183,790.54944,767.5824,773.6264,917.8755
1694300311.107,735.7509,788.5348,768.3883,784.10254,890.07324
1694300311.107,740.989,787.72894,770.0,799.41394,793.7729
1694300311.108,740.989,784.5055,770.0,790.9524,822.381
1694300311.109,736.55676,781.28204,770.40295,796.1905,863.0769
1694300311.109,742.1978,788.1319,770.0,809.4872,892.8938
1694300311.1100001,747.4359,791.3553,770.80585,811.9048,858.24176
1694300311.1100001,756.30035,787.72894,771.6117,796.5934,803.8461
1694300311.111,759.5238,792.1612,772.8205,792.5641,1082.674
1694300311.111,753.47986,795.38464,774.0293,786.9231,1019.011
1694300311.112,759.12085,792.5641,776.4469,790.14655,790.9524
1694300311.112,756.30035,789.7436,779.2674,803.44324,842.1245
1694300311.135,752.27106,788.93774,776.4469,793.7729,943.663
1694300311.136,758.315,793.36993,774.43225,787.72894,981.53845
1694300311.136,753.8828,791.3553,774.83514,794.9817,863.47986
1694300311.1369998,754.2857,789.34064,775.2381,795.78754,912.6374
1694300311.14,747.4359,787.72894,778.86444,800.6227,1081.8682
1694300311.141,743.4066,788.5348,780.4762,799.41394,942.0513
1694300311.141,749.0476,790.14655,778.0586,783.69965,820.3663
1694300311.1420002,748.24176,785.31134,774.83514,774.83514,916.6667
1694300311.1420002,744.61536,783.69965,774.83514,788.1319,1072.1978
1694300311.1430001,743.4066,782.49084,778.86444,798.20514,894.90845
1694300311.1430001,738.97437,782.49084,778.46155,786.52014,820.7692
1694300311.144,747.03296,788.1319,775.64105,771.6117,882.01465
1694300311.1950002,749.45056,788.5348,774.83514,761.9414,845.7509
1694300311.196,740.989,787.72894,776.04395,760.7326,788.93774
1694300311.197,739.7802,786.1172,776.04395,769.59705,864.68866
1694300311.1980002,740.18317,783.69965,774.83514,784.90845,1021.8315
1694300311.1980002,741.79486,783.69965,773.6264,774.43225,936.4103
1694300311.1990001,747.03296,785.7143,772.8205,761.9414,810.293
1694300311.1990001,749.0476,786.9231,774.43225,771.6117,851.79486
1694300311.2,750.2564,787.326,778.86444,787.326,1121.7583
1694300311.2,748.6447,785.31134,775.64105,788.5348,1028.2784
1694300311.201,747.8388,781.28204,770.0,779.67035,791.3553
1694300311.201,749.0476,782.49084,772.8205,792.5641,797.8022
1694300311.202,749.45056,788.93774,774.83514,815.12823,838.0952
1694300311.228,747.03296,792.1612,776.8498,817.1429,900.14655
1694300311.2289999,739.7802,792.1612,777.25275,804.2491,805.4579
1694300311.23,740.18317,793.36993,774.43225,804.2491,807.8755
1694300311.23,747.4359,791.3553,775.64105,812.3077,960.989
1694300311.231,743.00366,787.326,777.25275,799.011,871.53845
1694300311.231,728.0952,784.5055,778.86444,794.17584,832.8571
1694300311.2350001,731.7216,782.0879,782.49084,789.7436,1048.022
1694300311.236,732.52747,779.67035,779.2674,773.6264,1272.4542
1694300311.236,727.6923,777.6557,774.83514,767.5824,983.5531
1694300311.237,734.94507,781.28204,774.83514,766.3736,808.2784
1694300311.237,733.73627,781.685,777.6557,778.46155,933.1868
1694300311.2380002,732.52747,784.10254,784.10254,787.326,913.44324
1694300311.296,732.1245,786.52014,783.69965,778.0586,836.08057
1694300311.297,739.3773,785.31134,784.90845,780.07324,869.92676
1694300311.297,754.2857,785.7143,789.34064,791.75824,1006.52014
1694300311.2979999,739.3773,785.31134,786.52014,786.9231,937.2161
1694300311.299,731.31866,784.10254,783.2967,776.4469,816.337
1694300311.299,736.55676,779.67035,783.69965,772.4176,873.95605
1694300311.3,741.39197,778.46155,783.2967,784.5055,1170.5128
1694300311.3,746.2271,780.4762,783.2967,784.90845,1097.5824
1694300311.3009999,744.21246,780.87915,785.7143,786.52014,835.6777
1694300311.3009999,745.0183,780.4762,788.1319,794.17584,863.0769
1694300311.302,745.0183,780.07324,787.72894,795.38464,1017.3993
1694300311.302,738.97437,781.685,787.326,787.326,921.50183
1694300311.331,738.5714,780.87915,784.5055,768.3883,801.8315
1694300311.332,747.8388,780.87915,784.5055,770.80585,878.3883
1694300311.333,754.2857,784.5055,785.31134,779.67035,998.46155
1694300311.334,749.85345,786.1172,782.0879,774.83514,879.59705
1694300311.334,753.47986,790.14655,783.2967,775.2381,801.4286
1694300311.335,753.47986,790.54944,787.326,793.7729,902.96704
1694300311.335,747.03296,786.1172,784.5055,804.65204,988.7912
1694300311.336,757.9121,788.1319,786.1172,785.7143,896.52014
1694300311.339,767.1795,790.14655,789.7436,765.16486,784.90845
1694300311.34,763.1502,785.7143,786.9231,763.1502,917.0696
1694300311.34,766.77655,785.31134,786.52014,778.0586,986.77655
1694300311.3409998,765.56775,787.72894,789.7436,798.60803,806.6667
1694300311.381,760.7326,787.326,789.34064,807.0696,801.4286
1694300311.3820002,755.89746,786.9231,788.93774,811.0989,959.3773
1694300311.3820002,749.45056,786.9231,787.326,796.5934,911.8315
1694300311.3830001,756.7033,786.52014,786.52014,788.1319,764.7619
1694300311.3830001,757.50916,783.2967,783.69965,793.7729,786.9231
1694300311.384,756.30035,784.5055,785.7143,795.38464,905.38464
1694300311.384,760.7326,786.52014,786.9231,798.20514,911.02563
1694300311.385,754.2857,786.52014,781.685,784.90845,763.1502
1694300311.385,751.4652,786.1172,780.87915,781.28204,801.8315
1694300311.386,749.0476,783.2967,784.5055,804.65204,1102.0146
1694300311.387,752.27106,782.8938,784.5055,809.4872,985.56775
1694300311.387,759.5238,785.7143,785.31134,804.2491,795.78754
1694300311.427,761.9414,788.5348,786.9231,817.5458,958.5714
1694300311.428,759.92676,789.7436,788.1319,826.8132,1177.7656
1694300311.429,761.13556,795.38464,790.14655,809.4872,969.45056
1694300311.429,754.68866,792.96704,786.1172,787.72894,793.36993
1694300311.43,749.0476,788.1319,784.10254,789.34064,894.90845
1694300311.431,751.4652,790.14655,787.326,791.75824,980.7326
1694300311.431,750.2564,786.9231,784.5055,781.685,938.022
1694300311.432,744.61536,786.9231,784.5055,782.8938,841.31866
1694300311.4329998,743.4066,784.10254,786.52014,794.57874,938.4249
1694300311.4339998,740.989,781.28204,784.5055,804.2491,1081.4652
1694300311.4380002,737.3626,780.4762,788.1319,805.05493,848.1685
1694300311.4390001,738.5714,780.07324,789.7436,809.0842,765.56775
1694300311.487,736.1539,782.0879,786.9231,813.5165,863.8828
1694300311.488,733.73627,782.8938,785.31134,798.60803,846.55676
1694300311.4889998,739.7802,780.4762,782.8938,781.685,782.8938
1694300311.4889998,745.42126,781.685,784.5055,789.7436,826.4103
1694300311.4899998,749.85345,785.7143,787.326,792.1612,1012.5641
1694300311.4910002,738.97437,784.10254,788.1319,790.54944,962.6007
1694300311.492,738.1685,784.90845,788.5348,804.65204,861.4652
1694300311.493,752.27106,790.14655,790.54944,813.91943,873.95605
1694300311.493,753.0769,790.9524,788.5348,809.0842,1100.0
1694300311.4940002,748.24176,791.75824,786.52014,796.1905,992.8205
1694300311.4950001,755.09155,791.75824,787.72894,789.34064,750.65936
1694300311.496,755.4945,790.54944,786.9231,791.75824,837.6923
1694300311.548,756.30035,794.57874,788.93774,790.9524,929.5604
1694300311.549,766.3736,798.20514,791.3553,799.011,837.6923
1694300311.5500002,768.7912,793.36993,790.54944,803.44324,778.86444
1694300311.551,765.56775,792.1612,793.36993,805.8608,842.9304
1694300311.552,761.9414,794.17584,792.5641,808.2784,877.98535
1694300311.552,762.3443,786.9231,789.7436,807.0696,910.6227
1694300311.553,763.95605,782.8938,789.34064,811.0989,899.34064
1694300311.554,762.3443,787.72894,792.96704,815.12823,989.19415
1694300311.554,757.9121,788.93774,794.57874,799.41394,1296.63
1694300311.555,757.9121,790.9524,790.14655,772.8205,1097.9854
1694300311.556,761.53845,792.5641,788.5348,775.2381,832.4542
1694300311.556,751.8681,788.93774,789.7436,789.7436,886.04395
1694300311.607,752.674,787.72894,790.54944,800.2198,853.4066
1694300311.608,758.315,788.1319,794.17584,805.8608,804.2491
1694300311.609,755.89746,784.90845,795.38464,805.4579,798.60803
1694300311.61,754.2857,784.5055,797.3993,811.0989,860.2564
1694300311.611,746.63007,784.5055,799.011,792.96704,846.1539
1694300311.611,743.8095,783.69965,799.011,785.31134,807.0696
1694300311.612,744.21246,783.69965,795.38464,786.9231,887.25275
1694300311.613,751.06226,787.72894,793.36993,779.67035,1131.8315
1694300311.614,749.45056,792.96704,795.38464,784.90845,1093.956
1694300311.614,741.79486,790.14655,797.3993,792.1612,910.2198
1694300311.615,749.85345,790.9524,797.8022,801.02563,858.24176
1694300311.616,753.8828,790.9524,794.9817,792.96704,894.90845
1694300311.6169999,743.8095,790.54944,792.1612,774.43225,892.49084
1694300311.6179998,747.8388,788.93774,790.54944,753.8828,823.1868
1694300311.6179998,755.09155,786.1172,784.90845,734.5421,842.9304
1694300311.619,757.9121,791.75824,782.8938,749.85345,975.4945
1694300311.619,763.5531,790.9524,786.9231,767.5824,888.46155
1694300311.62,757.1062,785.7143,787.326,765.16486,852.1978
1694300311.621,748.24176,786.9231,783.69965,758.71796,1068.1685
1694300311.621,757.50916,787.326,786.52014,772.4176,1181.392
1694300311.6220002,765.56775,788.1319,790.54944,776.8498,869.92676
1694300311.6220002,757.50916,785.31134,790.14655,767.1795,756.30035
1694300311.6230001,755.4945,782.8938,788.5348,769.59705,836.8865
1694300311.6230001,757.9121,783.69965,788.5348,755.09155,874.35895
1694300311.677,765.9707,781.28204,792.5641,752.674,856.2271
1694300311.6780002,764.35895,774.83514,792.96704,768.7912,826.8132
1694300311.68,763.95605,774.43225,789.7436,772.8205,965.0183
1694300311.681,765.9707,779.2674,791.3553,761.9414,932.7839
1694300311.681,761.13556,779.2674,790.14655,764.7619,792.1612
1694300311.682,766.3736,781.28204,786.52014,778.0586,895.31134
1694300311.682,767.98535,782.0879,789.7436,791.75824,1218.0586
1694300311.682,767.1795,784.5055,791.75824,794.9817,1038.3517
1694300311.683,764.7619,786.9231,791.3553,791.75824,795.78754
1694300311.683,762.74725,782.8938,788.5348,789.34064,832.8571
1694300311.683,759.5238,777.25275,782.8938,776.4469,842.9304
1694300311.684,750.65936,776.4469,782.8938,779.2674,858.6447
1694300311.725,732.52747,776.8498,786.1172,793.36993,832.0513
1694300311.725,726.08057,772.8205,788.1319,801.02563,876.77655
1694300311.726,730.10986,772.4176,790.9524,808.2784,1129.8169
1694300311.727,732.1245,773.6264,789.34064,793.7729,992.4176
1694300311.727,740.58606,773.22345,785.7143,777.6557,790.9524
1694300311.728,741.39197,778.86444,786.9231,780.4762,936.8132
1694300311.728,743.8095,780.87915,783.69965,780.07324,1103.6263
1694300311.7289999,759.12085,777.6557,779.2674,759.5238,925.9341
1694300311.7289999,755.4945,776.8498,778.46155,754.2857,784.10254
1694300311.7299998,749.85345,780.07324,779.2674,767.98535,921.9048
1694300311.731,753.0769,782.8938,779.2674,765.56775,941.2454
1694300311.732,754.68866,782.8938,780.4762,762.74725,779.67035
1694300311.764,749.45056,783.69965,782.49084,768.7912,784.5055
1694300311.764,746.2271,783.2967,779.67035,764.35895,823.1868
1694300311.7649999,753.47986,784.10254,776.4469,753.47986,826.0073
1694300311.7649999,753.8828,786.1172,778.0586,745.42126,782.49084
1694300311.768,753.8828,787.72894,781.28204,740.989,816.337
1694300311.768,755.4945,786.1172,782.8938,747.4359,1093.956
1694300311.769,745.0183,780.87915,782.0879,751.4652,1043.5897
1694300311.769,731.31866,776.04395,779.67035,742.6007,844.1392
1694300311.769,730.5128,772.01465,782.0879,743.4066,815.9341
1694300311.77,741.79486,772.8205,782.8938,753.0769,1076.227
1694300311.77,739.3773,777.25275,784.5055,763.95605,1020.6227
1694300311.77,732.52747,780.87915,788.5348,765.16486,778.0586
1694300311.809,737.76556,782.0879,785.7143,756.7033,883.22345
1694300311.809,748.6447,783.2967,781.28204,756.30035,971.4652
1694300311.81,750.65936,783.69965,783.2967,759.5238,832.0513
1694300311.811,737.3626,782.8938,787.72894,772.4176,769.19415
1694300311.811,738.97437,784.5055,784.90845,772.8205,823.5897
1694300311.812,746.2271,790.14655,782.0879,770.0,927.5458
1694300311.813,744.21246,791.3553,782.8938,782.8938,911.8315
1694300311.813,745.42126,789.34064,780.07324,772.01465,837.28937
1694300311.8140001,751.06226,794.17584,776.04395,755.89746,894.10254
1694300311.8140001,754.2857,796.99634,777.25275,768.7912,956.1539
1694300311.815,750.2564,792.5641,779.67035,777.25275,868.71796
1694300311.815,747.03296,790.9524,780.4762,773.22345,811.9048
1694300311.8430002,757.1062,790.54944,780.07324,776.04395,998.0586
1694300311.844,765.16486,792.96704,782.49084,780.87915,1137.0696
1694300311.844,754.68866,791.75824,785.31134,771.2088,886.04395
1694300311.845,753.47986,795.38464,784.10254,778.0586,839.707
1694300311.845,747.8388,797.3993,784.90845,778.86444,902.5641
1694300311.845,742.6007,792.96704,785.31134,765.16486,893.69965
1694300311.848,753.0769,797.3993,784.90845,766.3736,851.79486
1694300311.848,747.8388,794.57874,782.8938,766.77655,832.4542
1694300311.849,739.3773,786.52014,782.8938,766.77655,1053.2601
1694300311.849,732.1245,789.34064,786.52014,762.3443,968.6447
1694300311.849,735.7509,797.3993,788.5348,759.5238,745.82416
1694300311.85,730.10986,796.1905,789.34064,758.315,845.34796
1694300311.894,713.9927,790.14655,788.5348,749.45056,1170.9158
1694300311.895,713.9927,791.3553,794.17584,739.3773,956.1539
1694300311.896,722.4542,791.3553,798.20514,731.7216,761.13556
1694300311.8969998,719.2308,793.7729,796.5934,719.2308,871.53845
1694300311.8969998,711.1722,797.3993,798.60803,713.5897,896.1172
1694300311.8979998,700.293,793.36993,798.60803,714.7985,919.0842
1694300311.8990002,694.2491,796.5934,797.8022,726.4835,852.6007
1694300311.9,699.4872,798.60803,796.5934,730.9158,910.2198
1694300311.901,708.3516,797.3993,794.57874,732.9304,1091.9414
1694300311.9020002,698.2784,799.011,791.3553,737.3626,882.8205
1694300311.9020002,694.65204,802.23444,784.5055,738.97437,805.05493
1694300311.903,696.26373,799.41394,779.67035,744.21246,871.53845
1694300311.931,691.4286,796.5934,780.07324,744.21246,869.12085
1694300311.932,691.8315,798.60803,779.2674,730.10986,851.39197
1694300311.9329998,697.8755,793.36993,776.8498,736.9597,835.2747
1694300311.9329998,697.47253,792.1612,774.83514,759.5238,950.5128
1694300311.934,698.2784,793.36993,771.2088,777.6557,917.8755
1694300311.9350002,710.3663,791.75824,771.6117,794.57874,853.4066
1694300311.936,722.4542,792.1612,770.0,780.4762,879.59705
1694300311.936,727.28937,792.1612,764.35895,757.1062,1094.762
1694300311.9390001,734.1392,792.5641,766.3736,764.7619,1014.9817
1694300311.94,750.2564,792.1612,763.95605,776.4469,803.44324
1694300311.941,746.63007,793.7729,764.35895,790.14655,778.0586
1694300311.9420002,740.989,792.5641,767.5824,807.47253,728.9011
1694300311.992,749.0476,788.5348,765.16486,805.8608,759.92676
1694300311.993,758.315,786.1172,767.5824,807.8755,762.74725
1694300311.994,755.89746,784.5055,767.98535,815.12823,844.94507
1694300311.9950001,747.8388,783.69965,764.35895,823.9927,1020.2198
1694300311.9950001,751.4652,783.69965,766.77655,832.8571,869.12085
1694300311.996,758.315,785.7143,767.98535,826.4103,819.9634
1694300311.996,755.4945,784.90845,761.53845,811.50183,1036.7399
1694300311.997,754.2857,783.2967,761.9414,808.2784,1229.7435
1694300311.997,749.0476,780.4762,767.98535,801.02563,949.304
1694300311.9980001,747.4359,780.07324,768.7912,802.23444,737.76556
1694300311.9980001,754.2857,778.86444,766.77655,802.23444,800.6227
1694300311.9980001,750.65936,774.83514,765.16486,792.1612,766.3736
1694300312.041,752.27106,781.28204,764.7619,791.75824,749.85345
1694300312.0419998,762.3443,784.5055,763.1502,790.9524,804.2491
1694300312.043,763.95605,781.685,762.3443,789.34064,853.00366
1694300312.044,752.27106,782.49084,764.7619,794.57874,856.2271
1694300312.0449998,756.7033,781.28204,768.7912,807.0696,805.8608
1694300312.0470002,760.7326,785.31134,770.40295,813.5165,891.685
1694300312.049,760.7326,788.1319,769.59705,816.7399,1162.0513
1694300312.05,757.9121,786.1172,769.19415,811.0989,987.98535
1694300312.051,761.53845,786.9231,770.0,784.90845,746.63007
1694300312.052,764.35895,786.52014,769.19415,767.5824,807.47253
1694300312.056,765.16486,785.31134,768.7912,791.75824,1020.2198
1694300312.057,760.7326,783.2967,769.19415,790.9524,949.304
1694300312.079,758.315,785.31134,769.19415,791.3553,859.45056
1694300312.08,759.5238,787.72894,770.40295,796.99634,857.8388
1694300312.0809999,756.30035,786.1172,767.5824,792.5641,920.696
1694300312.0819998,753.8828,781.685,766.3736,795.38464,848.97437
1694300312.0819998,757.50916,781.685,769.19415,790.9524,795.78754
1694300312.0830002,761.9414,782.49084,767.5824,785.31134,968.6447
1694300312.0830002,765.16486,783.2967,766.77655,785.7143,1028.6813
1694300312.0830002,770.0,781.28204,768.3883,780.07324,848.5714
1694300312.084,765.9707,782.49084,770.80585,787.72894,781.685
1694300312.085,751.06226,785.7143,769.59705,807.0696,997.6557
1694300312.085,756.7033,784.90845,768.3883,811.9048,1097.5824
1694300312.0860002,767.98535,783.69965,770.80585,788.5348,815.9341
1694300312.1139998,761.9414,785.31134,770.80585,778.86444,789.34064
1694300312.1139998,760.7326,789.7436,771.2088,788.5348,884.83514
1694300312.115,766.77655,789.34064,772.01465,792.1612,841.7216
1694300312.115,771.6117,786.52014,769.59705,789.7436,791.3553
1694300312.116,764.7619,787.72894,766.3736,784.90845,865.4945
1694300312.116,760.32965,788.1319,764.35895,778.0586,1017.3993
1694300312.116,761.9414,787.72894,765.9707,783.2967,958.5714
1694300312.1169999,756.7033,787.72894,769.19415,793.36993,862.674
1694300312.1169999,758.315,780.07324,767.5824,796.5934,900.14655
1694300312.118,757.9121,776.4469,766.77655,796.5934,1122.5641
1694300312.118,749.0476,780.07324,770.40295,782.49084,960.18317
1694300312.119,747.8388,777.25275,772.8205,783.2967,807.0696
1694300312.149,746.63007,770.40295,770.0,794.9817,957.3626
1694300312.149,742.6007,772.4176,769.59705,797.8022,1126.1904
1694300312.15,750.65936,777.25275,775.64105,793.7729,970.65936
1694300312.151,757.9121,779.2674,776.8498,793.36993,778.0586
1694300312.151,758.71796,782.49084,775.64105,786.52014,793.7729
1694300312.152,757.50916,784.5055,774.83514,784.90845,814.3223
1694300312.152,759.5238,784.10254,773.6264,800.6227,833.663
1694300312.1529999,759.12085,783.69965,774.0293,799.81683,755.4945
1694300312.1539998,755.09155,781.28204,772.8205,776.8498,877.98535
1694300312.1539998,753.47986,783.2967,776.8498,770.80585,1075.4213
1694300312.155,752.27106,783.69965,780.87915,769.59705,835.6777
1694300312.155,759.12085,784.5055,777.25275,777.25275,757.1062
1694300312.227,768.3883,788.5348,779.2674,793.7729,850.18317
1694300312.228,766.77655,786.1172,782.49084,800.2198,855.42126
1694300312.2289999,759.92676,784.10254,780.4762,801.02563,854.21246
1694300312.23,760.32965,785.31134,775.64105,781.685,850.989
1694300312.231,767.98535,787.72894,775.2381,775.64105,1002.8938
1694300312.232,760.7326,788.93774,774.0293,778.0586,1002.0879
1694300312.233,759.5238,788.93774,775.64105,772.8205,866.7033
1694300312.233,768.3883,790.9524,781.28204,790.54944,842.52747
1694300312.234,762.3443,786.52014,779.67035,799.011,1054.4689
1694300312.2350001,757.1062,787.72894,776.8498,787.326,979.92676
1694300312.236,759.5238,795.78754,775.2381,787.326,765.56775
1694300312.236,761.53845,798.60803,776.04395,790.54944,850.18317
1694300312.261,766.77655,797.8022,776.04395,783.69965,967.03296
1694300312.262,765.9707,795.78754,773.22345,764.35895,921.50183
1694300312.2649999,761.13556,799.41394,771.2088,766.77655,844.5421
1694300312.2659998,765.9707,799.011,771.6117,778.46155,899.34064
1694300312.2659998,765.56775,797.8022,774.0293,782.49084,991.2088
1694300312.267,753.8828,798.60803,777.6557,796.5934,928.7546
1694300312.267,750.2564,793.7729,779.2674,796.1905,828.022
1694300312.268,757.9121,793.36993,777.6557,790.14655,922.71063
1694300312.268,763.95605,794.17584,776.04395,796.99634,1227.326
1694300312.269,757.9121,793.7729,774.43225,789.7436,977.9121
1694300312.2700002,753.8828,792.1612,775.2381,788.1319,772.8205
1694300312.2700002,764.7619,792.5641,773.22345,788.93774,873.5531
1694300312.316,766.3736,794.57874,771.6117,776.8498,830.0366
1694300312.317,763.1502,795.38464,773.22345,763.95605,785.7143
1694300312.318,765.9707,792.96704,772.8205,765.56775,831.6484
1694300312.319,762.3443,790.14655,773.6264,783.2967,905.78754
1694300312.319,762.3443,789.7436,776.8498,791.3553,839.304
1694300312.32,758.315,790.14655,778.86444,782.8938,816.7399
1694300312.32,751.06226,793.36993,776.4469,765.9707,903.7729
1694300312.3209999,755.89746,794.57874,774.43225,769.19415,1184.6154
1694300312.3209999,755.09155,792.1612,774.43225,763.5531,1164.8718
1694300312.3209999,755.09155,790.54944,775.64105,752.27106,828.8278
1694300312.3219998,759.5238,792.1612,774.43225,759.5238,801.8315
1694300312.3219998,757.50916,789.7436,776.4469,775.2381,849.3773
1694300312.362,754.2857,783.69965,778.0586,782.0879,831.2454
1694300312.3630002,754.2857,786.52014,776.4469,782.0879,760.32965
1694300312.364,748.6447,785.7143,776.8498,782.8938,809.4872
1694300312.364,753.8828,784.5055,777.25275,783.69965,969.0476
1694300312.369,760.32965,789.34064,780.07324,784.5055,870.32965
1694300312.369,757.1062,787.326,778.46155,777.25275,823.9927
1694300312.37,752.674,789.34064,777.6557,774.43225,945.6777
1694300312.371,755.4945,795.78754,778.46155,770.80585,1087.9121
1694300312.371,758.71796,791.75824,778.86444,774.43225,880.0
1694300312.372,757.9121,788.5348,779.67035,783.69965,853.8095
1694300312.372,761.53845,792.1612,781.28204,782.8938,1016.5934
1694300312.373,761.9414,792.1612,781.685,777.25275,893.69965
1694300312.401,759.12085,785.31134,778.0586,773.22345,768.3883
1694300312.402,766.77655,784.90845,777.25275,772.4176,795.78754
1694300312.402,759.92676,787.326,778.46155,775.2381,858.6447
1694300312.403,761.53845,789.7436,779.67035,784.10254,851.79486
1694300312.404,766.77655,790.9524,782.8938,782.0879,803.44324
1694300312.404,764.35895,790.54944,780.07324,772.8205,868.315
1694300312.405,773.22345,792.96704,774.43225,772.4176,1122.1611
1694300312.405,774.43225,792.1612,772.01465,770.0,1024.652
1694300312.4060001,775.2381,792.5641,771.6117,770.0,789.34064
1694300312.407,779.2674,794.57874,770.80585,782.49084,811.50183
1694300312.407,780.07324,793.7729,770.0,775.64105,832.4542
1694300312.408,788.93774,797.3993,772.01465,778.46155,813.5165
1694300312.47,787.326,794.17584,772.4176,781.685,829.6337
1694300312.471,770.0,789.34064,772.8205,767.1795,936.0073
1694300312.472,764.35895,786.9231,780.07324,791.75824,1147.1428
1694300312.472,759.12085,786.9231,782.0879,807.0696,942.8571
1694300312.473,759.5238,791.3553,780.4762,803.8461,745.42126
1694300312.474,760.32965,789.34064,778.46155,802.23444,899.34064
1694300312.4780002,751.06226,784.90845,776.4469,796.99634,1060.5128
1694300312.4780002,751.4652,784.5055,774.0293,803.44324,882.8205
1694300312.479,765.56775,788.93774,778.86444,797.8022,794.57874
1694300312.48,765.56775,788.93774,782.49084,797.8022,935.2015
1694300312.48,753.47986,783.69965,776.4469,790.9524,933.5897
1694300312.481,751.8681,781.28204,773.6264,777.25275,820.3663
1694300312.515,764.35895,783.2967,776.4469,778.86444,792.96704
1694300312.516,765.16486,782.8938,776.8498,778.86444,822.7839
1694300312.517,758.71796,788.5348,776.4469,767.5824,823.5897
1694300312.517,756.7033,791.75824,776.4469,769.59705,809.4872
1694300312.5180001,755.4945,787.326,776.8498,780.4762,815.12823
1694300312.519,753.47986,786.1172,776.8498,787.72894,1114.9084
1694300312.52,751.06226,787.72894,779.2674,783.2967,1091.5385
1694300312.52,757.9121,788.5348,780.4762,765.16486,778.46155
1694300312.521,756.7033,787.72894,778.46155,745.82416,838.9011
1694300312.5219998,749.0476,786.52014,778.0586,744.21246,913.44324
1694300312.523,751.8681,786.52014,779.2674,768.3883,799.41394
1694300312.523,752.27106,786.1172,783.69965,775.64105,737.3626
1694300312.553,751.4652,785.31134,788.5348,785.7143,869.12085
1694300312.554,751.06226,786.9231,787.326,787.72894,1185.4213
1694300312.555,751.06226,791.3553,784.90845,763.1502,1088.3151
1694300312.556,757.50916,790.54944,784.90845,750.2564,780.4762
1694300312.556,755.89746,786.9231,784.90845,744.61536,773.6264
1694300312.557,750.2564,784.90845,782.0879,743.8095,868.315
1694300312.558,752.674,786.52014,780.87915,747.4359,913.44324
1694300312.559,753.8828,787.326,783.2967,745.82416,813.1135
1694300312.5619998,753.8828,781.685,780.07324,746.63007,919.0842
1694300312.563,760.32965,783.2967,782.0879,759.5238,1239.011
1694300312.563,750.2564,786.9231,785.31134,764.35895,965.82416
1694300312.564,745.0183,782.49084,784.90845,767.1795,780.87915
1694300312.605,757.1062,779.2674,780.87915,762.74725,882.4176
1694300312.607,757.1062,778.86444,776.4469,756.30035,807.8755
1694300312.607,749.0476,778.86444,774.0293,757.9121,747.4359
1694300312.608,751.06226,778.46155,776.04395,770.40295,797.8022
1694300312.608,756.7033,778.86444,780.4762,770.0,860.65936
1694300312.609,761.13556,780.87915,780.4762,751.8681,877.1795
1694300312.61,766.3736,780.87915,781.685,742.1978,863.8828
1694300312.61,763.1502,781.28204,783.2967,740.989,856.2271
1694300312.611,763.95605,785.7143,782.49084,753.0769,1166.8865
1694300312.612,769.59705,788.5348,779.67035,761.13556,1162.4542
1694300312.612,765.9707,784.10254,782.49084,754.2857,827.619
1694300312.613,767.1795,778.86444,785.7143,757.1062,835.6777
1694300312.665,770.40295,780.4762,783.69965,741.39197,919.4872
1694300312.666,766.77655,782.0879,782.0879,724.87177,834.87177
1694300312.667,762.3443,777.6557,779.2674,739.7802,815.9341
1694300312.667,763.95605,778.86444,776.4469,756.7033,873.1502
1694300312.668,771.2088,780.07324,776.04395,746.2271,919.4872
1694300312.669,774.83514,782.8938,779.67035,750.65936,901.3553
1694300312.669,776.4469,786.52014,784.10254,757.9121,819.15753
1694300312.67,770.80585,784.90845,784.5055,759.5238,886.4469
1694300312.671,766.77655,781.685,783.69965,781.28204,1195.4945
1694300312.671,762.74725,781.28204,781.685,789.34064,983.95605
1694300312.675,757.9121,782.8938,779.67035,781.685,773.22345
1694300312.676,766.3736,787.326,780.87915,774.43225,952.1245
1694300312.7059999,782.49084,786.9231,782.8938,763.1502,908.60803
1694300312.707,780.87915,785.31134,783.2967,756.7033,799.011
1694300312.708,772.4176,782.8938,782.8938,764.35895,859.85345
1694300312.7089999,771.6117,779.67035,780.07324,766.77655,875.16486
1694300312.7089999,764.7619,777.25275,780.4762,777.25275,796.99634
1694300312.711,757.50916,776.04395,784.5055,787.326,771.6117
1694300312.712,759.5238,776.4469,786.52014,796.99634,849.3773
1694300312.7129998,761.53845,777.6557,784.5055,798.20514,1100.403
1694300312.7129998,751.8681,775.64105,780.07324,772.4176,986.77655
1694300312.714,745.82416,776.8498,778.46155,763.5531,780.07324
1694300312.7150002,744.21246,777.25275,779.67035,776.04395,801.4286
1694300312.716,741.79486,778.0586,776.4469,771.2088,821.1722
1694300312.717,743.4066,780.07324,779.2674,771.6117,875.16486
1694300312.7180002,748.6447,777.6557,782.0879,788.1319,886.04395
1694300312.7180002,751.4652,776.04395,777.6557,789.7436,937.2161
1694300312.719,752.27106,779.67035,778.0586,790.9524,1168.9011
1694300312.722,749.45056,784.10254,779.2674,777.6557,945.2747
1694300312.723,745.42126,782.8938,779.2674,784.10254,747.8388
1694300312.724,743.00366,781.28204,778.86444,803.44324,1002.0879
1694300312.725,754.2857,780.4762,775.64105,796.1905,1120.9524
1694300312.726,758.71796,777.6557,778.46155,789.34064,822.7839
1694300312.727,749.85345,776.04395,777.6557,799.011,707.9487
1694300312.728,743.8095,774.0293,770.80585,801.4286,845.34796
1694300312.7289999,741.79486,773.22345,770.40295,797.3993,817.9487
1694300312.837,745.0183,778.46155,772.01465,799.011,760.7326
1694300312.838,750.65936,781.685,774.0293,795.78754,778.86444
1694300312.839,747.03296,778.86444,777.6557,796.1905,827.619
1694300312.84,747.8388,777.25275,780.07324,783.69965,861.06226
1694300312.84,752.27106,783.2967,780.4762,762.3443,840.10986
1694300312.8409998,762.74725,787.326,782.8938,749.45056,865.89746
1694300312.8419998,758.71796,784.10254,784.90845,757.50916,1161.6483
1694300312.8430002,749.0476,780.07324,782.0879,772.4176,1135.4579
1694300312.844,753.8828,784.5055,778.86444,776.4469,796.1905
1694300312.845,758.71796,787.72894,781.685,774.0293,766.3736
1694300312.8460002,757.50916,784.5055,782.49084,770.40295,836.4835
1694300312.8470001,763.1502,784.10254,782.49084,777.25275,831.2454
1694300312.875,763.1502,786.52014,783.69965,768.3883,791.75824
1694300312.876,764.35895,790.14655,785.7143,770.0,825.2015
1694300312.8769999,769.59705,792.5641,787.326,784.10254,964.61536
1694300312.878,765.56775,791.75824,784.90845,783.2967,871.53845
1694300312.878,761.53845,789.34064,783.69965,776.4469,814.3223
1694300312.879,759.92676,788.93774,782.49084,770.40295,925.5311
1694300312.88,757.9121,789.7436,779.67035,774.0293,961.79486
1694300312.88,757.50916,790.9524,782.8938,784.10254,918.2784
1694300312.881,753.0769,790.14655,784.5055,776.04395,814.3223
1694300312.882,754.68866,793.7729,783.2967,767.5824,906.5934
1694300312.882,755.4945,790.9524,783.2967,786.9231,1081.4652
1694300312.8830001,754.2857,789.34064,780.87915,788.5348,877.1795
1694300312.891,747.03296,791.75824,782.8938,788.5348,802.6374
1694300312.892,747.8388,793.36993,788.93774,796.1905,872.74725
1694300312.896,748.6447,791.3553,789.34064,794.57874,842.1245
1694300312.8969998,744.21246,787.72894,787.326,782.0879,771.6117
1694300312.8979998,749.85345,784.5055,786.52014,776.4469,826.8132
1694300312.8979998,753.8828,784.5055,786.9231,780.4762,947.6923
1694300312.8990002,749.0476,788.1319,787.72894,773.22345,929.5604
1694300312.8990002,747.4359,788.5348,786.52014,770.40295,807.8755
1694300312.9,755.4945,786.9231,786.1172,772.8205,766.77655
1694300312.9,753.0769,784.90845,786.9231,790.54944,1064.5421
1694300312.901,751.06226,786.9231,786.52014,801.4286,1034.3224
1694300312.9020002,756.7033,789.34064,785.31134,787.72894,783.69965
1694300312.924,753.8828,786.52014,782.49084,772.8205,840.9158
1694300312.925,752.674,784.5055,783.2967,772.8205,1096.7766
1694300312.926,755.09155,786.1172,779.2674,767.1795,969.45056
1694300312.926,747.03296,787.326,777.25275,763.95605,747.8388
1694300312.927,741.79486,781.685,782.49084,769.19415,788.1319
1694300312.928,742.6007,777.6557,782.49084,766.3736,888.0586
1694300312.928,737.3626,776.8498,783.69965,755.09155,911.4286
1694300312.929,740.58606,774.83514,784.10254,744.21246,799.011
1694300312.929,748.24176,774.83514,782.0879,743.00366,963.4066
1694300312.9299998,748.6447,778.0586,784.90845,757.50916,1216.8499
1694300312.9299998,752.27106,779.2674,787.72894,766.77655,903.7729
1694300312.931,743.8095,776.04395,784.5055,755.09155,801.4286
1694300312.957,739.7802,773.22345,786.9231,755.09155,1012.1612
1694300312.9580002,745.42126,775.64105,789.34064,767.5824,932.381
1694300312.959,751.06226,776.8498,786.52014,760.7326,787.72894
1694300312.959,754.68866,778.0586,786.1172,759.12085,778.46155
1694300312.962,753.47986,778.86444,784.90845,762.3443,811.0989
1694300312.963,761.13556,776.04395,786.52014,755.89746,851.79486
1694300312.963,761.13556,777.25275,790.54944,762.74725,833.663
1694300312.963,758.315,776.4469,787.72894,781.685,815.5311
1694300312.964,759.12085,775.64105,786.52014,790.54944,1060.9158
1694300312.964,761.9414,781.685,786.9231,780.87915,993.22345
1694300312.965,770.0,784.90845,787.72894,767.98535,745.82416
1694300312.965,770.0,786.9231,786.9231,757.1062,826.0073
1694300313.05,758.71796,788.93774,784.5055,753.0769,926.7399
1694300313.051,753.0769,784.5055,783.69965,759.92676,822.381
1694300313.051,757.1062,781.28204,786.9231,777.25275,735.34796
1694300313.052,755.4945,782.0879,784.90845,781.28204,838.9011
1694300313.053,749.45056,782.0879,778.86444,770.0,1041.5751
1694300313.053,761.53845,784.10254,778.46155,758.315,981.53845
1694300313.0540001,769.19415,782.8938,780.07324,759.92676,865.89746
1694300313.0540001,761.13556,779.2674,782.49084,763.95605,924.3223
1694300313.055,769.19415,779.2674,784.90845,769.19415,1094.762
1694300313.055,774.83514,780.87915,782.8938,769.59705,882.01465
1694300313.056,768.7912,779.67035,780.87915,774.43225,762.3443
1694300313.056,761.13556,778.46155,781.28204,784.10254,841.7216
1694300313.093,757.1062,780.4762,779.67035,777.6557,843.3333
1694300313.094,761.13556,780.4762,776.4469,775.64105,813.5165
1694300313.095,762.74725,780.4762,776.04395,776.04395,827.619
1694300313.096,767.98535,784.5055,780.07324,755.4945,846.9597
1694300313.0979998,764.35895,786.1172,782.49084,747.4359,843.3333
1694300313.099,753.8828,784.10254,780.87915,751.8681,891.28204
1694300313.1020002,758.71796,779.2674,782.0879,762.3443,1002.49084
1694300313.1030002,758.315,773.6264,780.87915,758.315,1061.7216
1694300313.104,751.4652,772.4176,778.86444,747.03296,903.36993
1694300313.104,749.85345,776.04395,780.4762,730.5128,795.38464
1694300313.105,747.4359,772.8205,780.87915,724.87177,785.31134
1694300313.106,752.27106,775.2381,780.87915,734.94507,1141.5018
1694300313.107,751.8681,778.86444,781.685,736.1539,1268.022
1694300313.108,751.4652,776.04395,786.1172,738.1685,885.2381
1694300313.109,762.3443,781.28204,787.326,715.2015,810.293
1694300313.109,768.7912,783.2967,784.90845,687.8022,878.3883
1694300313.1100001,759.5238,779.67035,786.9231,673.69965,812.3077
1694300313.111,759.5238,780.4762,788.93774,652.3443,790.9524
1694300313.111,763.95605,784.90845,787.72894,643.8828,975.4945
1694300313.112,758.315,783.69965,782.0879,628.5714,1265.2014
1694300313.113,755.4945,782.8938,781.685,602.7839,1072.1978
1694300313.113,747.03296,786.1172,783.2967,598.7546,776.4469
1694300313.1139998,749.85345,784.5055,783.2967,603.9927,791.75824
1694300313.115,757.1062,783.69965,784.90845,605.2015,815.12823
1694300313.156,753.47986,785.31134,782.49084,595.9341,762.3443
1694300313.1569998,757.50916,786.9231,778.86444,585.4579,774.0293
1694300313.1569998,761.9414,785.31134,780.87915,595.12823,858.6447
1694300313.1580002,758.315,786.52014,784.90845,606.8132,856.63007
1694300313.1590002,759.5238,787.326,781.685,609.6337,784.5055
1694300313.1590002,750.65936,784.10254,779.67035,614.87177,814.7253
1694300313.16,743.00366,783.69965,780.07324,637.03296,1212.0146
1694300313.16,753.0769,787.72894,781.28204,654.7619,1212.4176
1694300313.164,755.89746,784.90845,781.28204,640.2564,838.49817
1694300313.164,757.9121,781.685,778.86444,618.9011,829.2308
1694300313.165,755.4945,782.8938,782.8938,623.73627,903.7729
1694300313.1660001,755.09155,783.69965,784.90845,642.27106,897.326
1694300313.216,767.1795,786.1172,783.69965,656.77655,860.2564
1694300313.217,774.83514,786.52014,782.8938,675.7143,850.58606
1694300313.217,775.2381,781.685,779.2674,680.9524,1112.4908
1694300313.218,775.2381,780.4762,776.8498,666.8498,1001.685
1694300313.218,780.4762,784.90845,780.4762,668.0586,778.86444
1694300313.219,774.43225,780.07324,780.87915,676.1172,908.60803
1694300313.22,756.30035,772.4176,776.04395,682.96704,1033.5165
1694300313.22,739.3773,771.2088,777.6557,694.65204,885.2381
1694300313.221,734.5421,773.6264,782.49084,703.1135,776.4469
1694300313.221,740.989,774.0293,783.2967,706.337,878.3883
1694300313.2220001,745.82416,772.8205,784.5055,721.6484,928.3516
1694300313.223,750.65936,770.40295,781.28204,730.10986,821.5751
1694300313.2540002,751.06226,773.6264,780.87915,726.08057,803.8461
1694300313.255,754.68866,778.86444,784.10254,714.7985,960.989
1694300313.255,763.5531,776.4469,785.31134,708.7546,880.40295
1694300313.256,763.95605,774.83514,786.52014,710.3663,739.7802
1694300313.256,767.98535,778.46155,786.52014,710.7692,834.87177
1694300313.257,772.8205,777.6557,784.5055,714.3956,1004.10254
1694300313.258,762.3443,778.46155,787.72894,725.6777,966.63007
1694300313.258,755.89746,781.28204,785.31134,729.707,806.6667
1694300313.259,758.315,776.8498,782.0879,724.4689,786.9231
1694300313.259,761.9414,777.25275,788.1319,734.94507,1064.9451
1694300313.263,756.7033,779.67035,789.34064,743.8095,997.25275
1694300313.264,752.27106,778.0586,786.52014,737.3626,788.93774
1694300313.286,755.09155,776.4469,783.69965,736.1539,904.57874
1694300313.2870002,753.47986,776.04395,785.31134,751.8681,1027.4725
1694300313.288,745.82416,777.25275,786.9231,743.4066,879.19415
1694300313.288,749.45056,780.4762,784.10254,735.34796,832.8571
1694300313.289,755.4945,782.0879,784.90845,745.82416,869.5238
1694300313.29,755.4945,783.2967,785.7143,751.06226,900.54944
1694300313.29,751.8681,782.0879,786.1172,741.79486,872.3443
1694300313.2910001,748.24176,776.8498,787.72894,728.0952,706.337
1694300313.292,751.8681,776.8498,790.54944,737.3626,834.4689
1694300313.292,755.89746,779.2674,790.9524,755.89746,1078.6447
1694300313.293,755.09155,778.86444,786.52014,749.0476,876.3736
1694300313.2940001,754.68866,778.0586,786.9231,743.8095,802.23444
1694300313.351,744.21246,775.2381,786.52014,740.58606,908.60803
1694300313.352,743.4066,774.43225,783.2967,740.58606,865.09155
1694300313.353,749.45056,776.04395,786.1172,754.2857,825.2015
1694300313.3539999,745.42126,776.4469,787.72894,764.7619,848.97437
1694300313.3539999,751.8681,776.04395,787.326,774.83514,886.4469
1694300313.355,759.12085,771.2088,788.5348,783.69965,940.84247
1694300313.355,764.7619,774.0293,788.1319,790.14655,977.50916
1694300313.356,763.1502,779.67035,787.326,779.2674,953.3333
1694300313.356,754.68866,779.2674,787.326,788.5348,1193.0769
1694300313.3569999,753.0769,774.83514,785.7143,811.0989,1216.044
1694300313.358,749.85345,772.4176,784.10254,809.4872,808.2784
1694300313.358,750.65936,773.6264,778.46155,805.05493,737.3626
1694300313.402,755.4945,775.2381,776.04395,805.4579,870.32965
1694300313.403,753.0769,779.67035,779.2674,823.9927,830.4396
1694300313.404,755.4945,782.8938,778.86444,832.0513,760.7326
1694300313.405,769.19415,785.7143,777.6557,822.381,821.978
1694300313.4060001,780.07324,784.5055,781.685,822.381,867.9121
1694300313.407,781.685,782.8938,784.10254,839.707,807.8755
1694300313.407,773.22345,786.52014,785.7143,846.55676,807.8755
1694300313.408,773.22345,785.31134,782.49084,832.4542,899.7436
1694300313.409,770.80585,782.8938,779.2674,821.1722,1023.0403
1694300313.409,772.01465,782.0879,780.4762,799.011,830.4396
1694300313.4099998,771.2088,781.28204,778.0586,801.8315,736.9597
1694300313.4099998,762.3443,782.0879,777.6557,824.7985,894.10254
1694300313.4550002,755.89746,785.7143,782.8938,834.87177,909.41394
1694300313.456,752.674,784.5055,784.90845,836.8865,745.0183
1694300313.46,751.4652,780.07324,784.10254,845.7509,770.40295
1694300313.461,750.65936,778.0586,788.1319,835.6777,856.63007
1694300313.4620001,755.09155,776.4469,788.5348,820.7692,840.10986
1694300313.4620001,761.9414,779.2674,788.5348,828.4249,828.4249
1694300313.464,760.7326,781.685,791.3553,836.08057,930.3663
1694300313.4659998,763.1502,781.685,791.75824,838.0952,990.40295
1694300313.467,772.01465,784.5055,790.54944,844.94507,861.4652
1694300313.4689999,769.19415,784.90845,787.72894,855.0183,831.6484
1694300313.47,760.7326,784.90845,784.90845,861.8681,849.3773
1694300313.471,760.7326,782.49084,780.4762,861.4652,1179.3773
1694300313.493,755.09155,780.07324,776.04395,848.5714,1236.5934
1694300313.4940002,746.63007,779.67035,776.04395,833.663,886.8498
1694300313.497,749.85345,779.2674,780.07324,823.5897,898.93774
1694300313.498,748.24176,780.4762,783.2967,828.022,1042.7839
1694300313.499,744.21246,776.04395,784.90845,844.94507,915.05493
1694300313.499,739.7802,772.4176,785.31134,853.4066,779.67035
1694300313.5,743.00366,773.6264,781.685,843.3333,931.5751
1694300313.5,747.8388,773.22345,779.2674,814.7253,1200.3297
1694300313.501,756.7033,778.86444,783.2967,802.6374,923.1135
1694300313.502,761.53845,782.49084,785.7143,812.71063,769.59705
1694300313.502,747.4359,778.46155,782.49084,819.15753,870.32965
1694300313.503,741.79486,778.86444,783.2967,823.1868,848.5714
1694300313.56,750.65936,779.2674,787.72894,830.0366,792.1612
1694300313.5619998,749.0476,779.2674,786.52014,838.0952,848.97437
1694300313.563,739.7802,778.86444,784.10254,840.9158,1004.5055
1694300313.564,739.7802,771.2088,780.87915,831.6484,899.7436
1694300313.5649998,745.42126,770.0,780.4762,828.022,768.7912
1694300313.5660002,748.6447,775.64105,781.685,826.8132,850.18317
1694300313.5660002,756.30035,776.4469,780.4762,823.1868,1191.8682
1694300313.5670002,760.7326,776.8498,782.0879,831.6484,1141.9048
1694300313.568,753.8828,779.2674,782.8938,831.2454,821.978
1694300313.569,749.85345,782.8938,782.8938,838.9011,797.3993
1694300313.57,755.89746,780.07324,780.07324,852.6007,832.0513
1694300313.57,756.7033,779.67035,780.07324,849.7802,848.97437
1694300313.63,754.68866,784.10254,781.685,838.49817,880.40295
1694300313.631,757.1062,786.1172,782.49084,829.6337,878.3883
1694300313.632,757.50916,784.90845,778.86444,816.337,1031.9048
1694300313.633,756.30035,781.28204,778.86444,806.6667,924.7253
1694300313.6369998,763.5531,784.5055,784.10254,809.4872,800.2198
1694300313.638,764.7619,783.69965,779.67035,809.89014,971.4652
1694300313.638,762.74725,780.07324,776.4469,810.293,989.59705
1694300313.6390002,767.5824,782.0879,780.07324,815.9341,870.32965
1694300313.64,771.2088,784.10254,785.31134,824.7985,770.40295
1694300313.641,776.4469,784.90845,789.34064,838.0952,898.1319
1694300313.641,777.25275,782.8938,787.72894,842.1245,1139.8901
1694300313.642,771.2088,781.28204,782.0879,828.022,920.293
1694300313.685,767.98535,782.0879,780.07324,813.1135,809.0842
1694300313.687,771.2088,780.4762,779.2674,821.1722,863.8828
1694300313.688,768.7912,779.2674,777.6557,825.6044,860.65936
1694300313.688,771.6117,783.2967,779.2674,811.0989,834.87177
1694300313.689,763.1502,781.28204,776.4469,809.0842,833.2601
1694300313.6899998,753.8828,776.8498,778.86444,815.9341,987.98535
1694300313.691,751.4652,780.4762,784.90845,825.6044,976.7033
1694300313.691,750.65936,782.0879,783.2967,811.9048,905.78754
1694300313.692,751.06226,778.0586,782.49084,803.0403,868.315
1694300313.6929998,747.4359,776.04395,785.31134,814.7253,1097.9854
1694300313.6940002,749.0476,780.87915,784.5055,814.3223,1077.4359
1694300313.6940002,752.27106,784.10254,788.1319,811.9048,778.86444
1694300313.696,755.89746,781.685,790.9524,809.4872,929.15753
1694300313.697,749.45056,782.0879,786.52014,806.6667,1082.2711
1694300313.697,748.6447,782.0879,784.90845,796.1905,895.7143
1694300313.698,756.7033,779.67035,789.7436,792.96704,817.1429
1694300313.6990001,749.85345,779.2674,790.14655,808.2784,859.85345
1694300313.6990001,750.65936,782.0879,789.34064,809.89014,903.36993
1694300313.703,767.1795,782.49084,788.1319,804.65204,901.75824
1694300313.704,763.95605,783.2967,790.14655,803.8461,784.90845
1694300313.705,746.63007,779.67035,788.5348,809.89014,875.16486
1694300313.705,748.6447,779.67035,784.5055,817.1429,1099.1941
1694300313.7059999,758.71796,783.2967,782.8938,808.68134,906.1905
1694300313.707,757.9121,777.25275,782.49084,800.6227,792.96704
1694300313.748,755.09155,776.4469,784.10254,810.293,914.65204
1694300313.7489998,763.1502,783.2967,783.69965,813.1135,850.58606
1694300313.7500002,761.53845,782.8938,780.4762,801.02563,766.77655
1694300313.7500002,753.47986,782.49084,781.685,798.20514,818.7546
1694300313.7510002,756.7033,782.8938,781.685,806.26373,861.8681
1694300313.752,759.92676,780.4762,777.6557,812.71063,877.1795
1694300313.752,755.09155,777.25275,778.86444,805.05493,879.59705
1694300313.753,758.315,776.04395,781.28204,802.23444,852.6007
1694300313.753,762.3443,780.87915,782.0879,819.5604,1091.1355
1694300313.754,755.4945,779.67035,780.87915,829.2308,1062.1245
1694300313.754,757.1062,779.2674,779.67035,813.91943,824.3956
1694300313.755,763.95605,782.8938,780.4762,797.8022,863.8828
1694300313.756,757.9121,780.87915,778.46155,790.54944,924.3223
1694300313.757,756.30035,782.0879,783.2967,801.4286,868.315
1694300313.7580001,757.50916,780.07324,784.5055,808.68134,783.2967
1694300313.7580001,757.9121,773.6264,781.685,807.0696,857.4359
1694300313.759,762.3443,772.01465,782.8938,807.8755,1025.0549
1694300313.76,763.95605,773.22345,780.4762,805.05493,916.26373
1694300313.76,770.0,772.4176,779.67035,801.02563,797.8022
1694300313.761,772.4176,772.4176,781.28204,805.05493,872.74725
1694300313.764,761.9414,771.2088,778.46155,806.26373,1121.7583
1694300313.7649999,754.68866,767.98535,775.64105,788.5348,896.1172
1694300313.766,754.2857,770.40295,780.4762,792.1612,703.5165
1694300313.766,753.8828,770.40295,778.86444,801.4286,831.2454
1694300313.809,755.89746,771.6117,776.8498,794.17584,866.7033
1694300313.81,757.50916,776.8498,779.2674,786.9231,837.6923
1694300313.811,759.5238,775.2381,778.86444,792.96704,878.3883
1694300313.812,757.50916,776.8498,775.2381,800.6227,1007.72894
1694300313.812,754.2857,774.43225,774.0293,792.1612,910.6227
1694300313.813,756.7033,770.0,776.8498,776.4469,856.2271
1694300313.8140001,758.315,772.8205,778.86444,770.80585,936.8132
1694300313.8140001,760.32965,777.6557,778.46155,774.43225,1135.8608
1694300313.815,759.5238,779.67035,777.6557,769.59705,1055.2748
1694300313.816,758.315,776.4469,779.2674,774.0293,774.83514
1694300313.8179998,757.1062,773.6264,778.0586,788.1319,752.674
1694300313.82,751.06226,772.8205,779.2674,797.8022,850.18317
1694300313.868,749.0476,774.0293,782.0879,803.44324,919.4872
1694300313.869,752.27106,779.2674,782.0879,801.8315,810.293
1694300313.869,755.89746,779.2674,785.7143,816.7399,848.1685
1694300313.8700001,759.12085,776.04395,783.2967,821.978,1034.3224
1694300313.8700001,763.5531,776.8498,779.2674,803.44324,941.6484
1694300313.871,774.43225,778.46155,780.07324,792.1612,807.8755
1694300313.871,765.9707,773.22345,776.4469,793.36993,955.7509
1694300313.872,755.89746,766.3736,774.83514,795.38464,1271.2454
1694300313.872,756.30035,768.7912,776.4469,791.3553,1000.87915
1694300313.873,755.89746,768.7912,771.6117,776.8498,762.3443
1694300313.876,759.12085,769.19415,770.80585,780.07324,848.1685
1694300313.8769999,756.30035,773.6264,775.64105,781.685,830.4396
1694300313.905,753.47986,773.6264,778.46155,783.2967,740.58606
1694300313.906,753.0769,768.7912,780.4762,796.5934,753.47986
1694300313.907,755.09155,767.98535,783.69965,798.20514,832.4542
1694300313.908,755.09155,767.5824,781.28204,793.36993,801.02563
1694300313.909,751.4652,764.7619,775.64105,780.4762,745.0183
1694300313.909,752.27106,763.5531,774.0293,783.69965,887.25275
1694300313.91,755.4945,764.35895,776.04395,807.47253,1205.5677
1694300313.91,750.65936,766.77655,779.67035,823.5897,1109.2675
1694300313.911,745.0183,765.56775,778.0586,817.9487,844.1392
1694300313.911,752.27106,765.16486,772.4176,793.7729,820.3663
1694300313.912,759.5238,768.3883,770.40295,790.14655,902.1612
1694300313.912,761.9414,772.01465,774.0293,803.0403,830.4396
1694300313.956,771.2088,774.0293,774.43225,799.011,770.0
1694300313.957,779.2674,776.4469,773.22345,798.20514,836.4835
1694300313.9580002,780.87915,776.8498,774.83514,807.47253,976.7033
1694300313.9580002,787.72894,778.86444,776.8498,805.8608,864.68866
1694300313.959,796.1905,782.0879,780.07324,805.8608,744.21246
1694300313.959,797.8022,786.9231,782.0879,809.89014,886.8498
1694300313.96,792.1612,787.326,781.28204,807.8755,998.0586
1694300313.961,780.07324,781.685,780.4762,812.71063,859.85345
1694300313.961,771.2088,782.8938,781.685,822.7839,738.1685
1694300313.962,765.16486,781.685,782.8938,823.5897,863.47986
1694300313.963,763.5531,780.4762,780.4762,827.619,972.674
1694300313.963,759.5238,777.25275,778.0586,813.91943,852.6007
1694300314.0310001,759.92676,776.4469,777.6557,796.5934,797.3993
1694300314.032,761.53845,775.2381,776.4469,795.78754,960.989
1694300314.033,762.74725,775.64105,776.8498,794.57874,983.1502
1694300314.034,765.9707,779.67035,778.0586,803.44324,842.9304
1694300314.034,773.6264,783.69965,781.685,820.3663,830.84247
1694300314.035,770.40295,783.2967,784.90845,822.381,1124.5787
1694300314.035,768.7912,782.8938,785.31134,804.65204,1065.348
1694300314.036,762.3443,782.49084,782.49084,787.72894,764.7619
1694300314.037,751.8681,778.86444,783.69965,805.05493,776.4469
1694300314.037,754.68866,774.0293,786.52014,815.5311,968.24176
1694300314.038,751.06226,773.22345,782.8938,801.4286,857.4359
1694300314.039,762.74725,774.43225,782.49084,798.20514,726.08057
1694300314.0670002,772.4176,772.8205,782.8938,802.6374,821.1722
1694300314.068,753.47986,776.04395,785.31134,809.0842,973.47986
1694300314.069,749.0476,777.25275,784.10254,813.5165,914.2491
1694300314.0700002,756.7033,773.6264,785.31134,826.4103,780.07324
1694300314.0700002,759.5238,774.0293,786.9231,826.0073,806.26373
1694300314.071,761.13556,774.83514,779.2674,804.2491,913.0403
1694300314.072,766.3736,775.64105,777.25275,793.36993,877.1795
1694300314.072,770.0,778.0586,779.67035,802.6374,753.8828
1694300314.073,770.80585,777.6557,782.49084,817.5458,864.2857
1694300314.074,774.0293,777.25275,782.49084,823.9927,1090.7325
1694300314.075,775.64105,780.4762,783.69965,825.2015,862.27106
1694300314.076,771.6117,774.0293,783.2967,828.4249,782.8938
1694300314.1100001,767.98535,770.0,782.49084,827.2161,925.5311
1694300314.111,765.9707,771.6117,782.49084,821.1722,888.46155
1694300314.115,768.3883,774.43225,778.0586,800.6227,794.57874
1694300314.115,769.59705,780.07324,776.04395,794.9817,849.3773
1694300314.116,777.25275,778.86444,776.4469,802.23444,1008.93774
1694300314.1169999,773.22345,777.6557,780.4762,813.91943,962.6007
1694300314.118,764.35895,777.25275,784.90845,815.9341,925.9341
1694300314.118,761.9414,774.43225,779.67035,814.3223,846.9597
1694300314.119,765.56775,774.0293,773.6264,814.7253,1053.2601
1694300314.12,765.16486,777.6557,776.4469,804.65204,1071.392
1694300314.12,765.16486,777.6557,771.6117,801.8315,787.326
1694300314.121,762.74725,774.0293,768.3883,806.26373,786.9231
1694300314.145,765.9707,772.01465,770.0,808.68134,902.96704
1694300314.146,765.9707,773.6264,770.40295,816.337,861.4652
1694300314.147,761.13556,775.64105,770.80585,823.5897,775.64105
1694300314.148,762.3443,775.2381,773.6264,825.2015,818.7546
1694300314.149,765.16486,779.67035,776.8498,825.6044,900.54944
1694300314.15,765.9707,780.87915,772.8205,813.91943,907.8022
1694300314.15,768.7912,777.6557,773.22345,809.0842,909.011
1694300314.151,764.7619,776.8498,779.2674,825.2015,932.7839
1694300314.151,762.3443,770.80585,777.6557,833.2601,921.50183
1694300314.152,766.77655,767.1795,775.2381,836.4835,844.1392
1694300314.152,768.7912,770.40295,776.04395,836.8865,747.8388
1694300314.1529999,763.1502,768.7912,773.22345,829.6337,941.6484
1694300314.184,764.7619,766.77655,772.4176,838.9011,1232.5641
1694300314.185,769.19415,767.1795,772.8205,848.1685,962.6007
1694300314.1859999,773.6264,771.2088,772.01465,846.55676,812.3077
1694300314.187,778.0586,774.43225,771.2088,830.84247,823.1868
1694300314.191,774.43225,774.43225,770.40295,817.1429,789.7436
1694300314.191,771.2088,774.83514,772.01465,818.7546,849.7802
1694300314.192,774.83514,778.86444,774.0293,824.7985,894.10254
1694300314.1929998,778.86444,780.4762,774.43225,838.0952,1099.1941
1694300314.1939998,778.46155,776.04395,775.2381,844.94507,1039.1575
1694300314.1939998,769.59705,775.64105,774.43225,842.52747,780.4762
1694300314.1950002,764.35895,776.04395,772.8205,840.9158,759.5238
1694300314.196,761.9414,774.0293,774.43225,843.3333,975.89746
1694300314.218,755.09155,772.01465,773.22345,830.4396,991.6117
1694300314.219,754.68866,771.6117,772.8205,811.50183,830.84247
1694300314.22,760.32965,774.0293,773.6264,803.44324,864.2857
1694300314.22,758.71796,769.59705,773.6264,823.1868,1016.1905
1694300314.221,757.1062,764.7619,774.0293,836.08057,909.011
1694300314.221,759.12085,767.5824,775.2381,835.2747,828.8278
1694300314.2220001,756.7033,771.6117,779.67035,846.9597,996.04395
1694300314.2220001,758.315,771.2088,779.2674,840.9158,1160.4396
1694300314.223,758.71796,767.5824,774.43225,818.3516,891.685
1694300314.223,761.53845,770.0,773.22345,805.4579,764.35895
1694300314.224,766.3736,772.01465,776.8498,807.8755,857.03296
1694300314.224,771.6117,769.19415,778.86444,819.15753,815.9341
1694300314.2819998,767.98535,765.9707,778.0586,822.7839,735.34796
1694300314.283,769.19415,763.1502,773.6264,813.5165,765.56775
1694300314.284,780.4762,765.56775,772.8205,801.8315,944.0659
1694300314.2849998,782.8938,768.7912,772.01465,789.34064,934.3956
1694300314.2849998,782.49084,770.80585,769.59705,785.31134,838.0952
1694300314.286,780.87915,770.0,770.0,785.7143,984.35895
1694300314.29,787.326,772.01465,774.0293,802.6374,1280.9158
1694300314.2910001,784.10254,776.4469,770.40295,811.9048,1116.5201
1694300314.2910001,782.49084,777.25275,769.59705,797.8022,827.2161
1694300314.292,776.4469,775.2381,776.8498,801.4286,844.94507
1694300314.292,767.98535,775.2381,776.8498,806.26373,842.1245
1694300314.293,770.0,773.6264,772.01465,791.75824,807.47253
1694300314.315,767.5824,774.83514,771.6117,796.99634,774.0293
1694300314.316,769.19415,777.25275,774.0293,799.41394,828.8278
1694300314.317,771.2088,776.4469,772.4176,806.26373,990.80585
1694300314.317,765.9707,774.0293,771.6117,813.5165,924.7253
1694300314.318,757.50916,774.83514,772.01465,791.75824,764.7619
1694300314.319,755.4945,776.4469,770.80585,789.34064,917.0696
1694300314.319,758.71796,777.6557,772.4176,812.3077,1246.2638
1694300314.32,753.0769,779.2674,772.4176,815.9341,981.53845
1694300314.32,754.68866,780.87915,770.80585,803.44324,745.42126
1694300314.3209999,756.7033,781.685,770.0,792.1612,832.0513
1694300314.3209999,751.8681,778.86444,767.1795,789.34064,835.2747
1694300314.3219998,755.89746,773.22345,765.9707,799.011,799.011
1694300314.3500001,761.53845,772.8205,766.3736,806.26373,813.1135
1694300314.351,764.7619,771.6117,765.9707,806.6667,896.52014
1694300314.351,764.35895,770.40295,766.77655,807.0696,874.35895
1694300314.352,764.35895,771.2088,771.2088,809.0842,786.52014
1694300314.352,763.1502,773.22345,770.80585,809.89014,873.5531
1694300314.353,762.3443,775.2381,767.5824,809.4872,1008.5348
1694300314.3539999,765.9707,773.6264,762.74725,803.0403,948.49817
1694300314.3539999,757.9121,768.3883,761.13556,803.0403,873.1502
1694300314.358,753.8828,767.98535,765.9707,813.91943,777.6557
1694300314.358,751.4652,766.77655,768.3883,820.3663,1016.99634
1694300314.359,742.6007,767.98535,765.9707,812.71063,1049.6337
1694300314.359,745.0183,766.77655,762.3443,787.326,740.58606
1694300314.42,752.27106,764.35895,760.7326,783.69965,828.4249
1694300314.421,751.8681,767.1795,766.3736,796.5934,1026.6666
1694300314.4220002,751.8681,765.56775,769.19415,801.02563,892.49084
1694300314.423,753.47986,764.7619,766.77655,807.0696,802.23444
1694300314.423,754.68866,764.35895,769.59705,805.05493,843.3333
1694300314.424,754.2857,763.5531,770.40295,796.5934,915.4579
1694300314.425,750.2564,765.56775,767.98535,788.5348,905.78754
1694300314.4259999,750.2564,765.16486,765.16486,789.34064,795.38464
1694300314.427,758.71796,766.3736,767.5824,807.8755,942.4542
1694300314.428,753.0769,772.01465,773.22345,819.5604,1208.3883
1694300314.429,747.8388,773.6264,771.6117,804.2491,935.6044
1694300314.429,758.71796,774.83514,768.3883,793.36993,743.8095
1694300314.4659998,763.1502,774.43225,768.7912,786.9231,819.9634
1694300314.468,769.59705,771.6117,773.6264,789.7436,801.4286
1694300314.4689999,773.6264,772.4176,776.04395,797.8022,811.0989
1694300314.4689999,763.5531,773.22345,777.6557,810.293,827.2161
1694300314.47,768.3883,771.2088,773.6264,799.81683,842.52747
1694300314.471,778.46155,771.2088,767.1795,778.86444,914.2491
1694300314.471,780.07324,777.25275,766.3736,780.07324,899.34064
1694300314.472,770.80585,776.8498,767.5824,795.38464,778.0586
1694300314.473,763.95605,775.2381,769.19415,813.5165,1000.07324
1694300314.473,770.80585,778.86444,770.80585,808.68134,959.7802
1694300314.4780002,773.22345,779.67035,770.0,792.96704,713.5897
1694300314.4780002,769.19415,778.0586,769.19415,793.7729,863.8828
1694300314.5059998,773.6264,780.87915,772.4176,811.50183,1186.227
1694300314.507,774.83514,780.87915,770.80585,807.0696,1002.49084
1694300314.508,777.25275,777.6557,767.5824,792.96704,756.7033
1694300314.508,783.69965,775.2381,770.40295,789.34064,779.67035
1694300314.5089998,780.4762,775.2381,770.40295,792.5641,776.8498
1694300314.5100002,782.49084,778.0586,772.8205,806.6667,834.87177
1694300314.5100002,786.52014,780.4762,774.0293,807.47253,805.05493
1694300314.5110002,780.87915,776.8498,770.80585,797.8022,856.2271
1694300314.5110002,779.67035,777.6557,772.01465,802.23444,1085.0916
1694300314.512,785.7143,778.46155,770.80585,798.60803,864.2857
1694300314.512,795.38464,775.64105,766.77655,795.38464,793.36993
1694300314.513,791.75824,771.6117,767.5824,803.0403,871.53845
1694300314.5470002,784.5055,766.3736,767.5824,807.8755,848.1685
1694300314.5470002,786.9231,763.95605,765.9707,808.68134,856.2271
1694300314.548,788.5348,765.56775,770.0,810.293,841.7216
1694300314.549,785.31134,766.77655,768.3883,807.8755,949.304
1694300314.549,781.28204,767.1795,761.9414,782.8938,907.3993
1694300314.5500002,782.8938,770.80585,761.53845,778.46155,896.9231
1694300314.5500002,778.0586,772.4176,759.5238,793.36993,952.52747
1694300314.551,771.2088,774.43225,759.92676,803.8461,1149.1575
1694300314.551,767.1795,774.0293,759.12085,807.47253,1197.1062
1694300314.552,763.95605,769.19415,757.1062,785.7143,858.6447
1694300314.553,762.74725,772.4176,762.3443,784.5055,746.63007
1694300314.553,767.5824,772.8205,763.5531,798.20514,813.5165
1694300314.6230001,770.80585,768.7912,762.74725,806.6667,846.9597
1694300314.625,771.6117,770.40295,765.9707,806.6667,760.7326
1694300314.625,774.0293,772.4176,766.77655,802.6374,785.31134
1694300314.626,773.22345,774.83514,768.3883,805.05493,965.82416
1694300314.627,773.22345,776.04395,766.3736,801.02563,896.1172
1694300314.628,770.80585,775.64105,764.7619,797.8022,868.315
1694300314.629,769.59705,773.22345,766.77655,807.47253,974.2857
1694300314.63,768.7912,773.22345,767.98535,828.022,1190.6593
1694300314.631,772.8205,774.43225,767.1795,826.8132,1004.90845
1694300314.632,772.8205,775.64105,767.5824,809.89014,790.14655
1694300314.633,774.0293,778.86444,767.1795,794.57874,890.07324
1694300314.6339998,780.4762,781.28204,773.22345,797.3993,892.8938
1694300314.666,779.67035,780.87915,774.83514,808.68134,817.5458
1694300314.667,774.83514,779.67035,770.40295,805.8608,828.8278
1694300314.667,764.35895,778.46155,767.5824,808.2784,873.95605
1694300314.668,763.5531,780.07324,767.1795,830.4396,809.89014
1694300314.669,766.3736,780.4762,762.74725,832.8571,796.1905
1694300314.669,763.95605,778.86444,761.9414,815.12823,933.1868
1694300314.67,765.9707,780.4762,763.95605,807.8755,1151.1721
1694300314.67,770.0,787.326,767.5824,818.3516,1021.8315
1694300314.671,767.5824,787.72894,767.98535,811.0989,811.9048
1694300314.672,770.40295,779.67035,763.1502,802.6374,883.22345
1694300314.6729999,777.25275,777.25275,763.5531,811.9048,1053.2601
1694300314.6729999,780.4762,780.07324,763.95605,804.2491,917.8755
1694300314.708,782.8938,781.28204,765.9707,813.5165,794.57874
1694300314.7089999,778.86444,779.67035,764.7619,827.619,838.0952
1694300314.7129998,779.2674,776.4469,757.50916,814.3223,959.7802
1694300314.714,784.5055,774.83514,756.30035,798.60803,886.8498
1694300314.714,792.1612,782.49084,759.92676,800.2198,785.7143
1694300314.7150002,782.8938,784.90845,763.95605,810.696,844.5421
1694300314.7150002,774.0293,781.28204,765.9707,813.1135,921.0989
1694300314.716,772.4176,780.07324,763.5531,816.7399,839.304
1694300314.717,764.35895,776.8498,762.3443,818.3516,772.8205
1694300314.7180002,767.1795,776.8498,764.35895,817.1429,1001.685
1694300314.719,765.56775,774.0293,765.9707,832.8571,1202.3444
1694300314.72,751.06226,766.3736,761.9414,830.4396,898.93774
1694300314.7510002,756.30035,770.0,760.32965,809.89014,726.08057
1694300314.752,766.77655,779.2674,762.74725,802.6374,809.0842
1694300314.753,761.13556,779.2674,757.50916,798.60803,785.7143
1694300314.753,757.1062,775.2381,755.4945,799.81683,718.022
1694300314.754,759.92676,772.8205,758.71796,805.05493,770.40295
1694300314.754,758.315,770.80585,759.5238,807.47253,936.8132
1694300314.755,759.12085,769.59705,758.315,796.99634,886.4469
1694300314.755,757.1062,770.0,753.0769,777.25275,770.0
1694300314.756,763.95605,772.4176,753.47986,776.04395,765.16486
1694300314.756,764.7619,771.6117,757.1062,800.2198,994.43225
1694300314.757,760.32965,771.2088,755.89746,797.3993,934.7985
1694300314.757,763.95605,774.43225,755.89746,791.3553,742.6007
1694300314.8270001,758.71796,770.40295,757.1062,803.44324,864.2857
1694300314.829,753.47986,767.5824,757.1062,840.10986,1126.9963
1694300314.829,756.30035,769.19415,760.7326,852.1978,988.3883
1694300314.8300002,756.7033,769.19415,758.315,821.1722,815.5311
1694300314.835,761.13556,770.80585,753.0769,817.1429,862.674
1694300314.836,772.4176,774.0293,757.9121,824.3956,866.7033
1694300314.836,777.6557,771.6117,761.53845,826.8132,921.9048
1694300314.837,771.2088,767.1795,760.32965,824.3956,865.4945
1694300314.838,769.19415,768.3883,760.32965,827.619,898.1319
1694300314.838,764.35895,770.0,761.13556,836.4835,1118.5348
1694300314.839,762.3443,771.6117,763.1502,828.8278,921.0989
1694300314.839,768.3883,774.83514,760.32965,823.1868,809.0842
1694300314.8769999,764.7619,774.43225,756.30035,823.9927,857.03296
1694300314.878,761.13556,773.22345,761.53845,829.6337,842.1245
1694300314.878,771.2088,772.01465,762.3443,835.2747,855.82416
1694300314.879,776.8498,772.4176,764.35895,832.8571,891.685
1694300314.879,775.64105,773.22345,765.9707,824.3956,1039.9634
1694300314.88,772.4176,778.46155,763.1502,818.7546,1046.8132
1694300314.881,762.74725,777.25275,762.74725,828.8278,872.3443
1694300314.881,766.3736,774.0293,766.77655,831.2454,850.989
1694300314.882,774.43225,774.0293,769.59705,826.0073,1016.1905
1694300314.8830001,765.56775,770.40295,771.2088,820.3663,877.5824
1694300314.8830001,758.315,768.3883,768.7912,820.3663,703.1135
1694300314.884,759.12085,766.77655,762.74725,833.2601,844.94507
1694300314.885,763.95605,771.2088,760.32965,817.1429,1082.674
1694300314.8860002,765.9707,775.64105,765.9707,817.9487,985.16486
1694300314.8860002,763.1502,770.40295,769.59705,831.6484,816.7399
1694300314.887,762.74725,770.0,767.5824,822.7839,853.00366
1694300314.887,766.3736,772.01465,767.1795,829.2308,1060.9158
1694300314.888,768.7912,773.6264,767.1795,817.1429,984.35895
1694300314.892,762.3443,777.25275,763.95605,818.3516,819.5604
1694300314.892,760.7326,772.4176,761.9414,831.6484,950.9158
1694300314.893,769.59705,776.04395,766.77655,842.52747,1210.8059
1694300314.893,792.1612,794.57874,784.90845,850.989,950.5128
1694300314.894,810.696,808.2784,798.60803,847.3626,733.3333
1694300314.894,814.3223,812.71063,805.4579,848.5714,806.26373
1694300314.926,817.9487,814.7253,808.68134,852.1978,805.05493
1694300314.927,813.91943,814.7253,808.2784,857.4359,775.64105
1694300314.927,818.3516,818.3516,809.0842,862.27106,801.4286
1694300314.928,815.5311,814.7253,807.47253,857.4359,850.18317
1694300314.928,805.4579,809.4872,803.8461,848.97437,803.0403
1694300314.929,809.89014,809.89014,801.02563,844.94507,823.5897
1694300314.9299998,809.0842,809.0842,801.4286,849.3773,936.8132
1694300314.9299998,801.8315,805.4579,801.02563,855.42126,1189.0476
1694300314.931,800.2198,805.05493,799.81683,859.45056,1151.978
1694300314.931,801.4286,798.60803,795.38464,839.304,796.1905
1694300314.932,800.2198,795.38464,794.17584,832.4542,749.0476
1694300314.932,792.1612,796.99634,795.78754,845.34796,813.1135
1694300314.967,786.9231,794.17584,793.36993,847.76556,854.21246
1694300314.967,788.1319,792.5641,790.54944,843.3333,815.12823
1694300314.968,785.31134,789.7436,790.14655,836.8865,841.31866
1694300314.9689999,784.10254,786.1172,789.34064,843.73627,1005.31134
1694300314.9689999,788.5348,786.1172,782.8938,842.52747,876.77655
1694300314.9699998,786.52014,785.31134,778.86444,823.9927,773.22345
1694300314.9699998,775.64105,780.4762,778.46155,827.2161,909.011
1694300314.971,777.25275,776.4469,778.0586,834.87177,1098.3883
1694300314.9740002,787.326,778.46155,780.07324,829.2308,892.8938
1694300314.9750001,779.2674,779.2674,781.28204,830.4396,745.82416
1694300314.9750001,783.69965,778.46155,779.2674,828.8278,839.707
1694300314.976,790.9524,780.4762,780.07324,832.8571,849.3773
1694300315.035,788.1319,778.86444,780.4762,830.84247,793.7729
1694300315.036,792.1612,777.25275,778.86444,834.0659,783.2967
1694300315.036,791.75824,779.67035,776.04395,830.0366,838.49817
1694300315.037,784.90845,780.87915,770.80585,811.9048,794.9817
1694300315.038,783.69965,781.685,766.3736,810.293,750.65936
1694300315.04,777.6557,785.7143,763.5531,811.0989,866.30035
1694300315.041,782.49084,786.52014,761.53845,820.7692,1147.9487
1694300315.0419998,795.78754,786.9231,759.12085,823.9927,1065.348
1694300315.0419998,789.7436,785.31134,758.315,822.381,826.0073
1694300315.043,780.07324,786.1172,761.13556,828.8278,833.2601
1694300315.044,781.685,784.10254,761.9414,819.5604,840.10986
1694300315.0449998,787.72894,781.685,761.53845,810.293,845.7509
1694300315.068,787.326,782.0879,764.35895,814.3223,837.6923
1694300315.069,786.52014,781.28204,764.35895,820.3663,875.56775
1694300315.069,783.2967,777.25275,761.9414,819.5604,1151.1721
1694300315.0700002,771.2088,774.0293,761.13556,802.6374,995.64105
1694300315.071,772.8205,773.22345,757.9121,794.57874,760.7326
1694300315.071,774.43225,775.64105,759.5238,811.0989,872.3443
1694300315.072,768.3883,774.83514,763.95605,815.12823,963.4066
1694300315.072,769.59705,771.2088,761.13556,817.5458,856.63007
1694300315.073,772.8205,772.8205,760.32965,823.9927,771.6117
1694300315.074,773.22345,772.4176,761.13556,809.4872,894.10254
1694300315.078,772.01465,772.8205,760.7326,792.5641,957.76556
1694300315.079,769.19415,775.2381,762.3443,791.3553,778.0586
1694300315.112,767.5824,771.2088,763.95605,794.57874,727.6923
1694300315.113,764.35895,771.6117,764.35895,794.17584,817.9487
1694300315.113,763.5531,772.01465,761.53845,808.68134,826.8132
1694300315.1139998,763.1502,764.7619,758.71796,813.5165,849.7802
1694300315.115,760.32965,766.77655,757.50916,806.26373,836.8865
1694300315.115,762.74725,769.59705,755.09155,809.4872,1056.8865
1694300315.116,770.40295,765.56775,756.30035,799.011,1125.3846
1694300315.116,772.8205,767.1795,757.50916,788.93774,806.6667
1694300315.1169999,765.9707,769.19415,755.09155,786.1172,788.1319
1694300315.118,765.16486,772.01465,754.68866,783.69965,972.674
1694300315.118,770.0,773.22345,754.2857,796.5934,830.84247
1694300315.119,774.43225,770.0,751.8681,792.5641,729.304
1694300315.145,772.01465,772.01465,751.4652,774.43225,878.3883
1694300315.146,774.83514,773.22345,755.89746,782.49084,888.0586
1694300315.146,781.28204,774.43225,756.7033,791.3553,809.89014
1694300315.147,783.69965,774.83514,755.09155,786.1172,749.45056
1694300315.147,783.2967,777.25275,758.71796,785.7143,847.3626
1694300315.148,774.83514,779.2674,763.5531,792.96704,1104.0293
1694300315.148,772.01465,777.6557,763.5531,794.9817,1008.93774
1694300315.149,774.43225,776.8498,759.92676,792.1612,781.685
1694300315.149,764.7619,773.22345,757.9121,786.52014,860.2564
1694300315.15,762.74725,768.3883,757.1062,792.1612,1106.4469
1694300315.15,766.3736,770.0,755.09155,794.17584,904.9817
1694300315.151,771.2088,774.83514,759.12085,790.14655,763.95605
1694300315.236,774.0293,776.4469,763.5531,788.1319,885.2381
1694300315.237,776.4469,775.64105,762.74725,787.326,839.304
1694300315.237,779.2674,775.2381,761.9414,783.69965,747.8388
1694300315.2380002,771.6117,772.4176,758.315,793.36993,796.5934
1694300315.2380002,772.4176,767.5824,755.09155,791.3553,876.77655
1694300315.239,779.2674,766.77655,756.7033,770.80585,879.19415
1694300315.24,774.43225,766.77655,757.9121,759.5238,905.38464
1694300315.24,774.83514,771.2088,759.5238,758.71796,847.76556
1694300315.241,772.8205,769.19415,762.74725,768.3883,1111.2821
1694300315.241,769.19415,768.7912,762.74725,763.1502,1200.7325
1694300315.2419999,776.8498,773.22345,763.95605,757.50916,846.1539
1694300315.243,776.4469,770.40295,762.74725,756.7033,857.8388
1694300315.269,772.01465,767.98535,760.7326,762.74725,1024.652
1694300315.2700002,765.9707,767.5824,755.89746,761.9414,884.43225
1694300315.2710001,765.9707,765.9707,755.09155,762.74725,757.50916
1694300315.272,777.6557,767.5824,760.7326,758.315,843.3333
1694300315.273,777.25275,768.3883,760.32965,742.6007,977.9121
1694300315.273,767.1795,767.98535,757.50916,753.0769,956.1539
1694300315.274,767.1795,769.59705,756.30035,772.01465,854.21246
1694300315.275,755.4945,770.40295,758.315,772.01465,880.40295
1694300315.275,741.79486,773.22345,761.53845,771.6117,1067.3627
1694300315.276,750.2564,773.22345,757.9121,772.8205,861.8681
1694300315.277,757.9121,770.0,754.2857,760.7326,730.9158
1694300315.277,758.71796,769.19415,755.89746,756.7033,889.2674
1694300315.323,769.19415,768.7912,762.3443,774.0293,837.6923
1694300315.324,773.6264,774.43225,765.56775,784.90845,728.9011
1694300315.329,777.6557,776.8498,765.16486,792.1612,774.0293
1694300315.33,790.9524,778.86444,769.19415,806.6667,879.19415
1694300315.331,780.87915,780.07324,769.19415,800.6227,860.65936
1694300315.332,766.3736,778.0586,768.7912,794.9817,836.4835
1694300315.332,774.83514,780.07324,770.40295,801.8315,956.9597
1694300315.333,783.2967,782.49084,766.77655,803.8461,1106.044
1694300315.334,779.67035,781.685,767.5824,802.6374,946.08057
1694300315.335,774.83514,780.87915,769.19415,800.6227,770.0
1694300315.335,778.0586,781.28204,768.7912,806.26373,784.90845
1694300315.336,786.1172,779.2674,769.59705,807.8755,807.0696
1694300315.3969998,784.5055,779.2674,773.22345,798.20514,844.5421
1694300315.3980002,784.90845,779.67035,775.64105,791.75824,801.8315
1694300315.3990002,788.93774,781.685,774.83514,791.75824,897.72894
1694300315.4,788.93774,784.10254,771.6117,792.5641,1154.7986
1694300315.4,784.5055,782.49084,768.7912,782.49084,987.98535
1694300315.401,786.9231,779.2674,769.19415,780.87915,792.1612
