timestamp,RAW_TP9,RAW_AF7,RAW_AF8,RAW_TP10,AUX_RIGHT
1694132406.56,813.1135,814.7253,799.81683,792.5641,653.95605
1694132406.5609999,808.2784,802.23444,798.20514,796.99634,643.8828
1694132406.5609999,794.9817,803.44324,796.5934,802.6374,747.8388
1694132406.5619998,794.57874,815.12823,793.36993,801.02563,788.93774
1694132406.5619998,796.1905,802.6374,794.17584,798.60803,768.3883
1694132406.563,801.4286,782.8938,795.38464,791.3553,738.5714
1694132406.563,805.4579,776.04395,795.78754,789.7436,975.09155
1694132406.564,796.5934,800.2198,791.75824,797.8022,1054.0659
1694132406.5670002,798.60803,814.7253,795.38464,808.2784,851.39197
1694132406.5670002,805.4579,799.011,799.011,807.0696,774.0293
1694132406.568,800.2198,776.04395,792.1612,790.54944,947.28937
1694132406.569,791.75824,801.4286,788.5348,779.67035,871.9414
1694132406.6,790.54944,820.7692,789.34064,780.4762,618.9011
1694132406.6009998,791.3553,790.14655,791.75824,793.7729,747.8388
1694132406.6009998,793.7729,793.36993,792.5641,796.5934,816.337
1694132406.6019998,798.60803,815.9341,793.36993,782.0879,694.2491
1694132406.6019998,800.2198,805.05493,796.99634,779.67035,627.76556
1694132406.6019998,800.6227,786.1172,799.41394,794.17584,811.0989
1694132406.6030002,795.78754,790.9524,799.011,798.20514,917.0696
1694132406.604,794.9817,809.4872,800.2198,801.8315,796.5934
1694132406.605,791.75824,814.7253,798.60803,791.3553,670.07324
1694132406.605,790.14655,775.64105,799.81683,786.52014,777.6557
1694132406.6060002,795.38464,776.4469,801.8315,801.8315,921.50183
1694132406.6060002,798.20514,822.7839,800.6227,805.8608,766.3736
1694132406.648,792.1612,809.0842,804.65204,799.011,730.9158
1694132406.648,788.1319,782.8938,801.8315,794.17584,799.81683
1694132406.649,792.5641,794.9817,799.81683,789.7436,763.5531
1694132406.6499999,792.5641,806.6667,808.68134,791.3553,676.52014
1694132406.6499999,790.54944,792.96704,808.68134,805.05493,683.7729
1694132406.651,788.93774,781.685,805.8608,803.0403,850.18317
1694132406.652,785.7143,793.7729,801.8315,787.326,823.9927
1694132406.652,788.1319,796.1905,797.8022,784.5055,697.0696
1694132406.6529999,788.5348,794.57874,799.011,791.75824,686.1905
1694132406.654,787.326,770.80585,796.1905,805.05493,997.25275
1694132406.656,791.75824,797.8022,800.6227,815.12823,1100.403
1694132406.6569998,794.9817,836.8865,801.4286,799.41394,725.6777
1694132406.6790001,790.9524,801.4286,792.5641,782.49084,721.2454
1694132406.68,793.36993,789.7436,794.57874,782.8938,770.0
1694132406.68,800.2198,807.47253,802.23444,799.011,706.7399
1694132406.681,799.41394,811.50183,804.2491,806.6667,703.91943
1694132406.681,797.3993,780.07324,802.23444,801.02563,810.696
1694132406.682,808.68134,779.67035,801.4286,786.9231,915.8608
1694132406.682,814.3223,813.5165,803.0403,780.87915,837.28937
1694132406.683,801.8315,817.5458,802.23444,788.5348,711.978
1694132406.683,794.9817,780.4762,795.38464,798.20514,866.30035
1694132406.684,796.5934,776.8498,792.5641,800.6227,1023.8461
1694132406.684,801.02563,820.3663,792.5641,787.326,709.5604
1694132406.684,799.81683,801.02563,792.96704,786.9231,593.1135
1694132406.714,787.326,789.34064,795.38464,793.36993,701.50183
1694132406.7150002,790.54944,799.011,795.78754,799.81683,757.1062
1694132406.7150002,799.41394,798.60803,800.6227,800.6227,712.381
1694132406.7150002,789.34064,782.0879,799.41394,788.1319,688.20514
1694132406.716,794.9817,782.0879,797.8022,788.5348,753.0769
1694132406.716,801.02563,794.9817,802.6374,794.17584,806.26373
1694132406.716,793.7729,792.96704,804.2491,792.5641,766.3736
1694132406.717,790.9524,783.2967,804.65204,790.9524,809.89014
1694132406.717,794.57874,793.36993,804.65204,780.07324,867.50916
1694132406.7180002,802.23444,815.12823,805.4579,775.2381,729.707
1694132406.7180002,805.4579,815.5311,803.8461,789.7436,693.0403
1694132406.719,802.6374,796.99634,801.4286,802.23444,764.7619
1694132406.748,805.05493,755.89746,800.6227,809.4872,1073.8096
1694132406.7489998,804.2491,796.5934,803.0403,803.0403,1100.403
1694132406.7500002,801.8315,838.9011,804.65204,792.1612,728.49817
1694132406.7510002,809.89014,803.8461,802.6374,796.99634,699.0842
1694132406.7510002,810.696,799.41394,805.4579,808.2784,780.07324
1694132406.752,808.2784,803.0403,806.26373,809.4872,823.9927
1694132406.752,806.6667,803.0403,802.6374,796.5934,717.619
1694132406.753,807.0696,785.31134,802.6374,788.1319,826.8132
1694132406.753,803.8461,765.9707,801.4286,803.8461,1175.348
1694132406.754,798.60803,813.5165,801.8315,811.0989,949.707
1694132406.755,799.41394,818.3516,804.2491,796.1905,673.69965
1694132406.755,801.8315,794.57874,802.6374,784.5055,686.1905
1694132406.797,802.6374,806.6667,803.8461,789.34064,670.87915
1694132406.797,801.8315,804.65204,807.0696,799.011,658.7912
1694132406.798,806.26373,791.75824,808.2784,814.7253,713.5897
1694132406.798,809.89014,792.5641,805.05493,818.7546,785.7143
1694132406.798,805.4579,801.4286,806.26373,809.89014,770.40295
1694132406.799,807.0696,786.9231,805.4579,803.8461,735.7509
1694132406.8,803.0403,785.31134,805.8608,801.8315,699.89014
1694132406.8009999,788.5348,761.9414,808.68134,818.3516,1069.7803
1694132406.8009999,784.5055,773.6264,805.8608,820.3663,1230.9524
1694132406.8019998,794.57874,820.3663,801.8315,805.4579,775.64105
1694132406.803,802.6374,797.3993,804.65204,808.68134,674.5055
1694132406.804,803.8461,785.7143,806.26373,806.26373,763.1502
1694132406.856,799.81683,803.8461,803.8461,807.8755,714.7985
1694132406.8569999,793.7729,802.6374,806.6667,812.71063,689.011
1694132406.86,796.1905,774.83514,804.2491,804.65204,795.78754
1694132406.8609998,801.4286,773.22345,801.8315,792.5641,813.1135
1694132406.8620002,806.26373,799.41394,803.0403,792.5641,666.8498
1694132406.8620002,815.12823,785.7143,806.26373,802.23444,763.95605
1694132406.8630002,809.89014,760.32965,808.2784,806.26373,1023.8461
1694132406.864,798.60803,776.04395,805.05493,805.8608,1096.7766
1694132406.864,796.5934,821.5751,805.8608,786.52014,763.95605
1694132406.864,795.78754,804.65204,803.8461,776.4469,655.56775
1694132406.865,790.14655,788.1319,800.6227,782.49084,758.71796
1694132406.865,785.31134,787.72894,803.0403,792.1612,807.0696
1694132406.8990002,792.96704,794.57874,805.4579,793.36993,799.81683
1694132406.9,796.5934,795.78754,803.0403,790.54944,707.5458
1694132406.9,788.93774,786.1172,799.41394,788.1319,751.06226
1694132406.901,786.1172,798.20514,798.60803,794.17584,796.5934
1694132406.901,786.1172,794.9817,798.60803,813.1135,694.65204
1694132406.9020002,786.9231,780.07324,801.4286,809.0842,780.4762
1694132406.9020002,796.5934,770.0,801.4286,799.81683,1071.7949
1694132406.903,802.6374,787.72894,800.2198,796.1905,960.18317
1694132406.903,784.90845,815.5311,801.02563,792.96704,705.5311
1694132406.903,782.0879,798.60803,802.23444,799.41394,723.663
1694132406.904,789.7436,775.2381,803.8461,803.0403,898.93774
1694132406.905,789.34064,806.26373,801.8315,784.5055,807.8755
1694132406.932,792.96704,810.293,800.2198,780.87915,614.0659
1694132406.9329998,789.7436,780.4762,795.78754,788.1319,709.9634
1694132406.9329998,784.5055,774.43225,793.36993,791.3553,844.94507
1694132406.9329998,784.90845,796.1905,797.3993,794.17584,794.57874
1694132406.936,790.14655,804.65204,797.8022,782.8938,667.25275
1694132406.936,794.57874,766.77655,798.20514,775.64105,833.2601
1694132406.937,793.7729,764.7619,803.8461,784.90845,1155.2014
1694132406.938,786.52014,823.1868,801.8315,789.34064,933.9927
1694132406.938,788.1319,812.71063,795.78754,785.31134,696.26373
1694132406.9390001,798.60803,792.96704,799.011,781.685,760.32965
1694132406.9390001,799.41394,800.6227,800.2198,780.4762,728.9011
1694132406.94,791.3553,799.41394,797.3993,789.7436,705.9341
1694132407.017,790.14655,792.96704,801.02563,797.3993,698.2784
1694132407.017,785.7143,790.14655,800.6227,799.41394,738.1685
1694132407.018,777.6557,800.2198,792.96704,790.54944,725.6777
1694132407.018,784.90845,795.38464,790.9524,785.31134,646.7033
1694132407.018,790.54944,783.2967,792.96704,797.3993,715.2015
1694132407.019,792.5641,775.64105,792.5641,809.0842,787.72894
1694132407.019,795.38464,786.52014,792.5641,811.0989,797.3993
1694132407.02,793.7729,793.36993,797.3993,805.4579,721.2454
1694132407.02,792.1612,791.3553,795.38464,794.57874,670.4762
1694132407.02,788.5348,761.53845,790.54944,805.4579,987.5824
1694132407.021,792.5641,784.10254,795.38464,821.1722,1129.414
1694132407.022,795.78754,832.0513,797.3993,810.696,818.3516
1694132407.049,794.9817,799.41394,796.5934,796.1905,705.12823
1694132407.05,797.8022,792.96704,799.011,787.326,714.3956
1694132407.05,795.78754,808.2784,799.41394,790.54944,618.49817
1694132407.051,797.3993,805.4579,797.3993,800.6227,647.1062
1694132407.051,792.96704,788.1319,792.5641,805.8608,796.99634
1694132407.052,787.326,779.2674,791.3553,790.14655,888.0586
1694132407.055,792.1612,788.93774,794.9817,772.01465,865.89746
1694132407.055,799.011,796.99634,794.9817,778.86444,732.1245
1694132407.056,795.38464,769.19415,794.57874,797.3993,876.77655
1694132407.057,784.5055,760.7326,793.7729,811.50183,1153.9927
1694132407.057,788.93774,814.7253,790.14655,797.8022,887.6557
1694132407.0579998,792.96704,804.2491,790.9524,776.04395,646.30035
1694132407.105,782.8938,785.31134,791.75824,778.46155,682.5641
1694132407.106,782.8938,797.8022,788.5348,785.7143,712.7839
1694132407.107,781.685,793.7729,785.7143,788.5348,767.98535
1694132407.107,777.6557,781.28204,784.5055,792.5641,791.3553
1694132407.108,779.2674,779.67035,784.10254,782.49084,768.3883
1694132407.108,780.87915,787.326,785.31134,780.07324,799.41394
1694132407.109,788.5348,786.9231,782.8938,792.1612,779.2674
1694132407.109,786.1172,783.69965,783.69965,791.3553,760.32965
1694132407.109,785.7143,763.95605,787.326,794.17584,1083.0769
1694132407.1100001,803.8461,791.3553,788.1319,793.7729,1125.7876
1694132407.1100001,807.8755,825.6044,790.9524,775.64105,697.8755
1694132407.111,799.011,797.8022,791.75824,774.83514,672.0879
1694132407.1369998,790.9524,796.5934,791.75824,791.3553,850.989
1694132407.1379998,785.31134,819.5604,795.78754,794.9817,769.19415
1694132407.1390002,788.5348,810.293,796.5934,786.1172,680.54944
1694132407.1390002,796.1905,797.8022,793.36993,785.31134,697.8755
1694132407.14,798.60803,803.0403,794.17584,798.20514,721.6484
1694132407.14,800.6227,802.6374,794.57874,804.65204,856.63007
1694132407.141,801.02563,801.02563,793.36993,796.99634,856.63007
1694132407.141,793.7729,775.2381,792.1612,797.3993,869.92676
1694132407.145,788.93774,784.10254,788.1319,797.3993,999.67035
1694132407.145,788.1319,826.4103,785.31134,784.90845,796.1905
1694132407.146,786.1172,801.02563,785.31134,789.7436,740.58606
1694132407.146,790.54944,786.1172,788.5348,799.011,775.64105
1694132407.19,795.38464,790.54944,790.14655,790.14655,772.4176
1694132407.191,789.7436,796.5934,789.34064,782.8938,744.21246
1694132407.192,785.31134,796.99634,790.9524,786.52014,677.72894
1694132407.192,791.75824,789.34064,794.9817,804.65204,810.696
1694132407.1929998,794.57874,801.4286,795.78754,806.6667,876.77655
1694132407.1939998,791.75824,798.60803,796.1905,790.14655,814.3223
1694132407.1939998,789.34064,797.8022,801.4286,788.1319,795.38464
1694132407.1950002,790.14655,798.20514,806.6667,792.1612,848.97437
1694132407.1950002,797.3993,814.7253,808.68134,804.65204,840.9158
1694132407.196,798.60803,825.6044,806.6667,811.0989,757.9121
1694132407.196,793.7729,806.6667,808.2784,799.41394,732.9304
1694132407.197,789.34064,768.7912,811.9048,792.96704,1048.022
1694132407.2259998,788.1319,799.011,807.47253,792.96704,1128.2051
1694132407.227,790.14655,842.9304,809.4872,792.1612,753.47986
1694132407.227,798.20514,811.0989,816.7399,804.2491,743.8095
1694132407.228,799.81683,796.1905,814.7253,806.6667,814.7253
1694132407.2289999,796.99634,805.05493,808.2784,792.96704,695.05493
1694132407.2289999,798.60803,799.81683,808.2784,784.10254,655.16486
1694132407.2289999,801.02563,778.86444,805.8608,797.8022,897.326
1694132407.23,799.81683,789.7436,801.8315,809.4872,1029.0842
1694132407.231,795.78754,826.0073,803.44324,797.3993,772.8205
1694132407.231,791.75824,815.5311,803.8461,785.31134,621.7216
1694132407.2350001,786.9231,776.04395,798.60803,790.14655,817.1429
1694132407.236,786.9231,787.72894,801.02563,804.2491,951.31866
1694132407.295,788.5348,826.0073,802.6374,800.6227,741.39197
1694132407.296,790.54944,803.44324,800.6227,794.57874,683.36993
1694132407.297,796.99634,794.57874,802.23444,795.38464,665.2381
1694132407.2979999,801.4286,809.89014,797.8022,789.7436,662.8205
1694132407.2979999,791.75824,802.6374,798.60803,791.75824,657.1795
1694132407.299,782.49084,783.69965,801.4286,802.23444,701.9048
1694132407.3,785.31134,775.64105,797.8022,797.8022,1021.4286
1694132407.3,792.1612,795.78754,796.5934,784.5055,965.82416
1694132407.3009999,802.23444,809.4872,796.1905,774.83514,692.23444
1694132407.302,803.44324,799.81683,798.20514,783.2967,710.3663
1694132407.302,797.8022,774.43225,799.41394,811.9048,1024.249
1694132407.303,794.17584,803.8461,795.78754,812.3077,1012.5641
1694132407.3539999,801.02563,833.2601,796.5934,789.34064,634.61536
1694132407.3539999,800.2198,801.02563,800.6227,788.1319,637.4359
1694132407.355,788.5348,796.99634,803.0403,799.011,672.49084
1694132407.356,779.67035,809.0842,805.05493,807.47253,682.5641
1694132407.3569999,788.5348,807.0696,809.4872,806.26373,657.98535
1694132407.3569999,801.02563,774.83514,810.696,804.2491,864.2857
1694132407.358,797.3993,784.10254,809.89014,797.3993,1037.9487
1694132407.359,789.7436,829.6337,809.4872,801.4286,773.22345
1694132407.359,790.14655,805.4579,808.68134,814.3223,708.3516
1694132407.36,797.3993,787.72894,811.0989,809.89014,870.32965
1694132407.36,799.41394,809.4872,814.3223,803.8461,821.1722
1694132407.3609998,796.5934,816.337,817.1429,801.4286,680.9524
1694132407.403,801.8315,806.26373,815.9341,800.2198,654.7619
1694132407.404,800.2198,776.04395,810.293,811.50183,897.326
1694132407.404,790.54944,794.57874,803.0403,811.0989,1034.3224
1694132407.405,792.96704,822.381,800.2198,790.54944,751.06226
1694132407.405,795.78754,794.17584,799.81683,784.10254,688.20514
1694132407.4060001,800.6227,784.90845,799.81683,790.54944,832.4542
1694132407.4060001,806.26373,800.6227,803.0403,796.1905,824.7985
1694132407.407,797.3993,802.6374,803.44324,795.38464,778.46155
1694132407.407,785.31134,796.5934,800.2198,783.69965,731.31866
1694132407.407,786.52014,769.19415,796.5934,781.685,943.663
1694132407.408,790.54944,786.52014,797.8022,795.38464,1010.14655
1694132407.408,781.685,814.3223,796.99634,792.96704,779.67035
1694132407.409,778.86444,786.1172,794.17584,792.96704,875.56775
1694132407.4099998,785.7143,785.7143,794.57874,795.38464,919.89014
1694132407.4099998,789.7436,818.3516,794.57874,778.0586,740.989
1694132407.4099998,788.5348,813.91943,789.7436,773.6264,645.4945
1694132407.411,788.5348,790.14655,788.5348,784.10254,731.7216
1694132407.411,788.5348,789.34064,790.9524,788.93774,805.4579
1694132407.412,784.90845,803.0403,796.99634,790.54944,871.13556
1694132407.412,788.5348,811.0989,800.6227,788.1319,788.93774
1694132407.4129999,798.60803,772.8205,798.20514,790.14655,856.63007
1694132407.4129999,805.8608,774.0293,796.5934,796.1905,1065.751
1694132407.4129999,801.4286,821.1722,794.57874,798.60803,848.1685
1694132407.414,790.9524,800.6227,793.36993,801.8315,745.42126
1694132407.46,794.57874,784.90845,795.78754,794.57874,749.85345
1694132407.46,798.20514,789.34064,798.20514,782.0879,659.19415
1694132407.464,797.3993,796.1905,797.3993,785.7143,668.0586
1694132407.464,791.75824,789.7436,796.1905,796.1905,711.978
1694132407.465,788.5348,771.6117,792.96704,799.41394,775.2381
1694132407.465,795.38464,785.31134,789.34064,787.326,804.65204
1694132407.4659998,792.5641,793.7729,788.1319,774.83514,693.8461
1694132407.4659998,784.90845,794.9817,788.1319,784.10254,636.2271
1694132407.467,788.1319,774.43225,792.96704,813.5165,957.76556
1694132407.467,789.7436,797.8022,793.36993,812.3077,1057.6923
1694132407.468,785.31134,828.8278,788.5348,782.49084,711.5751
1694132407.468,791.3553,792.5641,793.7729,780.87915,716.0073
1694132407.4899998,790.14655,790.14655,793.36993,789.34064,823.9927
1694132407.4910002,787.72894,811.9048,788.1319,792.1612,772.01465
1694132407.492,790.54944,805.4579,790.14655,800.2198,759.5238
1694132407.492,786.1172,787.72894,789.7436,794.9817,761.53845
1694132407.493,789.7436,785.7143,786.52014,788.1319,729.304
1694132407.493,789.34064,796.1905,784.5055,792.5641,705.12823
1694132407.4940002,788.93774,803.0403,787.326,794.9817,743.00366
1694132407.4950001,793.7729,780.07324,788.5348,795.78754,944.0659
1694132407.497,797.8022,767.98535,790.9524,805.05493,1152.7839
1694132407.497,799.011,821.978,792.96704,800.6227,904.9817
1694132407.498,798.20514,823.1868,793.36993,787.72894,709.15753
1694132407.499,795.78754,798.60803,795.78754,796.5934,770.80585
1694132407.535,784.5055,804.65204,792.96704,801.8315,777.6557
1694132407.536,795.38464,807.47253,796.99634,802.23444,753.8828
1694132407.537,813.91943,791.75824,799.81683,792.1612,718.4249
1694132407.5379999,812.71063,788.1319,794.9817,787.72894,720.0366
1694132407.542,799.41394,795.78754,794.9817,799.41394,754.68866
1694132407.543,784.90845,784.5055,798.20514,800.6227,888.86444
1694132407.544,788.1319,787.72894,798.20514,792.96704,884.43225
1694132407.544,790.9524,764.35895,794.17584,793.36993,1066.9597
1694132407.5449998,792.96704,774.43225,792.5641,799.011,1277.6923
1694132407.5449998,793.7729,829.6337,794.17584,798.20514,888.46155
1694132407.5459998,793.7729,801.8315,791.3553,804.65204,729.707
1694132407.5470002,794.57874,788.93774,794.17584,805.8608,792.1612
1694132407.612,790.14655,812.71063,799.41394,789.7436,699.0842
1694132407.614,796.5934,804.65204,795.78754,784.10254,641.06226
1694132407.614,792.5641,790.14655,791.3553,792.5641,721.2454
1694132407.615,789.34064,792.5641,790.9524,801.02563,809.4872
1694132407.616,790.14655,794.9817,792.1612,801.8315,747.03296
1694132407.616,794.17584,787.72894,793.7729,789.7436,666.8498
1694132407.6169999,805.05493,768.3883,794.17584,790.14655,834.4689
1694132407.6169999,799.011,774.0293,798.20514,808.68134,1107.2528
1694132407.6179998,789.34064,821.5751,799.011,811.0989,853.8095
1694132407.619,795.38464,806.26373,799.011,798.60803,672.49084
1694132407.619,801.8315,788.1319,794.57874,794.9817,849.7802
1694132407.62,799.011,809.4872,790.14655,794.9817,814.7253
1694132407.6739998,796.99634,817.5458,788.1319,796.1905,646.30035
1694132407.675,792.1612,797.3993,784.90845,807.0696,689.81683
1694132407.676,788.93774,788.93774,783.2967,794.9817,745.42126
1694132407.676,796.1905,807.47253,785.7143,784.10254,722.4542
1694132407.677,796.1905,804.65204,787.72894,784.10254,689.011
1694132407.6780002,793.7729,789.7436,784.10254,784.10254,736.9597
1694132407.682,798.60803,772.01465,785.7143,803.0403,1058.0952
1694132407.683,796.99634,790.14655,789.34064,801.8315,1081.8682
1694132407.684,794.9817,821.978,786.52014,781.28204,734.1392
1694132407.684,792.1612,801.02563,780.4762,778.0586,657.5824
1694132407.685,782.49084,786.9231,776.4469,781.28204,776.8498
1694132407.685,780.4762,813.5165,779.2674,787.326,769.59705
1694132407.708,782.49084,799.81683,779.2674,792.1612,730.10986
1694132407.7089999,786.52014,768.7912,778.46155,784.90845,816.7399
1694132407.71,787.72894,780.4762,783.69965,775.64105,809.4872
1694132407.71,788.5348,811.0989,788.1319,779.2674,678.5348
1694132407.711,791.75824,805.8608,787.72894,787.326,649.92676
1694132407.712,794.57874,781.28204,785.7143,784.10254,798.60803
1694132407.712,804.65204,786.1172,788.93774,778.46155,885.64105
1694132407.7129998,808.2784,810.696,792.5641,767.1795,758.315
1694132407.7129998,807.8755,814.3223,788.93774,762.74725,644.2857
1694132407.714,804.65204,774.43225,790.9524,789.7436,839.707
1694132407.7150002,796.99634,783.69965,801.4286,812.71063,986.77655
1694132407.716,796.1905,828.4249,799.41394,799.011,765.16486
1694132407.764,798.60803,806.6667,796.1905,783.2967,685.78754
1694132407.766,803.8461,799.81683,801.4286,783.2967,673.69965
1694132407.768,799.011,804.65204,803.44324,792.1612,718.8278
1694132407.769,789.34064,796.1905,803.0403,796.1905,801.02563
1694132407.769,785.31134,804.65204,804.2491,787.326,782.0879
1694132407.77,780.07324,774.83514,805.05493,789.34064,1020.6227
1694132407.7710001,791.75824,786.9231,804.2491,796.5934,1058.9011
1694132407.772,798.20514,817.9487,803.8461,792.1612,823.1868
1694132407.777,796.1905,803.0403,801.4286,796.1905,767.5824
1694132407.7779999,797.3993,785.31134,799.011,803.0403,945.6777
1694132407.779,790.9524,813.91943,800.2198,791.75824,900.9524
1694132407.78,789.34064,830.4396,803.8461,785.7143,618.9011
1694132407.832,782.8938,798.20514,801.8315,794.17584,712.7839
1694132407.833,788.93774,796.5934,804.2491,794.9817,796.5934
1694132407.8339999,797.8022,800.6227,805.8608,790.9524,736.1539
1694132407.835,796.1905,792.5641,804.65204,789.7436,714.7985
1694132407.835,804.65204,782.0879,811.9048,795.78754,773.22345
1694132407.836,805.8608,776.4469,809.4872,803.44324,864.68866
1694132407.837,798.60803,783.69965,802.6374,811.0989,862.674
1694132407.838,794.9817,784.90845,802.6374,811.50183,784.10254
1694132407.839,795.38464,761.53845,799.011,799.81683,866.7033
1694132407.839,796.1905,758.315,796.1905,797.3993,1076.227
1694132407.84,792.1612,807.47253,796.99634,797.3993,855.0183
1694132407.8409998,796.1905,802.6374,795.78754,797.8022,697.8755
1694132407.879,801.4286,792.96704,793.36993,794.9817,797.3993
1694132407.881,798.20514,802.6374,793.36993,792.1612,774.43225
1694132407.882,801.4286,799.41394,795.38464,789.7436,658.3883
1694132407.8830001,809.89014,794.9817,799.81683,801.4286,659.19415
1694132407.884,806.26373,790.14655,802.6374,819.15753,743.00366
1694132407.884,802.6374,793.36993,790.9524,812.71063,828.4249
1694132407.885,801.8315,798.20514,785.7143,799.81683,780.87915
1694132407.8860002,809.4872,790.9524,789.7436,791.75824,727.6923
1694132407.8860002,816.7399,789.34064,787.326,797.8022,890.87915
1694132407.887,808.2784,814.3223,790.14655,812.3077,873.5531
1694132407.892,796.5934,819.15753,793.7729,811.50183,758.315
1694132407.893,799.41394,790.54944,792.96704,803.0403,734.1392
1694132407.895,803.44324,751.8681,787.72894,801.8315,1046.8132
1694132407.896,796.1905,792.5641,788.93774,803.0403,1100.403
1694132407.8969998,792.5641,829.2308,793.7729,807.0696,745.42126
1694132407.8979998,794.9817,796.5934,791.3553,805.4579,736.55676
1694132407.8990002,797.3993,789.7436,789.7436,789.7436,785.7143
1694132407.9,797.3993,790.9524,790.14655,780.07324,779.67035
1694132407.901,795.78754,799.011,791.3553,774.43225,723.2601
1694132407.9020002,794.17584,775.2381,789.7436,778.46155,871.9414
1694132407.903,798.20514,784.5055,787.72894,788.1319,1059.3041
1694132407.905,804.2491,832.0513,789.34064,789.7436,818.3516
1694132407.906,808.68134,806.26373,788.5348,788.5348,665.2381
1694132407.907,809.0842,792.5641,787.72894,797.3993,779.2674
1694132407.943,805.8608,811.50183,790.54944,801.8315,788.93774
1694132407.944,801.4286,813.91943,797.3993,797.8022,740.989
1694132407.945,803.0403,790.14655,798.60803,794.9817,743.00366
1694132407.947,803.8461,779.2674,791.3553,785.31134,776.4469
1694132407.948,800.6227,801.02563,787.72894,788.1319,761.13556
1694132407.949,799.011,794.57874,790.14655,795.38464,800.2198
1694132407.95,795.38464,792.96704,787.326,795.38464,829.2308
1694132407.95,796.5934,768.7912,783.69965,799.81683,1024.652
1694132407.951,799.011,787.72894,787.72894,788.5348,1098.7913
1694132407.952,796.99634,833.2601,791.75824,772.4176,708.3516
1694132407.9529998,797.3993,800.6227,792.1612,791.3553,651.13556
1694132407.9529998,794.9817,791.3553,792.1612,813.91943,762.74725
1694132407.981,790.9524,801.02563,791.3553,805.4579,703.91943
1694132407.982,796.5934,793.7729,786.9231,790.9524,629.7802
1694132407.983,811.9048,778.0586,784.10254,798.20514,746.63007
1694132407.984,808.2784,790.9524,786.9231,800.2198,863.47986
1694132407.984,791.75824,802.23444,790.54944,799.81683,750.2564
1694132407.985,783.69965,778.86444,790.9524,807.47253,698.2784
1694132407.985,786.1172,763.1502,792.96704,802.6374,922.71063
1694132407.9859998,795.78754,781.685,793.7729,804.65204,1054.8718
1694132407.987,796.5934,818.7546,796.1905,808.2784,759.92676
1694132407.987,793.36993,801.4286,799.41394,819.9634,668.0586
1694132407.988,796.5934,786.52014,797.8022,816.337,787.72894
1694132407.988,797.3993,790.14655,791.3553,801.02563,752.674
1694132408.016,797.3993,793.7729,792.96704,793.7729,662.01465
1694132408.017,794.57874,785.7143,801.02563,793.36993,683.7729
1694132408.017,789.34064,781.28204,797.3993,800.2198,761.9414
1694132408.018,800.6227,785.7143,792.96704,803.8461,813.5165
1694132408.018,804.2491,780.87915,794.17584,802.23444,803.44324
1694132408.019,799.81683,787.72894,796.1905,787.326,747.8388
1694132408.019,804.65204,767.1795,796.1905,802.23444,1040.7693
1694132408.02,801.8315,776.8498,796.1905,817.1429,1226.1172
1694132408.02,797.3993,832.4542,801.8315,805.05493,896.1172
1694132408.021,795.38464,804.65204,804.65204,801.02563,755.4945
1694132408.021,798.20514,778.86444,802.6374,799.41394,826.8132
1694132408.022,802.23444,806.6667,797.8022,799.011,736.9597
1694132408.108,794.9817,805.8608,796.99634,796.99634,629.7802
1694132408.109,799.011,776.04395,799.81683,803.44324,768.7912
1694132408.113,802.23444,777.6557,798.60803,803.8461,845.7509
1694132408.1139998,797.3993,808.68134,795.38464,781.685,707.5458
1694132408.115,803.8461,801.8315,794.9817,778.0586,636.63007
1694132408.115,804.2491,770.0,790.9524,796.99634,871.13556
1694132408.116,792.96704,774.43225,789.7436,795.78754,1040.7693
1694132408.116,790.9524,811.9048,790.9524,789.7436,846.9597
1694132408.1169999,797.3993,822.7839,790.9524,796.99634,657.98535
1694132408.118,796.1905,786.52014,788.1319,796.5934,793.7729
1694132408.118,794.57874,781.685,785.7143,802.6374,938.022
1694132408.119,789.34064,819.15753,791.75824,809.4872,739.3773
1694132408.164,795.78754,803.8461,794.17584,799.81683,709.15753
1694132408.165,803.44324,798.60803,793.36993,786.9231,680.14655
1694132408.1660001,796.1905,807.8755,792.1612,778.86444,674.5055
1694132408.167,789.34064,799.011,792.96704,777.6557,656.77655
1694132408.168,790.54944,786.9231,790.9524,786.1172,686.5934
1694132408.168,799.41394,782.8938,789.7436,795.78754,881.2088
1694132408.169,799.41394,796.5934,794.9817,788.5348,880.80585
1694132408.1699998,794.57874,803.0403,793.7729,781.685,756.30035
1694132408.1699998,792.1612,795.38464,794.17584,794.9817,744.21246
1694132408.171,791.75824,792.96704,801.4286,808.68134,817.5458
1694132408.172,792.5641,808.68134,799.81683,795.78754,761.9414
1694132408.172,799.011,817.1429,799.011,779.67035,647.50916
1694132408.174,799.41394,803.0403,803.0403,786.9231,635.0183
1694132408.175,802.23444,765.9707,805.8608,811.9048,973.47986
1694132408.175,800.2198,805.05493,810.696,825.2015,1112.0879
1694132408.176,796.99634,851.39197,807.0696,813.1135,765.16486
1694132408.181,805.8608,819.15753,800.2198,800.6227,716.8132
1694132408.1820002,807.8755,804.65204,800.2198,786.1172,813.91943
1694132408.183,805.8608,815.5311,799.81683,787.326,807.0696
1694132408.184,806.26373,823.5897,801.02563,811.9048,727.28937
1694132408.185,796.99634,784.90845,797.3993,821.978,889.2674
1694132408.185,788.93774,780.07324,786.9231,792.1612,1075.0183
1694132408.1859999,794.9817,830.84247,786.52014,771.6117,759.12085
1694132408.187,793.7729,814.3223,790.54944,782.0879,596.7399
1694132408.225,786.52014,794.17584,788.5348,792.1612,732.52747
1694132408.2259998,789.7436,802.6374,786.9231,796.1905,781.685
1694132408.227,797.8022,809.0842,785.31134,791.3553,711.5751
1694132408.227,799.41394,801.02563,782.8938,779.67035,684.9817
1694132408.228,804.2491,792.5641,784.10254,790.54944,732.52747
1694132408.2289999,798.60803,801.02563,785.7143,812.71063,809.89014
1694132408.23,790.54944,800.2198,788.1319,819.9634,833.2601
1694132408.23,792.5641,797.3993,791.3553,806.6667,781.28204
1694132408.231,791.3553,765.56775,795.38464,803.44324,1002.8938
1694132408.232,789.34064,784.90845,796.1905,813.91943,1083.8828
1694132408.232,789.34064,833.663,795.78754,813.1135,744.61536
1694132408.233,790.14655,798.20514,796.1905,815.12823,759.12085
1694132408.26,789.34064,794.9817,796.1905,810.696,809.89014
1694132408.261,795.38464,814.3223,798.60803,803.44324,681.3553
1694132408.261,799.81683,801.8315,799.41394,797.3993,618.9011
1694132408.262,801.02563,784.90845,804.2491,805.4579,797.3993
1694132408.263,797.8022,792.5641,804.2491,810.293,891.685
1694132408.264,786.1172,810.293,796.5934,790.14655,800.6227
1694132408.268,790.14655,814.3223,802.6374,786.9231,727.6923
1694132408.269,799.81683,798.20514,807.0696,799.81683,786.9231
1694132408.2700002,805.8608,807.47253,804.2491,810.696,952.1245
1694132408.2700002,809.0842,844.1392,802.6374,812.71063,802.6374
1694132408.2710001,798.20514,817.9487,800.6227,802.6374,689.011
1694132408.272,793.7729,801.4286,800.2198,781.685,684.17584
1694132408.32,799.41394,820.3663,803.0403,784.90845,678.1319
1694132408.3209999,799.011,823.9927,803.8461,802.6374,668.86444
1694132408.323,797.3993,805.4579,804.65204,803.44324,744.61536
1694132408.324,796.1905,798.60803,802.6374,797.8022,801.02563
1694132408.324,793.36993,803.8461,801.8315,796.1905,742.1978
1694132408.325,787.326,794.57874,801.02563,789.34064,701.0989
1694132408.3260002,784.5055,798.60803,800.2198,788.5348,738.1685
1694132408.3260002,784.10254,771.6117,797.8022,815.12823,1093.5531
1694132408.3270001,786.1172,784.90845,795.38464,817.5458,1273.663
1694132408.328,788.93774,837.6923,796.99634,796.99634,835.2747
1694132408.328,790.14655,806.6667,798.20514,789.7436,680.54944
1694132408.329,795.38464,790.9524,792.96704,793.36993,831.2454
1694132408.385,792.1612,814.3223,784.5055,801.8315,798.20514
1694132408.386,785.7143,801.8315,783.69965,800.6227,747.4359
1694132408.387,787.326,781.28204,784.10254,790.9524,770.80585
1694132408.388,790.14655,789.34064,782.8938,788.1319,725.6777
1694132408.389,791.75824,796.99634,783.69965,789.7436,695.05493
1694132408.39,787.72894,783.2967,785.31134,790.9524,714.3956
1694132408.391,780.87915,764.35895,786.9231,805.05493,931.5751
1694132408.392,782.0879,767.1795,787.72894,802.23444,1090.7325
1694132408.3980002,781.28204,808.2784,782.0879,773.6264,798.20514
1694132408.3990002,786.52014,813.5165,779.2674,775.64105,614.87177
1694132408.4,796.99634,772.01465,779.67035,797.3993,832.8571
1694132408.4,792.1612,778.86444,780.4762,802.6374,906.1905
1694132408.44,787.326,811.9048,782.49084,792.1612,701.9048
1694132408.442,793.7729,796.99634,787.326,788.5348,693.44324
1694132408.443,795.78754,790.9524,792.96704,799.41394,729.707
1694132408.443,791.75824,799.81683,792.5641,798.60803,771.2088
1694132408.444,794.17584,794.17584,789.34064,793.36993,763.5531
1694132408.445,793.36993,783.69965,792.1612,793.7729,774.0293
1694132408.445,796.1905,774.43225,796.99634,791.3553,998.0586
1694132408.446,792.96704,790.14655,797.3993,797.8022,959.3773
1694132408.447,778.86444,809.0842,794.57874,799.81683,715.6044
1694132408.447,782.0879,790.54944,793.36993,793.7729,672.8938
1694132408.448,791.75824,757.9121,793.36993,790.54944,933.9927
1694132408.449,799.81683,790.9524,794.57874,783.2967,902.96704
1694132408.4499998,800.2198,814.7253,793.36993,773.22345,640.2564
1694132408.451,784.5055,776.04395,787.72894,780.4762,738.97437
1694132408.452,774.43225,776.04395,786.1172,793.7729,794.17584
1694132408.4529998,785.31134,801.02563,789.34064,781.685,751.8681
1694132408.4529998,793.36993,793.7729,793.36993,770.40295,677.72894
1694132408.4540002,791.75824,763.95605,794.9817,787.326,835.2747
1694132408.4550002,790.14655,770.40295,792.96704,799.81683,1011.75824
1694132408.4550002,791.3553,814.3223,792.1612,796.5934,819.15753
1694132408.456,788.5348,820.3663,789.34064,790.54944,694.65204
1694132408.457,792.96704,781.28204,787.72894,792.96704,811.50183
1694132408.4620001,799.41394,788.93774,786.1172,793.36993,872.3443
1694132408.463,798.20514,821.5751,786.1172,796.1905,699.89014
1694132408.493,792.96704,796.5934,782.8938,801.02563,686.1905
1694132408.4940002,783.2967,788.1319,783.2967,797.3993,808.2784
1694132408.4950001,777.25275,807.47253,793.7729,800.6227,809.89014
1694132408.4950001,788.1319,811.50183,797.3993,795.78754,686.1905
1694132408.496,794.57874,794.9817,794.9817,793.7729,686.5934
1694132408.496,787.72894,773.22345,789.7436,803.44324,941.6484
1694132408.497,782.49084,792.5641,786.9231,792.1612,971.8681
1694132408.497,791.75824,808.68134,788.5348,782.8938,740.989
1694132408.498,801.4286,805.05493,790.9524,778.86444,665.2381
1694132408.498,794.17584,773.6264,791.75824,782.0879,962.6007
1694132408.499,792.1612,794.17584,794.57874,793.36993,1043.9927
1694132408.499,800.2198,833.2601,801.4286,788.93774,714.7985
1694132408.536,811.0989,808.2784,805.4579,795.38464,700.293
1694132408.537,812.3077,803.8461,800.2198,794.17584,687.3993
1694132408.537,798.20514,814.3223,796.99634,792.96704,620.5128
1694132408.5379999,786.9231,799.81683,795.78754,799.011,666.4469
1694132408.539,781.685,775.2381,794.9817,801.8315,864.68866
1694132408.539,783.69965,776.8498,791.3553,792.1612,903.7729
1694132408.54,791.3553,795.38464,788.1319,779.67035,745.0183
1694132408.541,791.3553,803.8461,793.7729,788.5348,661.2088
1694132408.542,790.54944,775.64105,794.57874,804.2491,846.9597
1694132408.542,784.5055,777.6557,790.54944,807.0696,1071.7949
1694132408.543,778.86444,821.5751,790.14655,793.7729,832.0513
1694132408.544,789.7436,809.0842,790.54944,787.326,669.67035
1694132408.5870001,790.14655,793.36993,793.36993,788.93774,763.5531
1694132408.588,787.72894,807.47253,799.011,794.9817,811.50183
1694132408.588,790.9524,809.4872,798.60803,800.6227,765.56775
1694132408.589,792.1612,792.1612,798.60803,796.99634,739.3773
1694132408.5900002,796.5934,786.52014,803.44324,787.326,734.5421
1694132408.5900002,796.5934,793.7729,803.8461,790.14655,758.71796
1694132408.591,792.1612,794.9817,801.02563,796.5934,784.90845
1694132408.592,793.36993,793.36993,796.5934,808.2784,763.5531
1694132408.592,802.23444,771.2088,794.9817,812.3077,1046.8132
1694132408.593,805.4579,777.6557,796.99634,805.8608,1261.1721
1694132408.593,803.8461,833.2601,799.011,799.41394,852.1978
1694132408.5939999,801.02563,817.1429,796.99634,800.6227,672.0879
1694132408.625,801.02563,799.011,793.7729,806.6667,786.52014
1694132408.626,806.6667,813.91943,798.60803,808.68134,763.1502
1694132408.627,804.65204,809.0842,797.8022,803.8461,730.9158
1694132408.627,795.38464,792.1612,791.3553,790.54944,722.0513
1694132408.628,791.75824,791.75824,796.99634,793.7729,720.4396
1694132408.628,794.17584,796.99634,799.81683,799.011,767.1795
1694132408.629,796.5934,797.8022,796.5934,794.57874,722.4542
1694132408.63,800.2198,782.49084,796.5934,787.72894,809.89014
1694132408.631,795.38464,782.0879,793.36993,789.34064,992.01465
1694132408.631,793.36993,825.2015,795.38464,805.4579,826.0073
1694132408.632,800.6227,825.6044,800.6227,808.2784,704.3223
1694132408.632,796.5934,784.10254,803.0403,802.6374,902.5641
1694132408.666,794.17584,798.20514,799.41394,805.05493,886.4469
1694132408.667,795.38464,831.2454,792.96704,796.99634,653.5531
1694132408.672,795.78754,807.8755,791.3553,804.2491,678.1319
1694132408.6729999,795.78754,796.99634,794.17584,811.0989,755.4945
1694132408.6729999,794.17584,805.4579,795.38464,811.50183,762.74725
1694132408.6739998,792.96704,792.96704,792.96704,799.011,755.4945
1694132408.675,791.3553,791.3553,786.9231,781.28204,681.75824
1694132408.676,790.9524,764.35895,783.69965,789.7436,958.97437
1694132408.676,793.7729,786.1172,788.1319,795.38464,1147.1428
1694132408.677,786.52014,828.8278,788.93774,788.1319,751.4652
1694132408.677,789.34064,794.57874,788.93774,783.2967,686.99634
1694132408.6780002,801.8315,778.46155,790.14655,781.685,829.2308
1694132408.7,795.38464,799.81683,788.5348,776.04395,764.35895
1694132408.701,788.93774,805.8608,791.3553,787.326,675.7143
1694132408.7020001,789.34064,772.01465,790.14655,793.36993,771.2088
1694132408.703,789.7436,769.19415,789.34064,780.4762,829.2308
1694132408.703,792.1612,793.36993,787.72894,774.83514,707.9487
1694132408.704,787.72894,784.10254,785.31134,772.8205,705.9341
1694132408.705,777.6557,760.32965,788.1319,785.31134,921.50183
1694132408.707,776.04395,768.7912,786.9231,795.38464,1069.7803
1694132408.708,781.28204,813.91943,787.72894,788.1319,859.45056
1694132408.7089999,786.52014,805.4579,793.7729,779.67035,712.7839
1694132408.71,783.2967,792.1612,792.96704,774.0293,777.25275
1694132408.711,782.0879,794.17584,787.72894,781.685,831.2454
1694132408.8019998,783.2967,792.1612,786.52014,785.7143,801.4286
1694132408.803,791.75824,779.2674,789.34064,780.07324,722.8571
1694132408.804,802.23444,784.10254,795.78754,786.1172,745.42126
1694132408.804,799.41394,809.4872,800.2198,782.8938,762.74725
1694132408.809,796.5934,802.23444,799.41394,792.1612,710.7692
1694132408.81,792.5641,787.72894,801.02563,811.0989,766.77655
1694132408.811,778.86444,764.7619,801.02563,814.3223,1129.414
1694132408.812,775.2381,781.28204,801.8315,803.8461,1188.2417
1694132408.812,789.34064,829.6337,804.2491,786.1172,738.1685
1694132408.813,795.78754,807.47253,800.2198,794.9817,632.1978
1694132408.813,792.5641,787.72894,797.8022,810.293,817.5458
1694132408.8140001,789.7436,815.12823,797.8022,802.23444,779.2674
1694132408.8460002,796.1905,822.7839,800.6227,784.90845,662.8205
1694132408.8470001,798.20514,800.6227,802.23444,780.4762,702.3077
1694132408.848,791.75824,797.3993,803.0403,790.54944,732.52747
1694132408.848,784.5055,807.8755,803.0403,799.011,728.49817
1694132408.849,785.7143,800.2198,800.6227,787.72894,671.28204
1694132408.85,796.5934,779.2674,796.5934,781.28204,835.2747
1694132408.851,806.26373,786.52014,796.5934,790.14655,956.1539
1694132408.851,805.4579,819.5604,802.6374,798.20514,749.85345
1694132408.852,792.5641,821.5751,800.6227,792.1612,655.16486
1694132408.852,789.34064,785.31134,805.8608,801.8315,867.50916
1694132408.853,794.57874,788.93774,809.0842,813.5165,975.09155
1694132408.854,800.2198,830.0366,803.8461,800.6227,688.60803
1694132408.892,790.9524,811.9048,800.6227,793.36993,668.46155
1694132408.893,782.8938,794.57874,796.1905,797.3993,739.3773
1694132408.893,798.20514,803.0403,796.99634,808.2784,726.08057
1694132408.894,809.0842,809.0842,796.99634,797.8022,665.2381
1694132408.895,810.293,795.38464,796.5934,793.36993,682.1612
1694132408.895,807.47253,779.67035,797.3993,803.0403,833.2601
1694132408.8990002,799.41394,784.90845,796.99634,809.4872,858.24176
1694132408.9,794.9817,784.5055,796.1905,815.12823,822.381
1694132408.901,801.02563,774.0293,796.5934,805.8608,742.6007
1694132408.9020002,806.26373,780.87915,801.8315,800.6227,825.6044
1694132408.9020002,803.44324,812.71063,803.8461,804.65204,843.3333
1694132408.903,802.23444,809.0842,800.6227,809.0842,686.99634
1694132408.932,797.3993,775.2381,799.011,801.8315,791.3553
1694132408.9329998,788.5348,772.4176,799.81683,794.17584,968.24176
1694132408.934,783.69965,796.1905,796.5934,787.72894,825.2015
1694132408.934,786.1172,792.96704,792.96704,785.31134,670.4762
1694132408.9350002,784.10254,770.0,790.54944,798.20514,753.0769
1694132408.9350002,786.9231,740.58606,789.7436,812.3077,1204.359
1694132408.936,795.78754,783.69965,790.14655,805.4579,1239.011
1694132408.937,792.1612,823.5897,792.5641,786.9231,737.76556
1694132408.937,790.9524,790.14655,798.60803,785.7143,749.85345
1694132408.938,796.1905,791.75824,802.23444,799.41394,834.87177
1694132408.9390001,797.8022,811.50183,798.20514,808.68134,811.0989
1694132408.9390001,798.60803,805.4579,793.7729,803.44324,769.19415
1694132408.9750001,803.44324,795.78754,797.8022,801.4286,780.87915
1694132408.976,808.68134,811.0989,799.41394,805.8608,804.2491
1694132408.978,809.4872,815.9341,793.7729,801.8315,693.0403
1694132408.979,807.47253,801.02563,793.36993,809.4872,730.5128
1694132408.98,808.2784,799.011,795.38464,811.9048,766.77655
1694132408.981,810.293,799.41394,797.3993,802.23444,730.5128
1694132408.981,810.696,798.20514,805.4579,800.6227,723.2601
1694132408.982,798.60803,802.6374,804.65204,806.26373,734.5421
1694132408.9859998,798.20514,781.685,798.60803,815.9341,1001.28204
1694132408.987,816.7399,803.0403,800.2198,819.5604,1033.5165
1694132408.987,813.91943,833.663,799.81683,801.8315,688.60803
1694132408.988,801.4286,792.96704,800.6227,790.14655,684.57874
1694132409.033,807.8755,765.56775,802.6374,806.6667,921.50183
1694132409.035,806.6667,801.02563,803.0403,816.7399,884.0293
1694132409.036,802.6374,821.5751,801.02563,809.0842,699.4872
1694132409.037,808.2784,790.9524,800.6227,805.8608,744.21246
1694132409.038,805.8608,780.87915,805.05493,805.8608,792.96704
1694132409.038,801.4286,802.6374,808.2784,807.47253,786.1172
1694132409.039,801.8315,801.8315,807.47253,809.4872,791.75824
1694132409.04,803.0403,776.4469,805.4579,812.3077,920.696
1694132409.041,812.71063,783.2967,805.05493,806.26373,1003.2967
1694132409.041,815.9341,817.9487,803.0403,789.7436,727.6923
1694132409.0419998,804.2491,803.0403,800.6227,786.1172,644.2857
1694132409.043,799.011,790.14655,798.20514,799.41394,751.4652
1694132409.104,803.8461,796.1905,800.6227,807.0696,770.0
1694132409.105,801.4286,803.0403,800.2198,798.60803,713.5897
1694132409.106,794.17584,788.1319,795.78754,785.31134,645.89746
1694132409.107,805.8608,779.67035,793.36993,786.9231,714.3956
1694132409.108,810.696,803.8461,796.99634,803.0403,769.59705
1694132409.108,796.99634,794.17584,797.8022,798.60803,766.3736
1694132409.109,795.78754,790.14655,795.78754,794.57874,830.0366
1694132409.1100001,795.38464,762.3443,796.1905,800.6227,1041.978
1694132409.111,788.5348,765.9707,798.20514,801.02563,1157.619
1694132409.112,784.10254,820.7692,800.2198,800.6227,803.44324
1694132409.119,788.93774,795.78754,798.60803,806.26373,713.5897
1694132409.12,793.7729,786.1172,796.99634,798.20514,863.8828
1694132409.121,802.23444,811.0989,799.41394,787.72894,726.08057
1694132409.1230001,805.8608,807.8755,803.8461,787.326,645.89746
1694132409.124,794.9817,784.90845,806.6667,798.60803,749.0476
1694132409.124,790.54944,788.5348,805.4579,804.2491,826.8132
1694132409.125,791.3553,802.23444,802.23444,789.7436,807.0696
1694132409.1260002,794.57874,791.3553,796.99634,781.685,743.00366
1694132409.127,792.1612,772.8205,791.75824,789.34064,861.06226
1694132409.128,790.54944,773.22345,794.17584,813.91943,1113.6996
1694132409.129,787.326,823.1868,793.36993,812.3077,891.685
1694132409.1299999,798.20514,816.337,792.5641,799.81683,695.05493
1694132409.131,811.0989,790.54944,796.99634,796.1905,749.0476
1694132409.134,812.71063,804.2491,800.6227,787.326,743.4066
1694132409.164,807.0696,804.65204,799.41394,791.3553,679.7436
1694132409.165,790.54944,785.7143,791.75824,796.5934,684.17584
1694132409.1660001,783.2967,780.4762,790.54944,793.36993,698.2784
1694132409.167,794.57874,797.8022,792.5641,792.1612,668.0586
1694132409.167,805.05493,799.81683,788.93774,788.5348,664.43225
1694132409.168,795.78754,782.0879,786.9231,791.3553,724.87177
1694132409.168,789.7436,760.32965,786.9231,800.2198,1066.1538
1694132409.169,789.7436,783.2967,788.93774,794.9817,1141.9048
1694132409.169,789.34064,816.337,792.96704,784.90845,755.4945
1694132409.1699998,794.17584,803.44324,794.9817,785.31134,642.674
1694132409.171,793.7729,786.9231,793.36993,795.38464,933.1868
1694132409.172,782.8938,812.71063,791.3553,805.4579,963.4066
1694132409.219,779.67035,819.9634,793.36993,796.5934,677.72894
1694132409.221,784.5055,784.90845,791.75824,782.8938,697.8755
1694132409.2220001,787.326,784.5055,795.38464,782.0879,700.293
1694132409.223,789.34064,797.8022,796.1905,796.99634,649.5238
1694132409.223,787.326,794.17584,794.57874,799.81683,654.7619
1694132409.224,794.17584,763.95605,796.1905,799.81683,903.36993
1694132409.225,803.8461,763.95605,795.38464,794.57874,1060.9158
1694132409.225,799.011,805.05493,794.9817,777.25275,767.5824
1694132409.2259998,782.49084,803.0403,794.17584,784.10254,654.35895
1694132409.227,780.07324,774.43225,794.9817,799.81683,832.0513
1694132409.227,795.78754,781.685,800.6227,799.011,886.8498
1694132409.228,799.41394,799.41394,796.99634,790.14655,794.17584
1694132409.2849998,798.20514,793.36993,793.36993,779.67035,690.6227
1694132409.286,805.4579,784.90845,802.23444,785.7143,745.82416
1694132409.2870002,802.6374,800.2198,804.2491,803.44324,846.55676
1694132409.288,795.38464,807.0696,799.41394,802.23444,741.79486
1694132409.288,799.011,795.78754,796.5934,784.5055,749.0476
1694132409.289,801.02563,789.7436,795.78754,785.7143,829.2308
1694132409.29,794.9817,796.5934,796.5934,790.14655,819.15753
1694132409.29,797.8022,798.20514,797.8022,790.14655,789.7436
1694132409.2910001,798.60803,797.8022,800.6227,792.96704,728.49817
1694132409.292,790.9524,768.7912,807.47253,798.20514,1012.1612
1694132409.293,784.5055,791.75824,810.696,796.99634,1102.4176
1694132409.293,784.5055,833.2601,807.8755,779.2674,754.68866
1694132409.33,784.90845,799.81683,807.0696,781.28204,780.4762
1694132409.332,782.0879,784.10254,807.0696,798.60803,891.685
1694132409.3379998,786.1172,796.99634,804.2491,793.36993,869.92676
1694132409.3379998,792.96704,811.0989,803.44324,778.46155,712.7839
1694132409.339,793.7729,786.1172,804.65204,788.93774,732.1245
1694132409.34,794.57874,774.43225,802.6374,803.44324,931.978
1694132409.3409998,789.7436,797.8022,799.81683,793.7729,891.28204
1694132409.3409998,782.8938,805.4579,799.81683,782.0879,714.7985
1694132409.3430002,790.14655,779.2674,803.44324,782.49084,750.65936
1694132409.3430002,796.1905,776.8498,802.23444,788.5348,982.3443
1694132409.344,793.7729,820.7692,801.8315,796.5934,786.9231
1694132409.345,790.14655,803.8461,801.8315,801.02563,655.56775
1694132409.3539999,783.69965,788.93774,798.60803,789.34064,700.293
1694132409.355,782.8938,800.2198,802.6374,782.8938,669.67035
1694132409.356,787.72894,801.8315,803.8461,784.5055,645.09155
1694132409.3569999,786.1172,786.9231,802.23444,790.14655,645.09155
1694132409.358,790.54944,777.25275,803.8461,803.8461,813.5165
1694132409.359,790.9524,782.8938,802.6374,803.8461,849.3773
1694132409.359,788.93774,785.31134,795.38464,789.34064,771.2088
1694132409.36,790.14655,790.54944,791.75824,781.685,703.5165
1694132409.3609998,788.93774,764.7619,791.75824,794.57874,907.8022
1694132409.3609998,790.54944,768.3883,791.75824,813.91943,1244.652
1694132409.362,794.57874,826.4103,793.36993,805.4579,961.79486
1694132409.3630002,799.81683,807.47253,796.5934,786.1172,707.1429
1694132409.387,799.011,788.93774,796.99634,778.0586,690.2198
1694132409.388,795.78754,809.0842,793.36993,786.52014,667.25275
1694132409.388,786.1172,798.60803,790.14655,793.7729,716.0073
1694132409.389,782.49084,779.2674,789.7436,790.54944,756.30035
1694132409.392,790.9524,781.28204,792.96704,786.1172,745.82416
1694132409.393,788.5348,785.7143,794.9817,780.07324,777.25275
1694132409.393,780.07324,786.52014,796.5934,780.07324,777.6557
1694132409.3939998,787.326,772.4176,800.2198,790.14655,925.5311
1694132409.3939998,792.1612,758.315,798.60803,795.78754,1177.7656
1694132409.395,784.5055,813.1135,794.57874,777.6557,897.326
1694132409.395,790.54944,819.5604,797.8022,766.3736,625.34796
1694132409.396,795.78754,792.96704,799.011,776.8498,719.2308
1694132409.428,789.34064,800.6227,794.17584,783.2967,770.40295
1694132409.428,788.5348,800.6227,796.1905,782.49084,767.5824
1694132409.429,795.78754,786.1172,800.2198,786.9231,738.5714
1694132409.429,796.99634,782.0879,805.8608,799.41394,699.0842
1694132409.43,790.9524,790.9524,807.47253,791.3553,698.68134
1694132409.43,787.72894,783.69965,803.8461,796.5934,752.674
1694132409.431,789.34064,784.90845,804.65204,813.1135,794.9817
1694132409.431,788.5348,756.30035,801.8315,800.6227,1084.6886
1694132409.432,784.10254,765.16486,798.20514,793.36993,1171.7216
1694132409.432,782.0879,808.2784,799.81683,791.75824,786.52014
1694132409.4329998,780.4762,784.90845,801.4286,798.20514,738.5714
1694132409.4329998,781.28204,782.8938,807.47253,802.6374,829.2308
1694132409.4940002,789.34064,802.6374,811.9048,799.81683,739.3773
1694132409.4950001,798.20514,796.99634,811.50183,789.34064,635.0183
1694132409.496,803.44324,782.8938,811.9048,790.9524,675.31134
1694132409.496,789.7436,788.5348,808.68134,798.20514,728.9011
1694132409.497,780.07324,795.38464,803.8461,796.99634,731.31866
1694132409.498,788.1319,783.2967,801.8315,793.7729,730.10986
1694132409.502,786.52014,757.1062,799.41394,782.0879,882.4176
1694132409.503,787.72894,768.3883,794.57874,781.685,1006.52014
1694132409.504,788.93774,816.7399,792.5641,786.1172,794.17584
1694132409.504,791.3553,801.8315,795.78754,796.5934,720.84247
1694132409.5049999,793.7729,779.67035,796.99634,796.1905,831.2454
1694132409.5049999,796.5934,784.90845,795.38464,787.326,791.75824
1694132409.5500002,801.02563,790.14655,795.38464,794.17584,748.24176
1694132409.551,797.8022,789.34064,788.93774,796.99634,741.79486
1694132409.552,796.1905,769.59705,782.0879,803.8461,859.45056
1694132409.553,799.41394,786.52014,780.07324,803.44324,907.8022
1694132409.553,809.89014,805.4579,782.49084,786.9231,693.8461
1694132409.554,813.91943,783.2967,785.31134,786.1172,666.8498
1694132409.555,809.89014,765.56775,785.7143,804.65204,971.8681
1694132409.556,804.65204,780.07324,784.10254,807.0696,1072.1978
1694132409.557,794.9817,806.6667,783.2967,799.011,809.0842
1694132409.557,794.17584,790.54944,782.0879,791.3553,688.20514
1694132409.558,798.20514,771.6117,784.5055,788.93774,841.7216
1694132409.559,797.3993,801.4286,787.72894,798.60803,828.4249
1694132409.597,790.9524,807.8755,788.5348,797.8022,681.75824
1694132409.598,788.1319,782.0879,790.54944,794.57874,740.18317
1694132409.599,805.05493,787.326,794.57874,797.3993,803.44324
1694132409.6,808.2784,803.8461,795.78754,790.54944,770.80585
1694132409.6009998,799.011,812.3077,790.14655,780.07324,653.1502
1694132409.6019998,800.2198,781.28204,790.14655,789.7436,834.0659
1694132409.6030002,803.0403,770.40295,789.7436,800.6227,1217.6556
1694132409.604,805.05493,829.6337,788.1319,782.8938,916.26373
1694132409.609,805.4579,833.2601,792.96704,786.52014,617.6923
1694132409.609,803.44324,805.05493,794.17584,801.8315,744.21246
1694132409.611,792.5641,807.8755,794.57874,792.5641,750.2564
1694132409.612,782.8938,809.89014,793.36993,788.5348,682.1612
1694132409.6499999,791.3553,792.96704,791.3553,784.90845,675.7143
1694132409.651,795.38464,788.1319,792.5641,782.0879,685.38464
1694132409.652,790.54944,799.81683,792.1612,787.326,715.6044
1694132409.6529999,791.3553,800.6227,790.9524,799.81683,733.73627
1694132409.6529999,792.1612,785.7143,789.7436,809.89014,784.90845
1694132409.654,794.57874,778.46155,791.75824,803.44324,896.9231
1694132409.655,796.99634,795.78754,797.8022,792.5641,846.9597
1694132409.655,799.81683,794.9817,796.5934,791.3553,735.7509
1694132409.656,803.44324,795.78754,796.5934,793.7729,721.2454
1694132409.6569998,800.2198,767.98535,799.81683,806.6667,1057.6923
1694132409.6569998,795.38464,779.67035,799.41394,799.41394,1211.2087
1694132409.6579998,794.9817,836.4835,801.02563,780.07324,826.4103
1694132409.6590002,801.02563,813.5165,802.23444,783.69965,704.7253
1694132409.66,795.38464,802.6374,798.60803,793.7729,796.99634
1694132409.661,791.75824,809.4872,794.9817,796.5934,775.2381
1694132409.6620002,792.96704,799.81683,796.99634,795.38464,719.2308
1694132409.663,799.011,790.14655,794.9817,789.7436,718.022
1694132409.663,799.41394,782.0879,788.5348,781.685,767.1795
1694132409.664,791.3553,792.96704,788.5348,783.2967,813.1135
1694132409.665,792.1612,802.23444,791.3553,792.1612,728.9011
1694132409.666,786.9231,770.0,790.9524,801.4286,822.381
1694132409.666,788.5348,760.7326,790.9524,799.011,1052.4542
1694132409.672,787.72894,823.1868,791.75824,782.0879,818.7546
1694132409.6729999,782.0879,824.3956,790.14655,785.7143,660.80585
1694132409.728,776.04395,790.54944,789.34064,796.1905,802.6374
1694132409.7289999,763.95605,798.20514,787.72894,783.69965,810.293
1694132409.731,769.19415,801.8315,790.54944,777.25275,715.6044
1694132409.732,779.2674,784.10254,794.17584,776.8498,691.4286
1694132409.733,776.04395,770.80585,790.54944,784.5055,724.4689
1694132409.7350001,780.4762,772.8205,787.72894,800.2198,812.3077
1694132409.736,794.17584,780.4762,794.17584,804.2491,836.08057
1694132409.736,794.57874,788.93774,798.20514,791.75824,729.707
1694132409.737,789.34064,759.12085,793.7729,784.5055,973.8828
1694132409.738,785.7143,767.5824,790.9524,797.8022,1184.2124
1694132409.739,784.90845,811.50183,794.57874,798.20514,892.49084
1694132409.74,794.9817,784.10254,799.41394,799.011,852.1978
1694132409.767,797.8022,780.07324,796.5934,803.8461,890.4762
1694132409.768,791.3553,805.05493,794.9817,789.7436,702.3077
1694132409.769,791.3553,799.81683,795.38464,788.93774,641.06226
1694132409.77,795.38464,782.8938,795.78754,796.5934,718.022
1694132409.77,792.5641,786.9231,800.2198,791.75824,765.56775
1694132409.7710001,790.14655,787.72894,797.8022,785.31134,804.2491
1694132409.772,786.1172,787.326,792.5641,783.2967,704.7253
1694132409.772,784.5055,767.98535,792.1612,786.9231,759.5238
1694132409.773,786.9231,774.83514,795.38464,795.38464,961.79486
1694132409.7740002,790.9524,827.2161,802.23444,799.011,791.3553
1694132409.7740002,799.011,811.0989,802.23444,796.5934,639.45056
1694132409.775,802.6374,794.17584,795.78754,787.72894,661.2088
1694132409.81,793.7729,804.2491,799.81683,782.0879,656.77655
1694132409.811,786.52014,798.60803,803.0403,788.93774,676.9231
1694132409.811,786.52014,784.5055,796.99634,796.99634,724.0659
1694132409.812,792.5641,790.54944,796.99634,792.96704,738.1685
1694132409.813,801.02563,807.8755,799.41394,784.90845,720.0366
1694132409.813,803.0403,802.23444,800.6227,799.011,746.63007
1694132409.8140001,793.7729,801.4286,801.4286,805.05493,806.26373
1694132409.8140001,785.7143,770.0,802.23444,809.89014,1074.2124
1694132409.815,790.9524,759.92676,799.011,810.696,1290.989
1694132409.815,785.7143,817.9487,796.5934,784.10254,898.5348
1694132409.816,786.52014,809.4872,793.7729,781.28204,621.31866
1694132409.816,799.41394,790.14655,790.54944,795.38464,697.47253
1694132409.8609998,797.8022,807.47253,790.14655,794.57874,742.6007
1694132409.8620002,791.75824,799.41394,796.5934,797.8022,734.1392
1694132409.8630002,792.1612,783.2967,807.0696,797.3993,726.08057
1694132409.8630002,799.81683,784.5055,806.6667,796.5934,724.87177
1694132409.864,794.57874,789.34064,801.8315,792.5641,756.7033
1694132409.864,784.5055,788.93774,802.6374,804.2491,769.19415
1694132409.865,786.9231,771.2088,798.20514,809.4872,908.60803
1694132409.866,795.38464,761.13556,793.36993,801.02563,1117.326
1694132409.866,796.1905,812.71063,796.1905,794.57874,838.0952
1694132409.867,788.93774,818.7546,793.36993,795.78754,635.82416
1694132409.867,786.1172,791.75824,793.7729,801.02563,765.9707
1694132409.868,784.10254,800.6227,800.2198,804.65204,785.7143
1694132409.895,792.96704,798.60803,801.02563,791.75824,740.58606
1694132409.896,805.8608,786.1172,799.81683,782.49084,726.08057
1694132409.9,810.696,792.96704,800.2198,793.36993,773.22345
1694132409.901,805.05493,805.4579,801.8315,805.8608,822.7839
1694132409.901,798.20514,801.4286,804.65204,809.89014,798.60803
1694132409.9020002,800.6227,786.52014,805.05493,795.78754,821.978
1694132409.903,807.0696,788.93774,806.26373,784.5055,854.61536
1694132409.903,801.4286,802.6374,808.2784,795.38464,791.75824
1694132409.904,790.14655,804.65204,808.68134,800.6227,852.6007
1694132409.905,788.1319,807.47253,805.8608,798.60803,860.2564
1694132409.905,792.96704,779.67035,798.60803,803.8461,1040.7693
1694132409.906,798.20514,774.43225,797.3993,800.2198,1311.9414
1694132409.9299998,802.23444,828.8278,795.38464,790.9524,967.03296
1694132409.931,800.2198,818.3516,794.17584,792.5641,722.8571
1694132409.931,794.57874,796.5934,796.1905,796.99634,778.46155
1694132409.932,797.8022,804.65204,794.9817,789.34064,701.50183
1694132409.932,802.23444,795.38464,792.5641,778.0586,568.93774
1694132409.9329998,800.2198,770.80585,791.75824,782.49084,770.40295
1694132409.934,796.1905,778.0586,797.8022,796.99634,956.1539
1694132409.934,783.69965,811.50183,796.1905,799.011,756.30035
1694132409.9350002,783.2967,809.0842,789.34064,785.31134,635.42126
1694132409.936,786.1172,772.01465,790.14655,779.67035,858.24176
1694132409.936,790.9524,782.49084,792.5641,788.1319,1046.0073
1694132409.937,789.34064,832.4542,792.96704,799.011,795.78754
1694132410.04,784.10254,810.293,791.75824,806.6667,701.0989
1694132410.041,794.57874,796.5934,795.78754,790.54944,734.1392
1694132410.0419998,799.41394,804.65204,794.9817,781.685,714.3956
1694132410.043,790.54944,808.68134,789.7436,782.0879,661.6117
1694132410.049,786.9231,804.65204,793.7729,785.31134,716.8132
1694132410.049,789.34064,792.1612,797.3993,797.3993,902.5641
1694132410.05,795.38464,797.3993,800.2198,799.41394,911.8315
1694132410.051,803.0403,800.2198,805.4579,795.38464,831.6484
1694132410.052,798.20514,809.4872,807.47253,798.60803,740.58606
1694132410.052,790.14655,782.49084,803.8461,809.0842,966.63007
1694132410.053,788.93774,794.57874,798.20514,813.1135,1124.1758
1694132410.0540001,793.7729,830.0366,800.6227,799.81683,741.79486
1694132410.0870001,794.17584,794.57874,799.81683,786.1172,682.1612
1694132410.088,786.9231,798.20514,797.8022,792.1612,759.92676
1694132410.089,791.3553,821.5751,804.2491,796.99634,691.8315
1694132410.09,801.4286,811.9048,809.0842,801.4286,639.85345
1694132410.09,809.4872,793.36993,812.3077,804.2491,745.42126
1694132410.091,811.0989,790.14655,812.71063,790.9524,822.7839
1694132410.092,805.4579,803.0403,813.91943,784.5055,746.63007
1694132410.092,806.6667,816.337,819.5604,794.9817,678.1319
1694132410.093,809.89014,780.87915,819.5604,811.9048,834.87177
1694132410.094,811.9048,776.04395,819.15753,811.9048,1052.0513
1694132410.095,811.50183,834.0659,821.5751,788.1319,826.0073
1694132410.096,801.4286,818.7546,818.3516,776.4469,686.1905
1694132410.106,787.72894,794.9817,814.3223,780.4762,760.32965
1694132410.107,792.1612,801.8315,814.3223,794.17584,801.02563
1694132410.108,802.23444,794.9817,820.3663,809.0842,838.9011
1694132410.109,797.8022,780.4762,817.5458,799.011,755.09155
1694132410.1100001,799.41394,783.69965,815.12823,784.10254,736.9597
1694132410.1100001,797.3993,792.96704,816.7399,790.14655,847.3626
1694132410.115,789.7436,797.3993,811.50183,803.8461,790.54944
1694132410.116,787.326,799.011,804.65204,810.293,755.09155
1694132410.1169999,796.1905,773.22345,804.65204,811.0989,984.35895
1694132410.118,799.81683,796.1905,813.1135,805.8608,1044.3956
1694132410.119,795.78754,845.7509,819.9634,796.5934,693.8461
1694132410.119,790.9524,809.4872,818.7546,808.2784,668.86444
1694132410.145,785.31134,793.36993,811.50183,811.0989,817.9487
1694132410.146,794.9817,819.5604,805.4579,802.6374,732.1245
1694132410.147,796.1905,810.293,804.2491,790.14655,614.4689
1694132410.148,798.20514,790.54944,802.6374,782.8938,646.30035
1694132410.148,798.20514,787.326,802.23444,790.14655,720.84247
1694132410.149,787.326,785.31134,795.78754,793.7729,753.8828
1694132410.149,794.57874,792.1612,792.96704,790.54944,763.1502
1694132410.15,804.2491,782.8938,801.4286,788.93774,881.2088
1694132410.15,811.0989,763.5531,804.65204,795.78754,1206.3737
1694132410.151,813.91943,807.47253,803.0403,796.99634,1026.6666
1694132410.151,813.5165,823.5897,806.6667,799.011,699.4872
1694132410.152,810.696,798.20514,808.2784,803.8461,731.7216
1694132410.1790001,801.02563,805.4579,802.6374,793.36993,735.34796
1694132410.18,793.36993,803.44324,800.2198,789.34064,673.69965
1694132410.18,789.7436,784.90845,803.0403,805.4579,670.07324
1694132410.181,787.72894,786.9231,800.6227,815.5311,718.4249
1694132410.181,786.9231,799.41394,798.20514,805.4579,740.989
1694132410.1820002,791.3553,794.17584,800.2198,794.17584,732.52747
1694132410.183,784.90845,793.7729,796.99634,786.1172,711.978
1694132410.183,784.5055,767.5824,793.7729,798.60803,1008.93774
1694132410.187,792.1612,777.25275,795.38464,805.8608,1311.9414
1694132410.187,790.14655,834.4689,797.3993,791.3553,961.79486
1694132410.188,787.326,807.8755,796.99634,788.1319,676.52014
1694132410.188,794.9817,791.75824,798.20514,788.5348,705.12823
1694132410.211,804.65204,815.9341,798.60803,792.96704,691.02563
1694132410.212,802.23444,808.68134,795.38464,800.6227,714.3956
1694132410.2129998,799.011,790.9524,797.3993,796.1905,793.7729
1694132410.2129998,803.44324,797.8022,801.4286,794.17584,768.7912
1694132410.2140002,802.23444,805.4579,800.2198,796.99634,672.49084
1694132410.2140002,798.60803,799.41394,804.2491,802.6374,744.61536
1694132410.2150002,797.3993,779.67035,808.2784,813.1135,976.7033
1694132410.2150002,787.326,780.4762,803.8461,813.5165,1106.044
1694132410.216,787.326,825.2015,800.2198,804.65204,831.2454
1694132410.216,803.8461,812.3077,801.8315,803.44324,651.9414
1694132410.216,805.05493,788.1319,806.26373,815.5311,784.5055
1694132410.217,801.4286,807.47253,807.47253,823.5897,830.0366
1694132410.28,804.2491,818.7546,807.8755,823.1868,771.6117
1694132410.281,813.1135,800.6227,805.4579,805.8608,760.32965
1694132410.2819998,819.9634,789.34064,802.6374,793.7729,761.9414
1694132410.283,809.0842,801.02563,799.81683,796.1905,764.7619
1694132410.283,790.54944,793.36993,795.78754,799.81683,736.1539
1694132410.284,786.1172,780.07324,795.78754,800.6227,731.31866
1694132410.2849998,794.57874,762.74725,798.20514,799.41394,996.04395
1694132410.2849998,799.41394,778.0586,800.2198,796.99634,1031.0989
1694132410.286,795.78754,820.3663,800.6227,789.7436,686.1905
1694132410.286,792.1612,797.8022,796.99634,796.99634,677.72894
1694132410.29,789.7436,778.86444,790.9524,799.81683,874.7619
1694132410.2910001,792.5641,807.8755,790.14655,791.3553,799.011
1694132410.314,794.9817,807.8755,790.14655,782.8938,615.2747
1694132410.315,797.8022,775.64105,794.57874,785.31134,707.9487
1694132410.316,794.9817,778.86444,796.99634,797.3993,838.49817
1694132410.316,796.99634,803.44324,797.3993,796.5934,790.9524
1694132410.317,802.6374,792.96704,798.20514,786.52014,764.35895
1694132410.317,797.8022,759.92676,794.9817,781.28204,900.54944
1694132410.318,794.9817,757.9121,797.3993,785.7143,1189.4506
1694132410.319,795.38464,811.0989,803.8461,797.8022,975.4945
1694132410.319,799.81683,815.12823,801.4286,806.26373,721.2454
1694132410.32,792.5641,786.1172,799.011,800.2198,796.99634
1694132410.32,789.34064,790.54944,797.8022,790.54944,756.7033
1694132410.3209999,799.81683,802.6374,797.3993,782.8938,683.7729
1694132410.389,799.011,799.41394,794.17584,791.3553,667.6557
1694132410.39,792.1612,792.96704,792.1612,804.2491,750.65936
1694132410.391,792.96704,802.6374,795.78754,794.17584,763.5531
1694132410.392,799.011,797.8022,795.38464,788.5348,681.3553
1694132410.393,808.2784,793.7729,797.3993,789.34064,663.6264
1694132410.3939998,808.68134,770.80585,796.99634,791.3553,1045.6044
1694132410.396,797.8022,775.64105,791.75824,800.6227,1169.7069
1694132410.3969998,790.9524,802.6374,792.5641,794.17584,818.7546
1694132410.3969998,790.14655,794.17584,793.7729,785.31134,670.4762
1694132410.3980002,797.8022,775.64105,793.36993,789.34064,877.1795
1694132410.3990002,797.8022,801.02563,796.5934,798.60803,913.0403
1694132410.3990002,791.3553,823.1868,796.99634,794.9817,661.6117
1694132410.451,791.3553,787.326,793.36993,788.5348,711.5751
1694132410.452,794.57874,786.9231,789.34064,784.5055,722.4542
1694132410.452,792.96704,802.23444,785.7143,783.69965,642.27106
1694132410.4529998,799.011,799.41394,790.54944,794.9817,639.45056
1694132410.4540002,801.4286,778.0586,792.5641,811.50183,796.5934
1694132410.456,798.20514,770.0,790.54944,809.4872,904.9817
1694132410.457,801.02563,791.3553,793.7729,798.60803,763.95605
1694132410.457,800.2198,790.14655,794.17584,794.9817,679.7436
1694132410.458,792.96704,773.22345,792.5641,789.34064,808.2784
1694132410.459,792.5641,787.72894,794.57874,794.57874,892.0879
1694132410.46,799.81683,813.5165,800.2198,805.8608,726.4835
1694132410.461,806.26373,809.89014,800.6227,796.5934,622.52747
1694132410.492,807.8755,778.0586,798.60803,792.96704,804.2491
1694132410.493,808.68134,783.69965,797.8022,799.011,967.4359
1694132410.493,807.0696,824.3956,795.78754,801.02563,742.1978
1694132410.4940002,802.23444,805.05493,799.41394,804.2491,691.4286
1694132410.4950001,799.011,793.36993,801.02563,797.8022,735.34796
1694132410.4950001,790.14655,797.8022,794.9817,792.1612,788.5348
1694132410.496,786.1172,801.02563,794.57874,792.5641,805.05493
1694132410.497,787.326,801.8315,798.20514,797.8022,772.4176
1694132410.498,777.6557,770.0,794.17584,799.81683,1034.3224
1694132410.498,776.8498,766.77655,788.5348,796.1905,1271.6483
1694132410.499,782.49084,827.619,786.9231,774.0293,859.0476
1694132410.499,785.31134,820.7692,786.9231,778.86444,617.6923
1694132410.501,781.685,799.011,786.9231,797.3993,720.0366
1694132410.501,780.4762,812.71063,787.72894,795.38464,722.8571
1694132410.5049999,783.69965,809.4872,788.93774,790.54944,684.17584
1694132410.5059998,788.5348,794.17584,786.1172,778.0586,678.5348
1694132410.5059998,796.99634,796.5934,785.31134,774.0293,686.1905
1694132410.507,795.78754,796.1905,789.34064,784.10254,763.5531
1694132410.507,799.41394,788.93774,790.54944,789.34064,823.5897
1694132410.508,796.99634,770.40295,790.54944,790.9524,883.6264
1694132410.508,783.69965,773.22345,791.3553,788.93774,964.61536
1694132410.5089998,780.07324,815.9341,788.1319,784.90845,778.46155
1694132410.5089998,785.7143,805.05493,792.1612,795.38464,674.90845
1694132410.5100002,791.3553,783.69965,794.57874,800.6227,751.8681
1694132410.5649998,786.1172,792.1612,793.36993,789.34064,762.74725
1694132410.5660002,781.28204,800.2198,796.99634,785.7143,672.0879
1694132410.5670002,782.0879,790.9524,792.96704,782.49084,618.9011
1694132410.568,787.326,780.07324,790.14655,790.14655,734.5421
1694132410.568,790.14655,794.57874,794.17584,802.23444,815.9341
1694132410.569,783.69965,790.14655,793.7729,790.54944,786.9231
1694132410.57,786.1172,786.9231,794.57874,779.67035,748.6447
1694132410.57,793.36993,765.16486,796.1905,788.1319,1019.011
1694132410.571,787.326,771.2088,794.17584,796.5934,1276.8865
1694132410.572,775.64105,828.4249,790.9524,790.54944,911.02563
1694132410.573,779.2674,810.293,793.36993,790.54944,717.619
1694132410.573,793.7729,790.54944,800.2198,793.36993,761.13556
1694132410.597,792.1612,798.20514,796.5934,783.69965,669.67035
1694132410.598,786.52014,791.75824,796.5934,779.67035,601.1722
1694132410.599,780.87915,767.98535,797.8022,788.93774,795.78754
1694132410.6,778.86444,771.2088,792.96704,789.7436,901.75824
1694132410.604,790.9524,799.41394,795.78754,787.72894,758.71796
1694132410.604,793.36993,791.75824,799.011,784.5055,693.8461
1694132410.605,791.3553,763.5531,795.78754,787.326,822.381
1694132410.605,790.14655,771.6117,801.4286,803.44324,1012.1612
1694132410.6060002,794.17584,818.7546,803.8461,804.2491,814.3223
1694132410.6060002,802.6374,807.8755,799.81683,794.9817,691.4286
1694132410.607,799.41394,788.1319,800.6227,783.2967,733.73627
1694132410.607,796.5934,797.3993,803.0403,780.87915,751.8681
1694132410.6620002,794.9817,803.8461,804.2491,791.3553,768.7912
1694132410.663,788.1319,790.9524,804.65204,796.1905,784.90845
1694132410.664,790.14655,784.5055,804.2491,788.1319,795.38464
1694132410.664,793.36993,793.7729,800.6227,781.685,754.2857
1694132410.665,787.72894,785.31134,799.81683,781.685,722.8571
1694132410.665,791.75824,790.9524,805.05493,794.57874,697.47253
1694132410.665,796.1905,778.86444,807.8755,813.1135,1068.9744
1694132410.666,788.93774,789.34064,805.8608,811.50183,1195.0916
1694132410.666,789.34064,823.1868,799.41394,792.1612,739.3773
1694132410.667,807.8755,813.5165,800.6227,790.9524,640.65936
1694132410.667,811.0989,783.2967,807.0696,810.293,931.978
1694132410.668,802.23444,805.05493,801.4286,816.337,959.3773
1694132410.6950002,805.05493,826.8132,798.20514,807.8755,695.8608
1694132410.696,807.47253,790.9524,803.0403,804.2491,694.65204
1694132410.696,803.8461,790.54944,803.44324,799.41394,717.619
1694132410.697,806.6667,813.91943,804.2491,806.6667,732.9304
1694132410.697,801.4286,807.8755,808.68134,820.3663,723.663
1694132410.698,799.81683,779.67035,812.3077,823.1868,931.978
1694132410.7020001,803.8461,783.69965,808.68134,816.337,1074.6154
1694132410.7020001,796.5934,814.7253,803.8461,805.05493,813.5165
1694132410.703,797.3993,820.3663,803.44324,806.6667,695.8608
1694132410.704,806.26373,782.8938,803.0403,819.9634,879.59705
1694132410.705,807.47253,779.67035,803.44324,811.9048,1023.44324
1694132410.7059999,809.89014,821.978,807.0696,783.69965,796.1905
1694132410.761,818.7546,806.26373,807.47253,788.1319,653.1502
1694132410.761,810.293,801.02563,805.05493,805.8608,666.04395
1694132410.7619998,803.0403,813.91943,803.8461,809.89014,779.67035
1694132410.763,810.696,808.68134,799.011,808.68134,762.74725
1694132410.764,810.696,789.7436,796.1905,801.8315,662.01465
1694132410.7649999,799.011,781.685,796.5934,799.011,772.01465
1694132410.767,796.1905,792.96704,799.81683,804.65204,787.326
1694132410.767,801.4286,793.36993,801.02563,813.5165,728.49817
1694132410.768,799.41394,791.3553,800.2198,815.9341,678.5348
1694132410.769,801.4286,767.1795,799.41394,811.0989,898.5348
1694132410.77,804.65204,780.87915,801.8315,802.23444,1073.0037
1694132410.77,805.05493,836.4835,807.8755,802.23444,701.0989
1694132410.797,808.68134,807.8755,800.6227,809.4872,685.78754
1694132410.798,806.6667,787.326,799.011,810.696,880.0
1694132410.799,794.17584,815.5311,799.81683,796.99634,804.2491
1694132410.8,797.3993,812.3077,796.99634,787.72894,679.34064
1694132410.8,806.6667,794.17584,796.99634,789.34064,751.4652
1694132410.8009999,801.02563,788.5348,796.5934,799.41394,908.20514
1694132410.8009999,796.1905,796.5934,798.20514,811.9048,869.12085
1694132410.8019998,802.23444,810.293,796.1905,797.3993,745.42126
1694132410.8060002,811.9048,783.2967,794.57874,787.326,833.2601
1694132410.8070002,811.50183,779.2674,794.9817,795.38464,997.25275
1694132410.808,808.2784,825.6044,797.3993,793.7729,805.4579
1694132410.808,803.8461,809.89014,800.6227,797.8022,684.17584
1694132410.8409998,805.8608,790.14655,801.8315,796.1905,819.15753
1694132410.8419998,811.9048,801.4286,800.6227,791.3553,886.04395
1694132410.8430002,811.9048,809.4872,796.99634,795.38464,733.3333
1694132410.844,804.65204,796.99634,799.81683,808.68134,668.86444
1694132410.844,805.4579,784.90845,802.23444,815.9341,772.4176
1694132410.845,808.68134,800.6227,802.6374,807.0696,851.79486
1694132410.845,806.26373,806.26373,806.26373,794.57874,749.0476
1694132410.8460002,811.50183,801.4286,807.8755,797.3993,663.6264
1694132410.8460002,815.9341,776.8498,810.293,823.5897,982.3443
1694132410.8470001,808.68134,788.1319,813.1135,834.87177,1119.7435
1694132410.8470001,808.2784,839.304,810.293,822.7839,735.7509
1694132410.848,814.3223,815.9341,805.05493,807.47253,607.619
1694132410.8969998,805.05493,803.44324,802.23444,794.9817,643.47986
1694132410.8979998,808.68134,822.7839,802.23444,799.81683,663.6264
1694132410.8990002,814.7253,819.9634,803.8461,806.6667,665.64105
1694132410.8990002,809.89014,800.2198,805.4579,797.8022,799.81683
1694132410.9,808.2784,800.6227,806.6667,790.54944,877.5824
1694132410.901,802.23444,807.47253,807.8755,798.20514,787.72894
1694132410.901,800.6227,809.0842,807.8755,797.8022,777.25275
1694132410.9020002,797.3993,790.9524,807.0696,803.8461,846.9597
1694132410.903,796.1905,786.9231,808.2784,815.12823,1095.5677
1694132410.903,805.8608,835.6777,806.6667,800.6227,888.0586
1694132410.907,810.293,826.8132,806.6667,788.5348,636.63007
1694132410.908,810.293,805.05493,809.4872,793.7729,718.022
1694132410.9539998,802.23444,805.8608,808.2784,801.4286,740.58606
1694132410.9550002,794.17584,806.6667,807.8755,799.41394,713.1868
1694132410.956,807.47253,801.8315,811.50183,794.17584,715.6044
1694132410.957,807.8755,799.011,807.0696,787.326,736.55676
1694132410.9580002,791.75824,805.4579,805.05493,793.7729,733.73627
1694132410.959,791.3553,800.6227,811.0989,803.0403,777.25275
1694132410.96,791.75824,800.6227,809.89014,801.4286,776.4469
1694132410.961,788.1319,773.22345,807.8755,807.47253,964.21246
1694132410.962,790.9524,782.0879,805.8608,806.26373,1164.4689
1694132410.963,795.78754,832.4542,807.47253,793.7729,828.022
1694132410.963,790.14655,808.2784,809.4872,796.5934,701.9048
1694132410.964,787.326,787.72894,809.0842,803.44324,815.9341
1694132410.999,792.5641,812.71063,803.0403,785.7143,762.3443
1694132411.0,791.3553,815.12823,799.81683,773.6264,668.46155
1694132411.001,795.38464,785.31134,802.6374,784.90845,710.7692
1694132411.001,805.4579,783.2967,803.0403,789.34064,788.93774
1694132411.0019999,804.65204,796.99634,801.4286,797.3993,780.4762
1694132411.003,799.011,785.7143,799.011,785.31134,725.6777
1694132411.004,799.41394,768.3883,795.78754,774.83514,907.3993
1694132411.004,803.0403,763.5531,793.36993,785.7143,1127.8022
1694132411.0049999,800.6227,798.60803,793.7729,780.4762,910.2198
1694132411.0049999,801.02563,800.6227,796.99634,780.4762,760.32965
1694132411.006,803.44324,774.43225,796.99634,788.1319,852.6007
1694132411.007,804.65204,787.72894,794.17584,785.7143,830.0366
1694132411.059,800.6227,809.0842,792.96704,783.2967,705.12823
1694132411.0609999,799.011,788.93774,792.5641,798.60803,726.4835
1694132411.062,797.8022,784.5055,794.57874,814.7253,786.9231
1694132411.063,787.326,799.81683,795.78754,807.0696,788.1319
1694132411.064,777.25275,803.44324,795.38464,789.34064,728.0952
1694132411.0649998,777.6557,783.2967,795.78754,791.75824,782.0879
1694132411.066,780.07324,776.4469,793.36993,796.1905,914.65204
1694132411.0670002,782.49084,782.0879,789.7436,794.57874,865.89746
1694132411.0670002,790.9524,789.7436,792.5641,796.1905,810.293
1694132411.068,799.011,790.14655,794.17584,784.90845,689.41394
1694132411.069,801.8315,752.674,792.1612,787.326,894.10254
1694132411.069,800.6227,776.04395,791.75824,796.1905,1178.1685
1694132411.127,803.0403,828.8278,789.7436,791.3553,841.31866
1694132411.128,808.2784,799.011,793.36993,797.8022,706.337
1694132411.129,811.9048,786.1172,796.99634,789.34064,712.7839
1694132411.1299999,819.9634,804.65204,791.75824,774.83514,615.2747
1694132411.131,821.1722,802.6374,790.9524,786.1172,627.76556
1694132411.131,812.3077,774.0293,793.7729,805.8608,902.1612
1694132411.132,805.8608,780.4762,793.36993,814.7253,1124.9817
1694132411.133,797.8022,819.15753,790.54944,795.38464,841.31866
1694132411.133,809.0842,810.696,791.3553,783.2967,607.619
1694132411.134,810.293,780.4762,796.1905,804.65204,735.34796
1694132411.135,792.96704,785.7143,797.8022,810.293,854.61536
1694132411.136,791.3553,805.05493,796.99634,796.99634,767.98535
1694132411.177,800.6227,791.3553,796.1905,793.7729,705.5311
1694132411.1790001,807.47253,784.90845,796.1905,792.5641,711.1722
1694132411.184,805.05493,803.44324,795.38464,787.326,748.6447
1694132411.185,796.5934,813.5165,797.8022,788.93774,751.06226
1694132411.1859999,792.1612,800.6227,801.02563,801.02563,686.99634
1694132411.1859999,796.99634,761.9414,801.4286,806.26373,940.84247
1694132411.187,809.0842,771.6117,800.6227,791.3553,1059.3041
1694132411.188,811.0989,814.7253,800.2198,786.1172,785.7143
1694132411.188,803.8461,811.0989,799.81683,799.011,701.50183
1694132411.189,796.1905,774.0293,796.99634,807.0696,930.7692
1694132411.19,791.3553,786.9231,789.34064,801.8315,1000.4762
1694132411.19,790.14655,823.5897,790.14655,788.5348,649.5238
1694132411.191,798.60803,792.96704,798.60803,792.96704,657.1795
1694132411.192,804.65204,785.7143,803.44324,802.6374,742.6007
1694132411.1929998,797.3993,798.20514,799.81683,801.8315,765.16486
1694132411.1929998,799.41394,792.5641,795.38464,795.38464,708.3516
1694132411.1939998,801.8315,767.1795,785.31134,790.14655,674.10254
1694132411.1950002,799.011,766.77655,780.4762,786.9231,798.20514
1694132411.196,802.23444,786.52014,782.49084,786.9231,824.3956
1694132411.196,798.20514,799.011,783.69965,793.7729,745.82416
1694132411.197,792.5641,782.49084,785.7143,794.57874,850.58606
1694132411.197,796.1905,784.5055,784.10254,788.93774,868.71796
1694132411.1980002,796.99634,807.0696,782.49084,785.7143,671.685
1694132411.1990001,794.9817,794.17584,783.69965,796.1905,655.56775
1694132411.228,794.9817,769.19415,783.2967,802.23444,895.7143
1694132411.2289999,799.011,776.4469,784.90845,799.41394,1104.0293
1694132411.23,803.0403,830.4396,786.52014,791.3553,812.3077
1694132411.23,807.0696,815.5311,782.49084,786.52014,675.31134
1694132411.234,801.4286,790.54944,783.2967,789.34064,725.6777
1694132411.2350001,802.23444,790.14655,784.10254,797.3993,809.89014
1694132411.2350001,809.4872,792.1612,785.7143,794.17584,903.7729
1694132411.236,805.4579,798.20514,790.9524,788.1319,748.24176
1694132411.236,800.6227,772.01465,794.57874,793.7729,942.0513
1694132411.237,792.1612,782.8938,792.5641,807.8755,1192.2711
1694132411.237,790.9524,834.87177,793.36993,811.9048,821.5751
1694132411.2380002,798.20514,804.65204,794.9817,793.7729,699.4872
1694132411.275,805.4579,787.72894,797.8022,788.5348,824.7985
1694132411.276,809.4872,822.381,804.2491,786.52014,712.381
1694132411.278,802.23444,819.15753,802.6374,779.2674,617.28937
1694132411.28,811.50183,795.38464,799.41394,798.60803,735.7509
1694132411.281,813.5165,789.7436,797.8022,810.293,771.6117
1694132411.2819998,799.81683,794.17584,795.38464,802.23444,808.2784
1694132411.283,805.05493,799.011,796.99634,794.9817,822.381
1694132411.2849998,809.0842,779.2674,795.78754,799.81683,847.3626
1694132411.286,812.3077,781.28204,792.96704,803.8461,1020.2198
1694132411.2870002,800.2198,814.3223,792.96704,791.3553,886.04395
1694132411.288,793.36993,802.6374,794.9817,784.5055,706.7399
1694132411.289,802.23444,784.10254,792.96704,788.93774,761.13556
1694132411.3569999,799.011,799.81683,790.9524,794.9817,820.7692
1694132411.358,797.3993,813.91943,792.1612,796.1905,734.1392
1694132411.359,792.1612,795.78754,789.34064,803.8461,713.9927
1694132411.36,795.38464,794.57874,791.75824,807.47253,726.08057
1694132411.3609998,804.2491,803.0403,792.1612,795.78754,698.68134
1694132411.3609998,804.65204,794.9817,793.36993,797.3993,712.381
1694132411.3660002,796.99634,793.36993,794.57874,805.4579,784.10254
1694132411.367,802.23444,768.3883,795.78754,813.91943,1099.597
1694132411.368,813.91943,787.72894,796.1905,814.7253,1197.9121
1694132411.369,807.8755,836.08057,795.38464,794.17584,786.1172
1694132411.369,807.47253,807.8755,799.41394,793.36993,656.3736
1694132411.37,813.91943,795.78754,800.6227,807.0696,697.0696
1694132411.4,809.4872,805.05493,797.8022,806.26373,778.0586
1694132411.401,808.2784,815.5311,798.20514,792.5641,763.95605
1694132411.401,811.50183,799.011,800.2198,786.9231,695.8608
1694132411.402,805.8608,793.36993,798.60803,792.1612,778.86444
1694132411.403,809.89014,817.1429,801.02563,805.05493,734.1392
1694132411.404,813.1135,804.65204,805.05493,819.5604,747.8388
1694132411.404,809.0842,775.2381,801.02563,814.7253,923.5165
1694132411.405,803.44324,780.4762,801.02563,817.1429,1037.9487
1694132411.405,805.4579,828.8278,802.6374,813.1135,769.59705
1694132411.4060001,803.0403,819.5604,797.8022,803.8461,666.04395
1694132411.407,786.1172,796.5934,795.78754,809.89014,791.75824
1694132411.407,789.34064,804.65204,797.3993,809.89014,786.52014
1694132411.416,796.1905,807.8755,797.3993,798.60803,727.6923
1694132411.4169998,803.0403,796.5934,798.20514,789.7436,693.0403
1694132411.418,808.2784,794.57874,804.65204,798.20514,772.01465
1694132411.4190001,796.99634,806.6667,803.0403,808.2784,870.32965
1694132411.42,795.38464,807.8755,798.20514,800.6227,806.6667
1694132411.42,805.8608,798.20514,801.4286,797.8022,739.7802
1694132411.421,811.0989,778.86444,801.02563,804.2491,999.67035
1694132411.4220002,810.696,775.2381,799.011,813.1135,1299.8535
1694132411.4259999,807.8755,826.0073,800.2198,814.3223,962.6007
1694132411.427,814.3223,820.7692,801.4286,804.2491,696.26373
1694132411.428,818.7546,796.99634,796.99634,790.14655,786.52014
1694132411.429,809.89014,813.1135,794.9817,785.31134,665.64105
1694132411.476,801.4286,813.5165,799.41394,793.7729,618.0952
1694132411.4780002,800.6227,792.96704,802.23444,807.0696,747.03296
1694132411.479,804.65204,790.54944,801.4286,808.68134,750.65936
1694132411.48,809.89014,816.337,800.6227,797.3993,695.05493
1694132411.481,817.1429,813.5165,803.0403,790.14655,694.65204
1694132411.4819999,811.0989,792.5641,805.8608,800.6227,813.1135
1694132411.483,814.3223,793.36993,802.6374,805.4579,844.5421
1694132411.484,817.9487,801.8315,799.41394,792.96704,854.21246
1694132411.484,801.8315,808.68134,797.8022,787.326,813.1135
1694132411.485,806.6667,774.83514,794.17584,787.72894,798.60803
1694132411.486,809.89014,758.71796,795.78754,800.6227,1044.7986
1694132411.486,795.78754,818.3516,799.41394,803.44324,878.3883
1694132411.544,786.9231,817.9487,801.8315,798.60803,713.9927
1694132411.5449998,786.9231,799.011,803.8461,796.99634,746.63007
1694132411.5449998,797.3993,810.696,805.05493,783.69965,706.337
1694132411.5459998,806.6667,817.1429,809.0842,786.1172,688.60803
1694132411.5470002,800.6227,807.8755,808.2784,805.05493,754.68866
1694132411.548,795.78754,787.72894,803.8461,811.50183,880.0
1694132411.549,799.011,795.78754,801.4286,802.23444,884.0293
1694132411.549,806.26373,804.2491,803.8461,791.75824,770.40295
1694132411.5500002,807.0696,806.26373,801.8315,786.1172,717.619
1694132411.551,804.2491,780.87915,800.2198,806.26373,968.6447
1694132411.557,805.05493,778.46155,801.4286,820.3663,1239.414
1694132411.558,814.7253,828.022,801.8315,794.57874,923.5165
1694132411.559,812.71063,811.0989,804.65204,785.7143,656.77655
1694132411.56,803.8461,799.011,805.8608,794.9817,704.7253
1694132411.5609999,804.65204,814.3223,807.0696,804.2491,714.7985
1694132411.5619998,800.2198,809.89014,804.65204,809.0842,726.4835
1694132411.563,795.38464,784.90845,803.0403,803.44324,820.3663
1694132411.563,801.8315,779.67035,802.6374,801.8315,841.7216
1694132411.564,809.0842,808.2784,801.4286,802.6374,742.6007
1694132411.5649998,811.0989,821.1722,800.2198,803.8461,669.67035
1694132411.5649998,809.89014,800.2198,800.2198,822.7839,819.15753
1694132411.5660002,799.41394,794.57874,795.78754,821.1722,1047.619
1694132411.5670002,803.8461,830.4396,799.011,809.4872,878.3883
1694132411.568,809.89014,816.337,804.65204,802.6374,741.39197
1694132411.649,805.05493,797.8022,803.0403,809.4872,815.9341
1694132411.6499999,806.6667,809.89014,803.44324,829.6337,848.5714
1694132411.6499999,797.3993,815.12823,800.6227,818.3516,723.2601
1694132411.651,791.75824,797.3993,793.7729,801.8315,675.31134
1694132411.652,800.2198,793.7729,794.17584,803.44324,668.46155
1694132411.652,797.8022,795.78754,790.9524,806.6667,720.0366
1694132411.6529999,797.3993,796.1905,787.326,799.41394,761.53845
1694132411.654,793.7729,797.3993,789.7436,801.8315,763.5531
1694132411.654,784.10254,769.19415,788.5348,793.7729,1021.02563
1694132411.655,786.52014,785.31134,785.7143,785.31134,1104.4323
1694132411.656,780.4762,820.7692,784.5055,778.86444,788.5348
1694132411.656,779.2674,787.72894,788.5348,784.10254,742.1978
1694132411.661,781.685,788.1319,790.9524,789.34064,822.7839
1694132411.6620002,795.38464,795.78754,790.14655,783.69965,770.80585
1694132411.663,809.89014,803.44324,792.96704,783.69965,652.3443
1694132411.664,805.8608,793.7729,791.75824,792.1612,696.26373
1694132411.664,801.02563,775.64105,788.5348,801.8315,823.5897
1694132411.665,802.6374,791.3553,797.3993,794.17584,798.20514
1694132411.666,797.3993,793.36993,800.2198,784.90845,772.01465
1694132411.666,796.1905,784.10254,793.36993,789.34064,810.696
1694132411.667,802.6374,799.81683,794.9817,795.38464,809.4872
1694132411.668,796.5934,819.9634,799.81683,804.65204,740.989
1694132411.668,790.54944,804.65204,801.8315,805.4579,746.2271
1694132411.67,800.2198,787.326,799.011,797.3993,830.84247
1694132411.722,805.05493,803.0403,795.78754,791.75824,807.8755
1694132411.723,801.4286,813.5165,797.3993,795.38464,722.0513
1694132411.724,801.8315,801.4286,798.60803,807.8755,707.9487
1694132411.724,800.2198,763.5531,796.5934,817.5458,944.0659
1694132411.725,796.5934,771.6117,794.9817,813.5165,1106.044
1694132411.726,799.81683,811.50183,792.96704,790.54944,840.5128
1694132411.727,803.0403,808.2784,786.9231,784.5055,650.7326
1694132411.727,797.3993,779.67035,789.34064,798.20514,904.57874
1694132411.728,801.02563,777.25275,795.38464,815.5311,1319.1941
1694132411.7289999,808.68134,835.6777,796.1905,805.8608,987.98535
1694132411.7289999,810.696,830.84247,795.38464,782.8938,657.1795
1694132411.7299998,815.5311,815.12823,793.36993,776.04395,694.65204
1694132411.731,814.3223,825.6044,794.57874,786.9231,709.9634
1694132411.732,805.4579,813.91943,793.7729,799.81683,678.5348
1694132411.736,798.20514,794.9817,794.57874,800.2198,714.3956
1694132411.737,807.8755,798.60803,795.78754,799.41394,751.4652
1694132411.738,821.1722,813.1135,798.20514,793.36993,693.44324
1694132411.739,815.9341,800.6227,802.23444,792.96704,709.15753
1694132411.739,801.4286,783.2967,801.4286,802.6374,878.7912
1694132411.74,801.02563,771.6117,803.0403,815.9341,1217.2528
1694132411.74,803.44324,817.5458,809.0842,803.44324,1005.7143
1694132411.741,801.4286,828.022,808.68134,788.93774,662.4176
1694132411.742,801.02563,795.38464,805.4579,794.57874,714.3956
1694132411.743,793.7729,801.4286,803.44324,800.6227,723.2601
1694132411.7910001,796.1905,811.0989,803.44324,802.6374,711.1722
1694132411.792,806.26373,803.0403,805.05493,799.011,677.326
1694132411.793,803.8461,795.78754,804.65204,796.1905,656.3736
1694132411.794,798.60803,804.65204,801.02563,794.9817,682.96704
1694132411.795,789.7436,799.011,799.011,803.0403,721.6484
1694132411.796,790.54944,787.326,796.1905,807.0696,738.5714
1694132411.797,804.65204,766.77655,794.17584,803.8461,996.04395
1694132411.798,799.011,784.90845,798.20514,795.38464,1046.0073
1694132411.799,793.7729,825.6044,796.1905,792.1612,699.0842
1694132411.8,801.4286,806.6667,796.1905,803.0403,680.54944
1694132411.8009999,796.5934,774.0293,796.1905,807.47253,968.6447
1694132411.803,796.99634,804.2491,795.38464,804.65204,953.3333
1694132411.829,801.4286,822.381,797.8022,782.49084,639.85345
1694132411.8300002,796.5934,790.9524,793.7729,776.4469,677.72894
1694132411.831,792.1612,792.5641,791.3553,795.38464,778.0586
1694132411.832,789.34064,801.8315,794.9817,803.8461,759.12085
1694132411.836,789.34064,793.36993,794.57874,798.60803,714.7985
1694132411.837,801.4286,765.9707,794.17584,787.326,812.3077
1694132411.837,810.696,773.6264,798.60803,799.011,914.2491
1694132411.838,800.2198,812.3077,798.20514,808.2784,744.21246
1694132411.838,790.54944,809.4872,796.1905,795.38464,645.09155
1694132411.839,792.96704,770.40295,799.011,795.78754,823.9927
1694132411.839,800.2198,776.4469,803.0403,798.60803,865.4945
1694132411.84,799.81683,809.4872,802.23444,796.5934,697.47253
1694132411.872,803.0403,795.78754,802.23444,797.8022,763.1502
1694132411.873,808.68134,784.90845,799.41394,788.93774,857.4359
1694132411.8739998,805.8608,803.0403,792.5641,786.9231,821.5751
1694132411.8739998,804.2491,812.3077,787.72894,785.31134,673.69965
1694132411.875,811.50183,791.3553,790.9524,787.326,662.01465
1694132411.875,814.3223,786.52014,796.99634,795.78754,871.13556
1694132411.876,808.68134,794.57874,795.78754,804.2491,981.13556
1694132411.876,806.6667,798.60803,797.3993,811.9048,852.6007
1694132411.8769999,807.0696,802.23444,798.60803,795.78754,707.1429
1694132411.878,803.44324,776.04395,794.17584,795.38464,927.5458
1694132411.878,799.81683,792.1612,796.99634,814.7253,1065.348
1694132411.879,800.6227,836.4835,804.65204,819.5604,761.13556
1694132411.906,802.23444,807.0696,801.4286,811.0989,706.337
1694132411.907,808.2784,795.38464,800.2198,794.9817,690.2198
1694132411.908,808.2784,794.9817,799.011,796.99634,692.6374
1694132411.908,800.6227,796.5934,798.20514,797.8022,712.381
1694132411.909,802.6374,788.93774,800.2198,805.8608,828.022
1694132411.909,809.89014,778.0586,797.3993,819.9634,1056.0806
1694132411.9129999,809.4872,806.6667,795.38464,808.2784,931.1722
1694132411.9139998,805.4579,817.5458,793.7729,790.54944,707.9487
1694132411.9139998,804.2491,782.0879,793.7729,799.81683,793.7729
1694132411.915,803.0403,776.4469,794.57874,819.15753,1001.28204
1694132411.916,801.8315,820.7692,793.7729,812.71063,818.7546
1694132411.916,805.8608,802.6374,793.36993,791.3553,687.3993
1694132411.96,803.44324,790.54944,797.8022,786.52014,682.5641
1694132411.962,797.3993,805.05493,804.2491,800.2198,681.75824
1694132411.963,800.6227,806.26373,801.8315,799.011,741.79486
1694132411.964,808.68134,795.38464,803.0403,797.3993,778.0586
1694132411.965,802.23444,788.1319,807.0696,796.5934,764.7619
1694132411.965,795.78754,788.5348,803.0403,789.7436,767.1795
1694132411.966,799.81683,787.72894,798.60803,794.9817,753.47986
1694132411.967,803.0403,794.57874,800.6227,800.6227,765.16486
1694132411.967,803.44324,774.0293,805.4579,808.2784,1079.4506
1694132411.968,806.26373,769.59705,802.6374,803.8461,1300.2565
1694132411.9689999,806.6667,821.1722,795.38464,782.0879,927.9487
1694132411.9689999,807.47253,808.68134,799.41394,788.1319,668.0586
1694132412.017,808.68134,792.5641,807.0696,805.8608,740.58606
1694132412.018,802.23444,801.02563,807.8755,801.02563,754.68866
1694132412.018,802.6374,794.57874,805.4579,792.96704,693.44324
1694132412.019,801.4286,783.69965,798.60803,784.10254,678.5348
1694132412.02,805.05493,782.8938,799.011,782.8938,704.3223
1694132412.021,804.65204,790.14655,803.0403,794.57874,784.90845
1694132412.021,791.75824,790.14655,805.4579,802.23444,807.47253
1694132412.022,786.1172,772.01465,805.05493,791.75824,889.67035
1694132412.0259998,793.7729,757.50916,798.60803,797.3993,1180.989
1694132412.027,791.3553,809.0842,792.96704,795.38464,946.4835
1694132412.027,788.5348,815.5311,794.57874,789.34064,691.4286
1694132412.028,792.96704,782.0879,793.36993,794.57874,820.7692
1694132412.0860002,798.60803,800.2198,791.75824,797.8022,801.4286
1694132412.0870001,806.6667,811.9048,792.1612,789.34064,723.2601
1694132412.088,807.0696,797.8022,793.7729,784.10254,692.6374
1694132412.088,804.2491,789.7436,790.9524,784.90845,770.0
1694132412.089,807.8755,792.96704,788.1319,788.5348,780.07324
1694132412.09,801.02563,782.49084,789.7436,805.8608,760.7326
1694132412.091,790.9524,782.8938,791.75824,803.44324,745.82416
1694132412.091,794.57874,762.3443,793.36993,794.9817,995.2381
1694132412.092,793.7729,767.1795,786.1172,798.20514,1258.3517
1694132412.093,792.5641,819.15753,782.0879,784.5055,889.67035
1694132412.095,798.20514,796.5934,786.1172,778.46155,707.1429
1694132412.096,809.0842,783.2967,788.93774,786.52014,788.93774
1694132412.119,805.05493,807.0696,789.7436,786.9231,698.2784
1694132412.121,795.38464,803.44324,786.1172,788.1319,642.674
1694132412.1230001,796.99634,783.2967,783.69965,797.8022,719.6337
1694132412.124,797.3993,783.2967,785.31134,796.1905,742.1978
1694132412.124,800.6227,794.9817,793.36993,786.1172,665.2381
1694132412.125,804.65204,788.1319,794.9817,779.2674,602.7839
1694132412.1260002,799.41394,773.6264,787.72894,783.2967,744.61536
1694132412.127,787.326,777.25275,783.69965,802.23444,1021.8315
1694132412.128,784.90845,817.1429,784.5055,794.9817,888.46155
1694132412.129,793.7729,809.4872,790.54944,778.86444,705.5311
1694132412.133,801.4286,787.326,792.1612,776.8498,718.4249
1694132412.134,802.6374,796.5934,800.2198,783.2967,724.87177
1694132412.141,802.6374,799.011,809.89014,802.23444,740.58606
1694132412.1420002,801.8315,784.5055,803.0403,808.68134,746.63007
1694132412.1430001,799.011,781.685,798.20514,795.38464,831.6484
1694132412.1430001,799.81683,801.4286,796.1905,782.8938,815.9341
1694132412.144,801.4286,806.26373,796.5934,787.326,695.4579
1694132412.144,798.20514,784.90845,804.65204,802.6374,730.5128
1694132412.145,791.75824,783.69965,806.6667,811.50183,863.0769
1694132412.146,794.57874,794.57874,805.05493,805.4579,875.9707
1694132412.146,801.4286,805.05493,802.6374,789.7436,723.663
1694132412.147,807.0696,801.02563,804.65204,786.52014,601.5751
1694132412.147,809.89014,759.92676,803.8461,802.6374,902.1612
1694132412.148,801.4286,781.685,801.02563,815.9341,1110.0732
1694132412.241,790.14655,827.2161,800.2198,799.41394,757.1062
1694132412.2419999,797.3993,794.17584,803.0403,788.93774,656.77655
1694132412.243,805.05493,790.54944,803.0403,787.326,667.6557
1694132412.244,793.36993,802.6374,799.011,793.7729,717.2161
1694132412.245,794.57874,801.02563,799.81683,796.1905,783.69965
1694132412.245,798.20514,790.54944,806.26373,797.3993,857.03296
1694132412.246,795.78754,767.1795,811.0989,799.41394,1175.348
1694132412.247,789.34064,810.696,812.3077,790.9524,987.1795
1694132412.248,789.34064,829.6337,813.91943,786.52014,655.16486
1694132412.2489998,795.38464,799.41394,805.4579,793.7729,745.0183
1694132412.2489998,794.17584,807.0696,801.4286,802.23444,776.4469
1694132412.2499998,802.23444,819.5604,805.8608,800.6227,703.1135
1694132412.2940001,805.05493,798.20514,808.2784,795.38464,656.3736
1694132412.295,801.02563,782.8938,810.696,799.41394,725.6777
1694132412.296,796.99634,791.75824,815.5311,805.05493,784.90845
1694132412.296,796.5934,796.1905,817.1429,802.6374,743.00366
1694132412.297,800.2198,790.14655,813.91943,790.9524,714.7985
1694132412.2979999,813.91943,784.90845,815.12823,793.36993,838.0952
1694132412.2979999,815.12823,801.8315,813.1135,804.65204,898.93774
1694132412.299,799.81683,809.89014,805.8608,804.65204,844.94507
1694132412.299,792.96704,813.91943,804.2491,804.65204,836.4835
1694132412.3,796.1905,781.685,810.696,803.8461,1018.60803
1694132412.3009999,801.8315,776.8498,815.12823,798.20514,1193.0769
1694132412.3009999,797.8022,836.08057,813.5165,797.3993,920.293
1694132412.303,798.60803,822.381,815.5311,803.0403,726.4835
1694132412.303,805.05493,799.41394,815.5311,794.57874,770.80585
1694132412.304,801.4286,811.50183,812.71063,789.7436,705.12823
1694132412.3049998,801.8315,810.293,815.9341,789.7436,620.10986
1694132412.3049998,799.41394,799.81683,816.7399,789.34064,734.1392
1694132412.3059998,803.44324,788.5348,818.7546,803.8461,874.35895
1694132412.3070002,811.9048,799.011,826.0073,809.89014,812.71063
1694132412.3070002,802.23444,810.293,819.9634,792.1612,695.05493
1694132412.308,792.1612,780.87915,811.0989,791.75824,784.90845
1694132412.309,796.1905,759.12085,810.293,811.0989,1127.3993
1694132412.309,793.7729,809.89014,809.0842,807.0696,937.2161
1694132412.3100002,790.54944,817.9487,806.6667,796.1905,694.65204
1694132412.369,799.41394,796.1905,801.4286,793.36993,713.9927
1694132412.37,809.4872,805.8608,801.4286,791.3553,664.83514
1694132412.374,802.6374,811.0989,805.8608,787.326,660.0
1694132412.375,799.81683,797.8022,803.0403,792.1612,694.65204
1694132412.375,813.91943,786.1172,801.8315,807.0696,732.9304
1694132412.376,812.71063,785.7143,803.44324,801.02563,759.5238
1694132412.3769999,807.47253,791.75824,804.2491,793.7729,754.2857
1694132412.3769999,813.1135,797.3993,803.8461,799.81683,722.4542
1694132412.3779998,819.15753,774.83514,806.26373,816.7399,1011.3553
1694132412.379,817.5458,796.5934,811.0989,832.4542,1181.7949
1694132412.379,814.7253,844.94507,813.5165,823.9927,803.44324
1694132412.38,810.293,813.1135,813.5165,807.0696,709.5604
1694132412.423,812.3077,803.8461,811.9048,800.2198,806.26373
1694132412.424,816.337,819.9634,806.26373,810.696,714.3956
1694132412.425,809.89014,813.5165,805.4579,813.1135,664.43225
1694132412.4259999,807.8755,790.14655,810.696,797.8022,724.87177
1694132412.427,808.68134,782.8938,812.3077,794.9817,747.8388
1694132412.427,809.4872,800.6227,813.91943,789.34064,751.4652
1694132412.428,801.8315,805.8608,812.3077,788.5348,832.8571
1694132412.429,802.23444,781.28204,810.293,806.6667,921.9048
1694132412.43,814.7253,779.67035,807.0696,808.68134,1070.586
1694132412.43,815.9341,823.9927,805.05493,788.5348,887.25275
1694132412.431,807.47253,812.71063,802.23444,787.72894,701.9048
1694132412.432,803.8461,790.9524,801.02563,801.02563,747.8388
1694132412.4390001,806.6667,802.6374,805.8608,803.44324,789.7436
1694132412.44,803.8461,803.44324,809.0842,802.23444,761.9414
1694132412.441,806.6667,784.5055,807.0696,800.6227,711.1722
1694132412.442,807.0696,786.1172,807.0696,798.20514,750.2564
1694132412.447,806.6667,801.4286,806.6667,794.9817,760.7326
1694132412.448,804.65204,793.7729,802.6374,797.3993,771.6117
1694132412.448,790.54944,792.96704,800.6227,799.011,757.9121
1694132412.449,791.75824,769.59705,804.65204,801.8315,979.5238
1694132412.4499998,804.2491,781.685,803.44324,804.2491,1131.4286
1694132412.451,794.57874,836.4835,798.20514,799.41394,729.707
1694132412.451,792.1612,807.0696,802.6374,806.26373,657.1795
1694132412.452,796.99634,786.9231,802.23444,811.0989,784.90845
1694132412.513,791.75824,805.8608,797.8022,804.65204,695.4579
1694132412.515,793.7729,798.20514,796.5934,794.9817,609.6337
1694132412.516,794.57874,779.67035,792.96704,792.1612,664.43225
1694132412.517,793.7729,781.685,795.38464,799.81683,714.7985
1694132412.519,803.44324,788.1319,799.81683,805.8608,759.5238
1694132412.523,811.0989,786.1172,802.6374,800.2198,782.0879
1694132412.524,814.3223,779.2674,797.3993,790.14655,807.47253
1694132412.5249999,814.7253,769.19415,793.7729,804.2491,1118.5348
1694132412.526,809.4872,815.9341,800.2198,826.0073,1002.8938
1694132412.527,812.71063,825.6044,805.05493,816.337,700.696
1694132412.528,806.26373,793.7729,800.6227,802.6374,738.5714
1694132412.529,797.3993,796.99634,799.81683,795.38464,728.0952
1694132412.568,802.6374,801.02563,801.02563,789.7436,673.69965
1694132412.573,807.8755,787.72894,800.6227,803.8461,684.17584
1694132412.5740001,797.8022,782.0879,798.60803,808.2784,790.14655
1694132412.575,789.34064,786.9231,790.54944,798.20514,770.80585
1694132412.576,796.5934,784.10254,792.5641,792.5641,666.8498
1694132412.577,795.38464,779.67035,795.38464,793.7729,715.2015
1694132412.5830002,790.14655,764.35895,790.9524,805.05493,1046.8132
1694132412.584,791.75824,782.0879,792.1612,811.9048,1154.3956
1694132412.585,792.1612,803.0403,794.57874,799.41394,874.7619
1694132412.585,794.9817,794.57874,793.7729,780.4762,685.38464
1694132412.586,801.8315,776.8498,794.9817,783.2967,880.40295
1694132412.5870001,799.41394,801.02563,802.23444,787.326,950.9158
1694132412.589,786.52014,828.8278,803.44324,785.31134,718.022
1694132412.589,786.9231,801.4286,799.41394,786.9231,765.9707
1694132412.5900002,794.17584,797.8022,802.6374,778.0586,770.0
1694132412.591,795.38464,810.696,807.0696,779.2674,698.2784
1694132412.593,795.78754,804.65204,802.23444,788.1319,675.7143
1694132412.5939999,796.5934,776.04395,797.3993,802.6374,838.0952
1694132412.595,791.75824,778.46155,801.4286,812.71063,930.3663
1694132412.596,794.9817,819.9634,804.65204,801.4286,727.28937
1694132412.597,807.47253,821.1722,801.4286,782.8938,624.1392
1694132412.598,802.23444,784.5055,799.011,796.1905,764.35895
1694132412.599,795.78754,783.69965,802.23444,801.02563,912.23444
1694132412.6,800.2198,810.293,803.0403,787.326,801.8315
1694132412.632,803.44324,804.65204,801.02563,793.36993,649.5238
1694132412.633,805.05493,765.16486,799.011,799.41394,810.696
1694132412.6339998,805.8608,772.8205,796.1905,799.81683,989.19415
1694132412.635,796.1905,821.1722,794.57874,796.99634,799.81683
1694132412.636,794.17584,801.02563,796.5934,799.41394,742.1978
1694132412.6369998,809.89014,785.7143,800.6227,796.99634,812.3077
1694132412.6369998,810.696,798.60803,801.8315,787.72894,801.02563
1694132412.638,804.2491,803.44324,801.4286,794.9817,768.3883
1694132412.6430001,801.8315,804.65204,800.2198,796.99634,685.78754
1694132412.6430001,811.50183,775.64105,797.3993,801.02563,951.31866
1694132412.644,809.4872,787.72894,793.7729,798.60803,1119.7435
1694132412.645,790.9524,827.619,789.34064,774.83514,715.2015
1694132412.675,790.54944,794.57874,787.72894,773.22345,708.7546
1694132412.676,790.54944,792.1612,792.96704,790.14655,895.31134
1694132412.677,788.5348,808.68134,801.02563,795.78754,828.8278
1694132412.677,790.14655,803.0403,805.8608,790.14655,691.4286
1694132412.6780002,794.17584,778.0586,804.65204,787.72894,771.6117
1694132412.6790001,801.02563,771.6117,805.05493,786.1172,924.7253
1694132412.6790001,800.6227,798.60803,804.2491,798.60803,871.53845
1694132412.68,796.5934,807.8755,799.41394,808.2784,825.2015
1694132412.68,799.41394,787.72894,796.5934,803.0403,863.47986
1694132412.681,798.60803,762.74725,792.5641,800.6227,1083.0769
1694132412.682,795.78754,816.7399,793.7729,790.9524,888.86444
1694132412.682,800.6227,821.978,805.05493,792.5641,654.7619
1694132412.7150002,804.2491,786.1172,803.8461,791.75824,761.9414
1694132412.716,796.5934,786.9231,792.5641,777.6557,758.315
1694132412.716,783.69965,786.1172,790.9524,769.59705,684.57874
1694132412.717,781.28204,780.4762,794.17584,778.0586,659.19415
1694132412.717,789.34064,777.25275,792.96704,792.1612,814.3223
1694132412.7180002,790.14655,784.90845,794.57874,805.4579,942.0513
1694132412.7180002,788.1319,794.57874,796.99634,801.4286,883.6264
1694132412.719,797.8022,798.60803,798.60803,784.10254,783.69965
1694132412.719,796.5934,774.0293,800.2198,793.7729,936.4103
1694132412.72,786.1172,785.7143,803.44324,806.6667,1090.3297
1694132412.724,778.0586,829.6337,801.8315,793.7729,800.6227
1694132412.725,780.87915,798.60803,800.2198,777.25275,686.99634
1694132412.7489998,786.1172,788.5348,799.41394,776.04395,680.14655
1694132412.7500002,795.38464,806.26373,794.9817,777.6557,646.7033
1694132412.7510002,802.6374,801.02563,794.9817,784.10254,660.40295
1694132412.7510002,794.57874,785.31134,794.9817,794.57874,730.9158
1694132412.752,794.57874,780.07324,793.36993,789.34064,775.64105
1694132412.752,803.8461,787.326,798.60803,785.7143,719.2308
1694132412.753,805.05493,788.1319,796.1905,780.07324,670.4762
1694132412.753,795.38464,777.6557,790.9524,779.2674,850.58606
1694132412.754,786.9231,793.7729,799.81683,797.8022,880.40295
1694132412.754,780.4762,804.65204,807.47253,805.05493,713.5897
1694132412.755,779.2674,794.17584,805.05493,788.5348,657.1795
1694132412.756,784.90845,764.7619,801.02563,786.9231,772.01465
1694132412.7849998,786.52014,749.85345,798.60803,800.6227,1097.5824
1694132412.7859998,785.7143,806.26373,799.41394,797.3993,965.0183
1694132412.7870002,794.57874,808.2784,799.011,793.36993,769.19415
1694132412.7870002,807.47253,792.96704,799.011,792.5641,773.22345
1694132412.788,800.6227,804.65204,801.02563,787.326,703.91943
1694132412.788,791.75824,791.3553,795.78754,784.5055,708.7546
1694132412.789,802.23444,792.96704,796.1905,796.5934,672.0879
1694132412.789,809.4872,776.04395,804.2491,812.71063,975.89746
1694132412.7900002,805.8608,783.2967,805.8608,802.23444,1267.619
1694132412.7900002,810.293,840.10986,807.0696,796.99634,861.06226
1694132412.7910001,813.91943,823.1868,809.0842,807.47253,660.40295
1694132412.7910001,800.2198,797.3993,807.0696,812.71063,779.2674
1694132412.852,800.2198,808.68134,804.65204,817.5458,753.8828
1694132412.853,814.7253,810.293,802.23444,806.26373,651.53845
1694132412.854,820.3663,787.326,801.02563,794.57874,643.0769
1694132412.855,810.293,787.326,801.8315,799.011,720.0366
1694132412.855,801.02563,811.50183,801.8315,796.1905,724.4689
1694132412.856,803.44324,798.60803,803.44324,802.6374,769.59705
1694132412.856,800.2198,782.49084,802.6374,802.23444,886.8498
1694132412.8569999,801.4286,787.326,803.44324,790.14655,1006.1172
1694132412.8579998,795.78754,825.6044,807.8755,790.9524,803.8461
1694132412.8579998,789.34064,815.9341,806.6667,792.1612,660.80585
1694132412.859,792.1612,793.7729,801.4286,796.1905,767.5824
1694132412.859,794.9817,794.17584,796.1905,796.5934,814.3223
1694132412.909,803.8461,808.68134,798.60803,787.72894,733.73627
1694132412.91,805.05493,811.50183,800.6227,786.52014,664.83514
1694132412.911,799.011,772.4176,802.23444,801.02563,824.3956
1694132412.9139998,792.5641,786.1172,801.02563,808.2784,879.19415
1694132412.915,789.34064,815.12823,794.9817,804.2491,727.28937
1694132412.916,794.57874,792.5641,797.8022,800.2198,669.2674
1694132412.9169998,801.02563,768.3883,801.4286,794.9817,938.022
1694132412.9180002,791.75824,780.87915,800.2198,802.23444,1061.7216
1694132412.9190001,781.28204,821.5751,801.02563,800.2198,724.4689
1694132412.92,788.1319,807.8755,802.6374,798.60803,684.57874
1694132412.922,790.54944,784.10254,798.20514,796.5934,846.9597
1694132412.924,792.96704,805.8608,794.17584,784.90845,807.8755
1694132412.984,799.011,813.5165,794.57874,790.14655,667.6557
1694132412.985,791.75824,787.326,793.36993,803.44324,766.77655
1694132412.992,789.34064,782.0879,793.36993,796.99634,838.0952
1694132412.993,797.3993,802.23444,797.8022,783.69965,763.5531
1694132412.993,796.1905,799.81683,793.36993,780.07324,712.381
1694132412.994,796.99634,763.5531,786.52014,786.9231,841.31866
1694132412.997,799.011,757.1062,785.31134,798.20514,1149.9634
1694132412.997,794.17584,813.91943,788.5348,787.326,975.4945
1694132412.9980001,792.1612,815.9341,790.54944,776.04395,693.8461
1694132412.999,793.36993,788.5348,787.72894,779.67035,736.55676
1694132413.0,789.34064,793.7729,782.49084,785.31134,755.09155
1694132413.001,784.10254,803.8461,782.49084,789.7436,732.9304
1694132413.0419998,790.14655,794.9817,784.10254,796.5934,778.46155
1694132413.044,795.78754,784.10254,780.87915,796.5934,790.54944
1694132413.044,794.17584,794.17584,782.8938,785.31134,736.1539
1694132413.0449998,790.14655,800.6227,786.9231,787.72894,709.15753
1694132413.0460002,783.69965,790.9524,787.72894,795.38464,756.7033
1694132413.0460002,788.5348,773.22345,788.1319,811.50183,1000.07324
1694132413.0470002,794.9817,793.36993,790.14655,809.0842,1067.3627
1694132413.048,798.20514,817.9487,788.93774,784.10254,797.8022
1694132413.048,804.65204,812.3077,788.93774,793.7729,647.9121
1694132413.049,805.8608,786.9231,789.7436,816.7399,947.28937
1694132413.049,801.02563,799.81683,790.9524,810.293,1087.1062
1694132413.05,790.9524,832.0513,790.54944,792.5641,723.663
1694132413.051,795.78754,806.6667,789.34064,783.69965,649.5238
1694132413.052,798.20514,805.4579,793.36993,784.90845,669.67035
1694132413.053,786.1172,821.1722,794.9817,793.7729,681.75824
1694132413.053,793.36993,815.12823,793.7729,799.41394,688.20514
1694132413.0579998,805.4579,797.8022,794.17584,800.6227,757.50916
1694132413.0579998,798.20514,791.75824,797.3993,792.5641,844.1392
1694132413.059,794.9817,805.8608,798.20514,790.54944,776.4469
1694132413.06,791.75824,807.0696,802.6374,810.293,727.28937
1694132413.06,792.96704,787.326,810.696,822.7839,839.304
1694132413.0609999,803.0403,769.19415,807.8755,823.5897,1127.3993
1694132413.062,809.89014,819.15753,804.65204,810.293,920.293
1694132413.062,810.696,834.0659,804.65204,801.02563,600.7692
1694132413.091,805.05493,809.0842,805.05493,815.5311,664.83514
1694132413.092,801.8315,815.12823,809.0842,825.6044,716.0073
1694132413.092,798.60803,816.337,804.65204,814.3223,699.4872
1694132413.093,792.96704,798.60803,802.23444,805.4579,660.80585
1694132413.093,801.02563,794.17584,807.47253,802.6374,681.75824
1694132413.094,805.4579,801.4286,807.47253,806.26373,812.71063
1694132413.094,794.57874,799.41394,805.05493,819.9634,899.7436
1694132413.095,788.1319,803.8461,805.4579,814.7253,836.4835
1694132413.095,790.9524,778.46155,808.2784,802.6374,960.58606
1694132413.096,794.57874,774.0293,807.47253,799.011,1214.0293
1694132413.096,797.3993,833.2601,803.0403,796.5934,942.8571
1694132413.097,796.5934,828.022,799.81683,805.8608,703.5165
1694132413.127,794.9817,805.05493,795.38464,797.3993,769.19415
1694132413.128,795.38464,820.7692,794.9817,781.685,716.0073
1694132413.129,794.17584,810.293,790.9524,778.86444,640.65936
1694132413.129,796.1905,794.57874,790.14655,788.93774,676.9231
1694132413.1299999,803.0403,794.57874,794.17584,806.6667,731.31866
1694132413.1299999,801.02563,800.6227,791.75824,803.0403,815.5311
1694132413.134,794.17584,803.8461,784.5055,783.2967,793.7729
1694132413.135,793.7729,785.31134,785.31134,777.25275,760.32965
1694132413.136,795.78754,787.72894,790.14655,792.5641,992.01465
1694132413.136,789.7436,828.8278,788.5348,796.1905,883.6264
1694132413.1369998,786.1172,811.50183,789.34064,795.78754,736.9597
1694132413.1369998,789.7436,786.9231,788.1319,797.3993,786.1172
1694132413.169,792.1612,792.1612,789.34064,788.93774,761.13556
1694132413.169,790.9524,807.47253,794.57874,784.10254,692.23444
1694132413.1699998,793.7729,801.02563,796.99634,797.8022,715.2015
1694132413.171,792.96704,780.4762,794.9817,812.3077,836.08057
1694132413.171,804.2491,796.5934,798.20514,799.81683,813.1135
1694132413.172,812.3077,799.011,799.41394,779.2674,709.15753
1694132413.172,797.8022,792.96704,793.7729,787.326,709.9634
1694132413.172,789.34064,769.59705,791.75824,806.26373,988.3883
1694132413.1729999,796.99634,780.07324,792.96704,817.5458,1191.4652
1694132413.1729999,803.0403,834.0659,793.7729,813.5165,843.3333
1694132413.174,804.2491,814.3223,798.60803,791.3553,660.40295
1694132413.174,809.4872,803.0403,805.05493,783.2967,710.3663
1694132413.252,802.6374,816.7399,805.8608,795.78754,727.6923
1694132413.253,800.2198,809.0842,804.2491,796.99634,725.6777
1694132413.2540002,805.05493,783.69965,802.23444,787.72894,759.5238
1694132413.255,806.26373,782.49084,795.78754,789.7436,804.65204
1694132413.256,808.2784,796.99634,792.5641,782.8938,724.4689
1694132413.256,804.2491,790.54944,797.3993,780.07324,709.5604
1694132413.257,796.5934,784.90845,796.1905,793.36993,936.8132
1694132413.258,795.78754,768.3883,799.011,805.4579,1202.3444
1694132413.262,799.011,816.7399,800.6227,796.1905,964.21246
1694132413.263,800.2198,833.663,790.14655,779.2674,645.4945
1694132413.263,799.41394,794.9817,787.72894,786.9231,711.5751
1694132413.264,787.326,796.99634,791.3553,806.26373,743.4066
1694132413.308,784.5055,806.26373,790.54944,801.8315,652.74725
1694132413.309,798.60803,803.0403,791.75824,784.10254,603.5897
1694132413.3100002,800.2198,801.8315,799.011,785.7143,628.97437
1694132413.311,794.57874,813.1135,796.1905,786.1172,655.16486
1694132413.312,795.78754,804.65204,786.52014,782.0879,696.26373
1694132413.312,795.78754,782.49084,787.326,794.17584,743.4066
1694132413.313,786.52014,784.10254,790.54944,790.54944,794.17584
1694132413.313,791.75824,798.60803,799.81683,786.1172,811.50183
1694132413.314,795.78754,799.81683,801.8315,803.8461,767.5824
1694132413.315,792.1612,792.1612,794.57874,809.89014,731.7216
1694132413.315,792.1612,788.1319,788.5348,801.4286,811.9048
1694132413.316,795.38464,799.81683,787.72894,789.34064,834.4689
1694132413.356,799.41394,809.89014,793.36993,776.4469,718.4249
1694132413.3569999,799.41394,797.3993,796.1905,786.52014,688.20514
1694132413.358,805.8608,767.5824,799.41394,817.9487,1019.011
1694132413.359,802.23444,784.90845,805.8608,824.3956,1304.2858
1694132413.36,799.41394,832.8571,807.47253,798.20514,950.9158
1694132413.36,808.68134,803.0403,803.0403,786.9231,827.619
1694132413.3609998,799.41394,790.9524,800.2198,792.96704,1002.0879
1694132413.362,789.7436,825.2015,798.20514,796.1905,834.4689
1694132413.3630002,791.3553,807.8755,797.3993,798.20514,699.4872
1694132413.364,792.5641,779.67035,796.99634,796.99634,838.0952
1694132413.368,801.02563,792.96704,796.1905,796.1905,981.53845
1694132413.369,803.0403,832.8571,801.4286,794.57874,747.8388
1694132413.409,792.5641,816.337,804.65204,796.5934,634.21246
1694132413.4099998,790.54944,807.47253,806.26373,802.6374,737.3626
1694132413.411,797.8022,817.1429,805.8608,794.17584,762.3443
1694132413.411,806.6667,813.5165,806.26373,783.69965,665.2381
1694132413.412,805.8608,802.23444,803.8461,791.75824,655.16486
1694132413.4129999,795.78754,793.36993,796.1905,802.6374,860.65936
1694132413.4129999,797.8022,802.23444,796.99634,806.6667,922.71063
1694132413.414,796.5934,802.6374,799.81683,801.4286,844.94507
1694132413.415,796.99634,803.44324,800.2198,783.69965,745.82416
1694132413.416,806.6667,777.25275,800.2198,785.7143,917.47253
1694132413.416,800.2198,787.326,799.41394,805.8608,1148.3517
1694132413.4169998,796.5934,838.0952,798.20514,802.23444,879.19415
1694132413.4190001,807.47253,815.9341,799.81683,792.96704,720.4396
1694132413.42,806.6667,799.41394,801.02563,795.78754,790.9524
1694132413.421,800.2198,816.7399,799.41394,793.36993,721.6484
1694132413.4220002,804.2491,811.9048,795.78754,792.5641,636.2271
1694132413.4220002,799.011,793.36993,792.5641,802.23444,743.8095
1694132413.423,787.72894,783.2967,792.96704,795.38464,882.8205
1694132413.424,787.326,796.5934,797.8022,782.49084,779.2674
1694132413.425,790.9524,807.47253,801.02563,774.0293,626.55676
1694132413.4259999,793.7729,774.43225,799.011,789.7436,757.9121
1694132413.427,796.5934,774.83514,795.38464,808.68134,1013.36993
1694132413.427,791.3553,829.2308,794.9817,792.96704,854.21246
1694132413.428,794.9817,814.3223,797.8022,780.4762,687.8022
1694132413.483,804.65204,788.93774,795.38464,776.4469,717.619
1694132413.484,801.4286,787.72894,793.36993,777.6557,736.1539
1694132413.484,800.2198,800.6227,795.78754,782.0879,755.4945
1694132413.484,798.20514,796.1905,794.57874,786.1172,724.0659
1694132413.484,792.5641,770.0,790.14655,776.4469,811.50183
1694132413.485,787.72894,777.6557,790.54944,775.2381,873.1502
1694132413.485,791.75824,792.5641,794.17584,792.96704,793.7729
1694132413.485,796.5934,793.36993,796.1905,801.8315,809.0842
1694132413.486,799.011,765.56775,799.011,807.0696,1038.3517
1694132413.486,807.47253,779.2674,799.011,802.23444,1133.8462
1694132413.486,809.0842,829.2308,796.1905,791.75824,766.3736
1694132413.487,805.4579,807.47253,801.02563,798.60803,616.08057
1694132413.5249999,804.2491,798.60803,803.0403,813.1135,729.304
1694132413.526,810.293,809.0842,802.6374,816.337,783.2967
1694132413.527,812.71063,800.2198,801.4286,807.8755,705.5311
1694132413.527,805.8608,784.90845,792.5641,798.20514,732.1245
1694132413.528,797.8022,777.6557,790.14655,787.72894,793.36993
1694132413.529,790.9524,786.52014,792.1612,783.69965,760.7326
1694132413.529,787.72894,788.1319,792.96704,792.96704,784.10254
1694132413.53,786.52014,773.22345,795.38464,790.14655,835.6777
1694132413.53,788.93774,750.2564,796.1905,787.326,1074.2124
1694132413.5310001,787.72894,794.17584,795.38464,788.93774,949.304
1694132413.532,791.75824,818.3516,796.99634,796.99634,657.5824
1694132413.532,797.8022,793.36993,800.6227,804.65204,755.89746
1694132413.568,805.4579,803.44324,800.2198,792.5641,782.8938
1694132413.569,812.71063,808.2784,794.57874,777.25275,680.54944
1694132413.573,813.91943,798.60803,792.96704,778.0586,642.674
1694132413.5740001,808.2784,800.2198,796.5934,796.5934,698.68134
1694132413.5740001,800.6227,805.05493,798.20514,804.65204,777.25275
1694132413.575,800.2198,791.3553,792.96704,797.8022,838.0952
1694132413.575,802.6374,796.5934,791.75824,787.72894,752.27106
1694132413.576,806.26373,776.4469,792.5641,788.93774,967.8388
1694132413.576,805.4579,785.31134,790.9524,798.60803,1155.6044
1694132413.577,803.44324,833.2601,794.9817,803.44324,880.0
1694132413.577,810.293,814.3223,794.9817,800.2198,714.7985
1694132413.5779998,809.89014,767.98535,793.7729,800.2198,942.8571
1694132413.6030002,806.26373,799.81683,795.78754,799.41394,995.2381
1694132413.604,809.89014,837.28937,794.57874,796.99634,658.3883
1694132413.605,807.0696,796.5934,792.5641,810.696,681.75824
1694132413.605,798.60803,792.5641,794.9817,806.6667,751.06226
1694132413.6060002,802.23444,805.05493,793.36993,790.9524,708.7546
1694132413.607,803.8461,793.7729,794.57874,788.93774,628.5714
1694132413.607,796.1905,778.86444,797.3993,790.54944,761.9414
1694132413.608,799.41394,784.5055,801.02563,813.5165,1029.8901
1694132413.608,804.65204,831.2454,805.05493,818.3516,863.0769
1694132413.609,791.3553,828.4249,799.011,795.78754,681.75824
1694132413.609,794.17584,797.8022,794.17584,790.54944,796.99634
1694132413.61,806.26373,808.2784,795.38464,798.60803,845.34796
1694132413.6590002,795.38464,823.1868,794.17584,811.0989,748.6447
1694132413.66,797.8022,803.44324,793.7729,809.0842,770.0
1694132413.661,805.05493,791.3553,794.57874,793.36993,747.03296
1694132413.6620002,799.011,803.0403,796.5934,786.1172,689.011
1694132413.666,793.7729,801.02563,797.3993,790.14655,664.0293
1694132413.667,796.99634,789.7436,792.5641,792.5641,709.15753
1694132413.668,798.20514,767.98535,788.93774,796.99634,1015.38464
1694132413.668,790.54944,779.2674,787.326,799.011,1139.4872
1694132413.669,792.96704,815.9341,789.34064,780.07324,794.9817
1694132413.669,805.8608,801.4286,793.7729,786.9231,651.9414
1694132413.67,799.81683,789.34064,796.99634,808.2784,819.15753
1694132413.671,791.75824,795.38464,799.011,808.2784,830.4396
1694132413.725,794.9817,802.23444,799.81683,798.60803,666.8498
1694132413.726,801.8315,795.38464,801.02563,789.7436,660.40295
1694132413.727,798.60803,790.14655,806.6667,802.23444,829.2308
1694132413.728,799.011,813.91943,803.44324,807.0696,828.8278
1694132413.728,805.8608,803.8461,799.81683,804.2491,714.7985
1694132413.7289999,803.0403,769.59705,799.81683,802.23444,830.4396
1694132413.7299998,803.8461,774.43225,800.6227,803.0403,983.1502
1694132413.731,805.05493,819.9634,801.02563,798.60803,800.2198
1694132413.731,801.02563,818.7546,801.4286,796.1905,680.54944
1694132413.732,806.6667,790.9524,805.4579,813.91943,818.7546
1694132413.733,815.12823,796.99634,807.8755,810.696,863.8828
1694132413.733,816.7399,817.5458,799.41394,789.34064,676.1172
1694132413.775,817.5458,809.0842,793.36993,783.69965,619.707
1694132413.776,816.337,797.8022,799.011,796.1905,732.52747
1694132413.777,811.50183,801.4286,796.1905,807.8755,785.31134
1694132413.777,811.0989,807.47253,794.57874,810.293,753.0769
1694132413.7779999,817.9487,807.8755,799.011,800.6227,655.9707
1694132413.779,821.5751,773.22345,797.8022,800.6227,957.3626
1694132413.784,824.7985,786.52014,793.36993,811.9048,1181.392
1694132413.7849998,821.5751,829.2308,791.75824,819.5604,849.7802
1694132413.7859998,810.293,818.3516,789.34064,815.5311,703.5165
1694132413.7859998,806.6667,788.5348,788.1319,807.0696,884.43225
1694132413.7870002,805.4579,809.89014,794.17584,806.26373,902.1612
1694132413.788,801.4286,835.6777,798.20514,808.2784,598.3516
1694132413.815,805.8608,809.89014,803.8461,817.9487,665.2381
1694132413.816,815.9341,808.68134,804.2491,815.9341,803.0403
1694132413.8179998,813.1135,819.5604,799.41394,801.8315,754.2857
1694132413.819,813.91943,814.7253,796.1905,799.41394,670.07324
1694132413.82,813.5165,792.96704,796.1905,815.5311,707.5458
1694132413.8209999,805.8608,785.7143,793.7729,813.5165,858.6447
1694132413.822,807.8755,794.57874,790.9524,806.26373,904.17584
1694132413.824,811.0989,802.6374,796.1905,801.8315,747.03296
1694132413.825,811.9048,787.72894,798.60803,794.17584,713.5897
1694132413.826,811.0989,768.3883,795.38464,808.2784,1039.9634
1694132413.8270001,802.6374,818.3516,798.20514,817.1429,938.8278
1694132413.8270001,799.81683,825.6044,798.60803,805.8608,687.8022
1694132413.8569999,804.65204,796.99634,793.7729,792.96704,743.8095
1694132413.8579998,810.696,809.0842,797.3993,783.2967,718.022
1694132413.8579998,801.8315,810.293,800.6227,786.1172,664.0293
1694132413.859,794.9817,802.23444,798.20514,796.1905,709.15753
1694132413.86,803.44324,796.99634,801.4286,799.41394,788.5348
1694132413.86,799.81683,794.57874,799.011,788.5348,863.0769
1694132413.8609998,801.4286,799.011,793.36993,781.28204,904.17584
1694132413.8609998,812.3077,803.8461,795.78754,788.5348,736.9597
1694132413.865,814.7253,776.8498,800.6227,809.0842,990.40295
1694132413.866,805.05493,788.93774,796.1905,813.1135,1206.3737
1694132413.867,795.78754,833.663,792.96704,792.96704,740.989
1694132413.867,799.41394,808.2784,794.9817,787.72894,580.2198
1694132413.869,801.4286,774.43225,792.1612,794.9817,867.1062
1694132413.869,797.8022,807.8755,795.38464,801.8315,909.81683
1694132413.8700001,798.60803,826.4103,795.78754,797.8022,686.1905
1694132413.8700001,789.34064,794.57874,791.3553,794.57874,684.57874
1694132413.871,786.52014,786.9231,791.75824,787.326,670.87915
1694132413.871,790.14655,792.5641,795.38464,773.6264,693.0403
1694132413.872,790.14655,798.20514,796.5934,786.52014,711.978
1694132413.872,786.1172,786.9231,793.36993,801.4286,790.14655
1694132413.873,785.31134,792.96704,792.5641,791.3553,854.61536
1694132413.873,799.41394,811.9048,796.1905,788.93774,728.0952
1694132413.873,803.8461,798.20514,793.7729,796.1905,681.75824
1694132413.8739998,801.8315,769.19415,792.1612,799.011,855.42126
1694132413.9550002,799.011,765.56775,791.75824,801.8315,1128.2051
1694132413.956,786.52014,817.9487,791.3553,793.7729,929.9634
1694132413.957,786.52014,809.0842,792.5641,781.685,650.7326
1694132413.9580002,796.99634,792.96704,791.75824,790.54944,653.95605
1694132413.9580002,792.96704,806.26373,795.78754,804.2491,724.0659
1694132413.959,786.9231,792.5641,792.5641,807.8755,766.3736
1694132413.96,794.57874,796.99634,787.72894,807.0696,807.0696
1694132413.96,796.99634,770.80585,788.93774,803.44324,1032.3077
1694132413.961,795.78754,768.7912,790.9524,801.4286,1203.1501
1694132413.962,790.54944,831.6484,790.54944,797.8022,879.59705
1694132413.966,787.326,813.91943,789.34064,796.5934,677.326
1694132413.967,784.90845,790.54944,788.93774,790.14655,720.84247
