timestamp,RAW_TP9,RAW_AF7,RAW_AF8,RAW_TP10,AUX_RIGHT
1694270029.772,743.8095,832.8571,782.0879,796.99634,1144.3224
1694270029.811,731.7216,830.84247,781.685,798.20514,1066.5568
1694270029.812,730.5128,826.0073,780.07324,782.49084,691.8315
1694270029.813,731.7216,824.3956,780.07324,793.7729,864.68866
1694270029.813,728.0952,824.7985,782.49084,799.41394,1064.9451
1694270029.8140001,734.1392,827.619,783.2967,783.2967,740.18317
1694270029.8140001,732.1245,834.0659,784.5055,776.8498,598.3516
1694270029.815,738.97437,834.0659,784.90845,786.1172,830.84247
1694270029.815,750.2564,830.84247,781.685,791.75824,888.86444
1694270029.816,749.85345,834.4689,781.28204,786.1172,785.7143
1694270029.816,747.8388,837.28937,783.2967,781.685,661.6117
1694270029.817,742.6007,836.08057,779.67035,794.17584,767.1795
1694270029.817,738.5714,835.2747,778.86444,800.6227,830.0366
1694270029.8460002,751.4652,839.707,785.31134,784.5055,772.01465
1694270029.8460002,755.89746,842.1245,788.1319,785.7143,848.1685
1694270029.8470001,736.55676,838.9011,787.72894,784.5055,793.7729
1694270029.848,726.08057,836.08057,783.69965,777.25275,640.2564
1694270029.848,734.1392,838.49817,780.4762,786.52014,591.0989
1694270029.849,736.9597,842.52747,784.10254,801.02563,848.97437
1694270029.849,734.1392,838.9011,784.10254,803.44324,1218.4615
1694270029.85,740.18317,840.10986,781.685,794.9817,978.71796
1694270029.85,738.5714,842.9304,786.9231,791.75824,656.3736
1694270029.851,742.1978,842.9304,788.93774,788.1319,647.50916
1694270029.851,743.00366,844.5421,781.685,786.1172,779.2674
1694270029.852,742.1978,839.707,780.4762,787.72894,857.03296
1694270029.88,740.18317,838.9011,782.8938,784.5055,716.4103
1694270029.881,725.2747,843.3333,784.10254,785.31134,699.89014
1694270029.885,724.4689,842.9304,787.72894,793.7729,944.0659
1694270029.8860002,730.10986,838.0952,784.90845,785.7143,830.0366
1694270029.8860002,732.1245,838.0952,783.2967,778.46155,801.4286
1694270029.887,729.304,843.3333,786.9231,786.9231,986.3736
1694270029.888,730.5128,848.97437,788.93774,794.17584,865.4945
1694270029.888,732.52747,848.5714,786.52014,789.7436,688.60803
1694270029.889,729.304,843.3333,782.49084,790.9524,708.3516
1694270029.8899999,728.9011,843.73627,781.28204,802.23444,952.9304
1694270029.891,727.28937,842.9304,780.87915,797.3993,972.27106
1694270029.891,718.4249,836.08057,778.0586,779.2674,706.7399
1694270029.95,709.5604,834.87177,780.07324,780.4762,634.61536
1694270029.951,719.2308,832.8571,782.49084,796.5934,779.67035
1694270029.952,727.6923,832.8571,778.0586,799.011,881.6117
1694270029.9529998,734.5421,837.6923,779.2674,794.57874,808.68134
1694270029.9539998,734.5421,842.1245,780.07324,780.4762,684.57874
1694270029.9539998,726.8865,838.49817,778.0586,775.2381,864.2857
1694270029.9550002,734.1392,834.87177,774.83514,784.5055,919.0842
1694270029.956,732.9304,836.08057,772.8205,784.10254,812.71063
1694270029.957,722.0513,832.8571,773.6264,784.10254,863.47986
1694270029.957,717.2161,829.6337,774.43225,800.6227,963.8095
1694270029.9580002,709.15753,834.0659,778.46155,798.60803,720.0366
1694270029.959,718.022,833.2601,781.28204,792.5641,583.44324
1694270029.982,732.52747,829.2308,781.28204,798.20514,870.7326
1694270029.984,732.52747,827.2161,781.28204,803.8461,1078.2417
1694270029.985,732.1245,823.1868,778.0586,793.36993,847.3626
1694270029.9859998,728.0952,819.15753,773.22345,785.31134,622.52747
1694270029.9910002,723.663,818.7546,772.4176,787.326,722.4542
1694270029.9910002,732.1245,819.9634,775.64105,795.78754,947.6923
1694270029.992,727.28937,819.15753,772.4176,799.81683,907.8022
1694270029.994,723.2601,819.15753,767.98535,791.3553,743.00366
1694270029.994,723.663,816.337,767.1795,797.8022,836.8865
1694270029.9950001,724.0659,808.68134,767.98535,805.05493,1039.1575
1694270029.996,731.7216,810.293,769.19415,794.17584,878.3883
1694270029.997,737.3626,814.7253,769.19415,787.326,802.6374
1694270030.041,742.6007,811.50183,772.4176,784.10254,823.5897
1694270030.0419998,740.989,809.4872,774.43225,776.04395,664.0293
1694270030.043,745.42126,812.71063,775.64105,777.25275,608.4249
1694270030.044,755.89746,812.71063,776.04395,790.14655,743.00366
1694270030.0449998,764.7619,810.293,774.43225,796.1905,892.49084
1694270030.0460002,778.46155,811.0989,774.0293,794.17584,884.43225
1694270030.0470002,786.9231,810.696,772.8205,796.5934,715.6044
1694270030.048,786.1172,807.8755,770.0,791.3553,628.1685
1694270030.048,777.6557,809.4872,770.40295,784.10254,952.9304
1694270030.049,774.0293,814.3223,767.5824,782.0879,992.4176
1694270030.05,776.04395,815.12823,770.0,780.4762,782.8938
1694270030.051,777.25275,813.5165,774.43225,778.46155,692.6374
1694270030.074,784.90845,807.0696,770.40295,786.9231,685.78754
1694270030.075,790.54944,804.2491,766.77655,798.20514,715.2015
1694270030.076,797.3993,813.1135,769.59705,800.2198,753.8828
1694270030.076,799.81683,815.5311,773.6264,803.8461,834.87177
1694270030.076,790.9524,811.50183,772.4176,815.5311,877.98535
1694270030.077,784.5055,810.696,767.1795,798.60803,657.1795
1694270030.079,778.0586,807.47253,766.3736,792.5641,671.28204
1694270030.079,778.0586,809.4872,767.98535,806.6667,954.5421
1694270030.08,780.87915,811.9048,762.3443,800.6227,1025.4579
1694270030.08,780.07324,812.71063,763.1502,776.4469,697.0696
1694270030.0809999,786.52014,812.3077,765.56775,761.53845,570.14655
1694270030.0809999,801.02563,807.47253,763.1502,769.59705,711.978
1694270030.1369998,803.0403,808.2784,761.9414,778.86444,826.8132
1694270030.1379998,798.60803,804.65204,759.92676,778.46155,820.7692
1694270030.1379998,804.65204,801.4286,766.3736,783.69965,751.06226
1694270030.1390002,813.5165,810.293,770.40295,791.3553,752.27106
1694270030.14,815.12823,813.1135,768.3883,794.57874,763.95605
1694270030.14,811.9048,810.696,768.7912,804.2491,836.8865
1694270030.141,813.91943,813.1135,765.56775,802.23444,899.34064
1694270030.141,806.26373,808.68134,765.16486,802.23444,1024.249
1694270030.1420002,803.44324,802.6374,769.19415,803.44324,806.26373
1694270030.1430001,816.7399,802.6374,767.5824,790.14655,626.55676
1694270030.1430001,818.7546,803.44324,770.0,781.28204,790.14655
1694270030.144,815.12823,800.6227,772.4176,784.90845,924.7253
1694270030.234,814.3223,800.6227,769.19415,789.34064,869.92676
1694270030.2350001,817.5458,803.0403,766.77655,788.1319,617.6923
1694270030.236,823.5897,799.81683,766.77655,792.96704,708.3516
1694270030.237,828.4249,799.81683,766.77655,801.8315,1068.9744
1694270030.2380002,827.2161,807.8755,767.1795,796.1905,945.2747
1694270030.2380002,830.84247,809.0842,766.3736,775.2381,755.09155
1694270030.239,832.0513,804.65204,766.3736,776.04395,883.6264
1694270030.24,834.0659,807.8755,766.77655,787.72894,990.0
1694270030.245,839.304,809.89014,767.1795,780.87915,855.82416
1694270030.246,829.2308,807.0696,766.77655,775.64105,832.4542
1694270030.247,821.1722,804.2491,765.9707,772.8205,805.4579
1694270030.248,825.2015,801.8315,765.16486,772.4176,689.41394
1694270030.256,825.2015,798.60803,764.35895,778.0586,637.4359
1694270030.257,829.2308,799.41394,767.98535,777.25275,776.4469
1694270030.258,830.4396,800.6227,767.98535,776.8498,987.1795
1694270030.259,828.4249,804.2491,766.3736,776.8498,924.7253
1694270030.259,826.4103,807.0696,769.19415,778.0586,707.9487
1694270030.26,823.5897,802.6374,773.22345,784.10254,724.87177
1694270030.261,826.8132,799.41394,770.40295,790.14655,894.10254
1694270030.262,823.5897,799.41394,767.98535,790.54944,936.4103
1694270030.263,824.3956,792.96704,769.59705,792.5641,831.2454
1694270030.264,826.8132,790.54944,768.7912,793.36993,690.2198
1694270030.2649999,822.381,796.1905,767.1795,797.8022,911.4286
1694270030.2649999,822.7839,798.20514,771.2088,795.38464,959.3773
1694270030.288,812.71063,792.96704,766.3736,794.17584,790.9524
1694270030.29,808.2784,790.54944,761.13556,795.38464,817.1429
1694270030.2910001,812.3077,796.5934,763.95605,798.20514,922.71063
1694270030.292,809.0842,798.60803,764.35895,799.011,691.02563
1694270030.292,812.71063,797.3993,766.3736,792.96704,626.55676
1694270030.293,817.9487,793.36993,769.59705,799.41394,925.12823
1694270030.2940001,808.2784,787.72894,768.3883,792.5641,1008.93774
1694270030.295,800.2198,786.52014,765.9707,787.72894,803.0403
1694270030.295,801.02563,786.1172,764.35895,785.31134,620.5128
1694270030.296,809.0842,783.69965,764.35895,790.9524,797.3993
1694270030.3009999,809.4872,783.69965,763.95605,808.68134,1013.36993
1694270030.3009999,799.81683,782.0879,761.53845,811.9048,836.8865
1694270030.331,805.8608,774.43225,763.95605,819.5604,685.38464
1694270030.333,801.4286,770.80585,765.16486,814.3223,618.49817
1694270030.333,798.20514,770.80585,763.1502,805.4579,650.32965
1694270030.334,812.71063,772.01465,767.1795,806.26373,770.40295
1694270030.335,807.47253,771.2088,766.3736,807.0696,892.49084
1694270030.336,797.8022,767.1795,764.35895,801.4286,883.22345
1694270030.337,799.011,765.9707,764.7619,797.3993,752.27106
1694270030.3379998,803.44324,760.7326,763.95605,798.60803,677.72894
1694270030.339,808.68134,757.50916,763.95605,810.293,811.9048
1694270030.3409998,810.293,761.53845,765.16486,822.7839,1069.7803
1694270030.3420002,814.3223,757.50916,765.9707,818.3516,876.3736
1694270030.3430002,818.3516,752.27106,763.95605,813.5165,621.31866
1694270030.368,821.5751,753.0769,765.56775,819.9634,730.10986
1694270030.369,814.3223,750.65936,769.59705,834.4689,1042.7839
1694270030.372,803.8461,745.0183,766.3736,827.619,951.7216
1694270030.373,800.2198,744.21246,761.13556,818.7546,730.5128
1694270030.374,798.20514,747.8388,757.9121,823.1868,686.99634
1694270030.376,803.0403,750.2564,756.30035,826.8132,770.80585
1694270030.3769999,810.293,747.03296,761.13556,831.2454,858.24176
1694270030.3779998,809.89014,743.4066,759.92676,820.3663,850.18317
1694270030.3779998,809.89014,741.79486,757.9121,819.9634,896.52014
1694270030.379,813.1135,743.8095,758.315,822.7839,782.8938
1694270030.38,813.5165,747.8388,757.9121,819.9634,618.49817
1694270030.3820002,821.978,745.42126,755.4945,819.9634,683.36993
1694270030.432,832.0513,745.42126,756.30035,830.0366,1009.7436
1694270030.4329998,821.1722,746.2271,757.9121,824.3956,1024.249
1694270030.4339998,813.1135,743.00366,753.47986,817.5458,655.16486
1694270030.4350002,821.5751,741.79486,752.674,830.84247,591.9048
1694270030.436,828.8278,742.1978,754.68866,832.8571,813.91943
1694270030.436,827.2161,742.1978,755.09155,823.5897,934.7985
1694270030.437,828.022,745.0183,757.50916,821.978,832.4542
1694270030.4380002,831.6484,752.27106,759.5238,822.7839,725.6777
1694270030.4390001,826.0073,749.0476,753.47986,826.0073,921.50183
1694270030.44,818.7546,743.4066,746.2271,824.3956,927.5458
1694270030.441,826.0073,748.24176,747.4359,823.5897,835.6777
1694270030.441,828.4249,748.24176,749.85345,824.3956,906.5934
1694270030.484,821.5751,747.03296,752.674,821.5751,866.7033
1694270030.486,819.15753,751.4652,752.674,824.3956,712.7839
1694270030.486,820.3663,753.0769,750.65936,824.7985,716.4103
1694270030.487,827.2161,751.8681,752.27106,826.8132,941.2454
1694270030.488,830.0366,753.8828,757.1062,830.84247,980.7326
1694270030.4889998,815.12823,756.30035,759.12085,831.6484,809.89014
1694270030.4899998,812.71063,758.315,757.50916,822.381,698.2784
1694270030.4899998,819.15753,757.1062,754.68866,821.1722,805.05493
1694270030.4910002,827.619,758.71796,753.0769,841.7216,1190.2565
1694270030.492,829.6337,758.315,755.09155,834.87177,1029.0842
1694270030.493,816.7399,757.50916,753.8828,817.9487,719.2308
1694270030.493,819.9634,763.5531,751.8681,826.4103,744.21246
1694270030.523,822.7839,761.53845,756.7033,838.0952,718.8278
1694270030.5249999,813.5165,758.71796,761.13556,832.8571,764.35895
1694270030.53,804.2491,764.35895,759.92676,820.3663,868.71796
1694270030.5310001,804.65204,764.7619,759.92676,811.50183,813.1135
1694270030.532,809.4872,767.98535,760.7326,819.9634,655.9707
1694270030.532,809.4872,772.4176,755.4945,814.3223,664.43225
1694270030.533,808.68134,769.59705,751.8681,815.12823,904.9817
1694270030.5340002,811.0989,770.80585,751.8681,836.4835,1264.7986
1694270030.535,803.8461,776.04395,756.30035,828.022,1107.6556
1694270030.535,798.20514,770.80585,756.30035,801.8315,668.86444
1694270030.536,803.44324,764.7619,752.27106,799.41394,619.707
1694270030.537,799.011,771.2088,749.85345,812.71063,791.3553
1694270030.56,797.8022,768.7912,743.8095,812.3077,906.1905
1694270030.5609999,797.8022,766.3736,745.0183,807.47253,765.16486
1694270030.5619998,794.9817,768.3883,748.6447,796.5934,630.18317
1694270030.563,794.57874,769.19415,742.1978,791.75824,682.5641
1694270030.563,801.4286,773.6264,740.989,802.6374,722.8571
1694270030.564,815.9341,774.0293,744.21246,805.4579,865.09155
1694270030.5649998,806.26373,772.01465,747.8388,807.0696,990.80585
1694270030.5649998,789.7436,774.43225,751.4652,821.1722,897.72894
1694270030.5660002,789.34064,775.2381,747.8388,800.6227,644.68866
1694270030.5670002,794.57874,775.64105,746.63007,784.90845,695.05493
1694270030.5670002,794.17584,779.2674,745.42126,795.38464,941.6484
1694270030.568,793.7729,777.6557,740.58606,791.3553,883.6264
1694270030.597,796.99634,773.22345,741.79486,777.6557,650.32965
1694270030.598,799.41394,771.6117,745.42126,786.52014,632.6007
1694270030.599,793.36993,770.40295,744.61536,799.011,794.17584
1694270030.6,788.1319,768.3883,741.39197,796.99634,886.04395
1694270030.604,782.8938,765.16486,739.3773,792.1612,800.2198
1694270030.605,779.67035,767.5824,739.7802,780.07324,737.3626
1694270030.6060002,785.7143,770.0,743.4066,779.2674,821.5751
1694270030.607,795.78754,773.6264,747.8388,790.54944,796.99634
1694270030.607,802.23444,778.86444,751.06226,797.8022,825.6044
1694270030.608,807.0696,780.07324,749.45056,800.6227,878.3883
1694270030.609,809.0842,781.28204,749.0476,802.6374,855.0183
1694270030.609,805.4579,776.04395,749.85345,791.75824,749.0476
1694270030.6339998,805.05493,771.2088,749.0476,787.326,764.7619
1694270030.635,807.0696,775.2381,748.24176,790.14655,966.63007
1694270030.636,803.8461,779.2674,747.03296,790.9524,1202.3444
1694270030.6369998,795.78754,780.87915,747.03296,787.326,880.0
1694270030.638,792.96704,780.87915,746.63007,775.64105,541.13556
1694270030.64,795.78754,776.04395,744.21246,772.4176,791.75824
1694270030.641,794.57874,774.0293,742.1978,775.2381,980.32965
1694270030.641,790.14655,776.8498,743.00366,772.4176,846.9597
1694270030.642,790.9524,774.83514,744.21246,762.74725,705.5311
1694270030.6430001,788.93774,772.4176,744.61536,758.315,712.7839
1694270030.644,782.0879,770.40295,743.00366,754.2857,767.1795
1694270030.645,783.69965,770.80585,743.8095,752.27106,804.2491
1694270030.7,790.14655,777.6557,747.8388,755.4945,842.9304
1694270030.701,790.9524,777.6557,747.03296,756.7033,784.10254
1694270030.7020001,784.5055,775.64105,746.63007,757.9121,638.6447
1694270030.703,790.9524,780.87915,747.4359,762.3443,588.2784
1694270030.703,795.38464,778.86444,745.0183,762.74725,790.54944
1694270030.704,788.5348,778.46155,745.82416,770.0,1144.7252
1694270030.7089999,785.31134,780.87915,746.2271,758.71796,1019.81683
1694270030.71,778.86444,777.6557,743.8095,750.2564,648.71796
1694270030.71,785.31134,777.25275,743.00366,759.12085,657.98535
1694270030.711,795.78754,774.0293,743.8095,770.40295,1009.34064
1694270030.712,798.60803,776.04395,747.03296,767.1795,972.674
1694270030.7129998,788.93774,782.49084,750.2564,761.53845,760.32965
1694270030.76,784.5055,783.69965,747.03296,767.1795,803.8461
1694270030.761,796.1905,780.4762,745.0183,764.35895,823.5897
1694270030.7619998,803.44324,780.07324,745.42126,761.9414,746.2271
1694270030.763,807.0696,782.49084,749.0476,769.59705,806.26373
1694270030.764,810.696,784.10254,751.06226,774.83514,883.22345
1694270030.764,799.81683,782.0879,745.0183,772.8205,772.4176
1694270030.7649999,797.8022,782.8938,740.58606,772.8205,676.9231
1694270030.766,800.2198,790.54944,744.21246,778.86444,751.8681
1694270030.767,794.57874,790.14655,745.0183,778.0586,971.06226
1694270030.767,796.5934,789.34064,745.82416,788.1319,1130.2197
1694270030.768,801.02563,792.96704,750.65936,776.4469,761.13556
1694270030.769,803.44324,791.75824,752.674,763.5531,564.5055
1694270030.8270001,812.3077,793.7729,750.2564,770.80585,742.1978
1694270030.828,812.71063,794.9817,748.6447,779.67035,870.32965
1694270030.828,813.5165,793.36993,747.03296,777.25275,831.6484
1694270030.829,817.1429,800.2198,750.65936,772.4176,725.2747
1694270030.8300002,809.89014,802.23444,752.674,775.2381,685.38464
1694270030.831,809.0842,796.5934,751.4652,785.31134,746.63007
1694270030.832,810.696,792.1612,752.674,788.1319,892.8938
1694270030.833,805.4579,792.5641,750.2564,774.83514,919.89014
1694270030.838,803.8461,795.78754,749.85345,787.326,1008.5348
1694270030.838,801.4286,794.57874,749.45056,788.93774,914.65204
1694270030.839,805.05493,788.5348,748.6447,771.2088,676.52014
1694270030.84,812.3077,788.5348,752.674,774.0293,817.9487
1694270030.8739998,811.9048,790.54944,756.7033,778.0586,952.9304
1694270030.875,811.0989,786.52014,755.89746,781.28204,789.7436
1694270030.876,808.68134,787.326,755.09155,772.8205,574.9817
1694270030.8769999,808.68134,785.7143,757.9121,763.95605,647.1062
1694270030.8769999,812.3077,783.69965,760.32965,769.59705,854.21246
1694270030.878,808.68134,780.87915,760.32965,769.59705,899.34064
1694270030.878,803.44324,778.86444,758.315,768.7912,794.17584
1694270030.879,799.011,780.07324,758.71796,781.28204,799.011
1694270030.88,796.1905,783.69965,754.2857,792.1612,959.7802
1694270030.88,803.44324,781.28204,750.65936,783.2967,848.97437
1694270030.881,806.26373,779.2674,757.9121,778.0586,858.6447
1694270030.882,799.41394,782.8938,759.5238,778.86444,911.02563
1694270030.891,792.5641,781.28204,757.50916,780.07324,710.3663
1694270030.892,792.1612,775.2381,757.1062,776.8498,591.0989
1694270030.893,790.54944,776.8498,749.45056,784.90845,737.76556
1694270030.893,781.685,776.8498,747.8388,784.10254,892.8938
1694270030.894,780.07324,772.01465,754.2857,779.2674,853.8095
1694270030.895,790.54944,776.04395,754.2857,776.4469,741.79486
1694270030.896,797.8022,778.46155,748.6447,777.6557,773.22345
1694270030.8969998,797.3993,771.6117,747.4359,801.8315,1057.6923
1694270030.8969998,789.34064,766.77655,750.65936,796.1905,992.8205
1694270030.8979998,785.31134,767.1795,754.2857,774.0293,713.9927
1694270030.903,788.93774,764.35895,752.674,785.31134,617.6923
1694270030.904,798.20514,757.9121,751.4652,800.6227,652.74725
1694270030.9539998,810.293,756.7033,753.47986,807.0696,791.75824
1694270030.9550002,805.05493,756.30035,751.8681,795.78754,852.6007
1694270030.956,802.23444,755.09155,750.2564,793.7729,844.1392
1694270030.957,807.8755,753.8828,754.68866,822.7839,965.0183
1694270030.957,805.4579,753.47986,757.9121,816.7399,736.1539
1694270030.9580002,811.0989,753.0769,757.9121,803.44324,691.8315
1694270030.959,814.7253,747.03296,755.4945,821.1722,1057.6923
1694270030.96,805.8608,742.1978,758.71796,830.4396,1099.597
1694270030.96,807.0696,740.58606,763.1502,823.1868,705.9341
1694270030.961,812.71063,741.39197,761.13556,822.7839,574.57874
1694270030.962,817.9487,738.1685,763.5531,830.0366,733.3333
1694270030.963,820.3663,732.52747,764.7619,827.2161,839.304
1694270030.993,816.7399,734.94507,761.53845,817.5458,794.9817
1694270030.9950001,811.9048,733.3333,756.7033,805.4579,716.8132
1694270030.997,810.696,727.28937,751.06226,799.41394,643.47986
1694270030.9980001,805.4579,728.49817,751.8681,806.26373,653.95605
1694270031.0,808.2784,727.28937,755.4945,810.696,794.9817
1694270031.001,810.293,729.707,755.09155,811.9048,863.8828
1694270031.0019999,803.0403,735.7509,753.8828,815.5311,1043.5897
1694270031.003,796.1905,733.73627,755.89746,801.02563,928.7546
1694270031.004,799.011,730.5128,755.09155,784.5055,655.9707
1694270031.004,800.2198,733.73627,753.0769,793.7729,790.9524
1694270031.0049999,796.5934,734.5421,756.7033,796.5934,895.7143
1694270031.006,803.44324,736.9597,757.1062,789.34064,805.4579
1694270031.033,807.47253,738.1685,755.4945,786.1172,620.9158
1694270031.034,799.81683,735.7509,753.8828,795.78754,661.6117
1694270031.035,794.9817,736.1539,751.06226,800.6227,977.1062
1694270031.036,790.54944,734.1392,753.0769,791.75824,935.6044
1694270031.036,788.93774,734.5421,755.09155,788.5348,782.8938
1694270031.037,789.7436,741.39197,754.68866,794.9817,819.5604
1694270031.038,795.38464,746.63007,756.7033,801.8315,857.4359
1694270031.038,795.78754,742.6007,753.0769,789.34064,896.52014
1694270031.039,790.9524,743.00366,751.4652,788.1319,913.0403
1694270031.04,794.17584,749.85345,754.68866,796.5934,886.04395
1694270031.04,787.72894,751.06226,755.89746,794.9817,773.22345
1694270031.041,782.49084,749.45056,753.8828,796.99634,708.7546
1694270031.075,792.96704,753.8828,753.0769,788.5348,789.34064
1694270031.076,798.60803,758.71796,755.4945,788.1319,1023.0403
1694270031.077,796.5934,762.74725,754.2857,790.9524,944.4689
1694270031.077,796.5934,766.3736,755.89746,788.1319,644.68866
1694270031.078,800.6227,768.3883,760.7326,796.1905,672.8938
1694270031.079,803.8461,768.7912,762.3443,805.05493,875.56775
1694270031.08,809.89014,772.01465,760.32965,814.3223,986.77655
1694270031.08,805.4579,777.25275,760.32965,807.0696,862.674
1694270031.0809999,807.8755,777.6557,761.53845,798.60803,764.35895
1694270031.0819998,803.0403,775.64105,760.32965,808.2784,950.9158
1694270031.0819998,801.4286,777.25275,759.92676,803.8461,954.1392
1694270031.0830002,808.2784,778.86444,759.5238,787.326,858.6447
1694270031.1260002,804.2491,785.31134,763.1502,790.14655,888.0586
1694270031.128,804.65204,794.17584,761.53845,791.75824,751.8681
1694270031.133,801.02563,792.96704,757.9121,786.1172,579.41394
1694270031.134,793.36993,792.5641,759.5238,789.7436,613.2601
1694270031.135,805.4579,795.78754,763.5531,799.41394,807.0696
1694270031.135,809.89014,794.17584,767.5824,799.41394,950.10986
1694270031.136,797.8022,793.36993,771.6117,796.1905,819.15753
1694270031.1369998,802.6374,799.81683,773.22345,799.41394,643.8828
1694270031.1369998,807.0696,798.60803,771.6117,804.65204,782.0879
1694270031.1379998,803.44324,793.7729,769.19415,811.0989,958.1685
1694270031.1390002,802.6374,794.9817,767.1795,796.99634,872.3443
1694270031.14,803.8461,796.1905,767.5824,790.54944,765.56775
1694270031.192,805.8608,797.3993,768.3883,807.47253,844.94507
1694270031.1939998,805.4579,794.17584,767.1795,817.1429,963.4066
1694270031.1939998,803.0403,796.5934,769.19415,816.337,843.73627
1694270031.1950002,802.23444,799.011,769.59705,811.9048,786.9231
1694270031.196,803.44324,799.81683,769.59705,801.02563,718.022
1694270031.196,803.8461,802.23444,768.7912,792.1612,682.96704
1694270031.197,803.44324,801.8315,767.1795,796.5934,714.3956
1694270031.1980002,798.20514,799.81683,768.7912,797.8022,783.2967
1694270031.1980002,804.2491,796.1905,766.77655,810.293,1046.8132
1694270031.1990001,811.0989,798.60803,764.35895,804.2491,878.3883
1694270031.2,808.68134,801.8315,768.7912,792.1612,549.19415
1694270031.2,811.0989,804.65204,770.40295,798.20514,623.73627
1694270031.243,814.3223,801.4286,768.7912,799.011,827.619
1694270031.244,809.89014,799.011,768.3883,796.99634,862.27106
1694270031.245,797.8022,801.02563,768.3883,787.72894,726.8865
1694270031.246,786.52014,800.2198,768.3883,788.1319,687.8022
1694270031.2510002,784.5055,801.4286,765.16486,794.57874,793.7729
1694270031.252,783.69965,805.4579,763.95605,790.9524,812.3077
1694270031.252,780.4762,809.4872,767.1795,794.17584,854.21246
1694270031.253,776.8498,807.8755,765.9707,802.6374,900.54944
1694270031.2540002,777.25275,802.23444,765.56775,799.011,885.2381
1694270031.255,780.87915,801.4286,765.9707,785.31134,651.53845
1694270031.255,772.01465,799.41394,764.7619,782.0879,695.4579
1694270031.256,762.74725,795.38464,764.35895,789.7436,887.6557
1694270031.3009999,767.5824,802.23444,764.35895,799.011,836.8865
1694270031.302,768.3883,807.8755,767.5824,800.6227,663.22345
1694270031.303,765.9707,801.8315,767.98535,801.02563,588.2784
1694270031.304,767.5824,801.02563,765.16486,803.0403,767.5824
1694270031.304,770.40295,801.4286,764.7619,799.81683,941.6484
1694270031.3049998,779.67035,799.81683,769.59705,802.23444,889.67035
1694270031.3059998,774.43225,799.81683,772.4176,800.2198,786.1172
1694270031.3070002,760.32965,798.60803,774.0293,807.0696,988.3883
1694270031.308,760.7326,795.38464,778.0586,821.5751,1043.1868
1694270031.3100002,765.16486,801.8315,774.0293,807.47253,876.77655
1694270031.312,767.98535,811.0989,772.8205,801.8315,825.6044
1694270031.313,769.19415,809.4872,777.6557,807.47253,713.1868
1694270031.315,765.9707,801.4286,772.01465,808.68134,683.36993
1694270031.316,770.0,802.23444,766.3736,800.6227,710.3663
1694270031.317,770.0,801.8315,763.5531,797.3993,876.77655
1694270031.318,763.1502,798.60803,759.5238,795.38464,1013.36993
1694270031.319,757.9121,799.011,760.7326,793.7729,796.99634
1694270031.32,750.65936,794.9817,761.13556,797.3993,622.9304
1694270031.325,752.27106,794.9817,766.77655,802.6374,881.6117
1694270031.3260002,753.47986,796.5934,770.0,811.50183,1176.1538
1694270031.3270001,749.45056,797.3993,770.40295,805.05493,914.65204
1694270031.3270001,750.2564,800.6227,774.0293,805.05493,678.93774
1694270031.328,751.8681,798.60803,772.01465,809.4872,707.1429
1694270031.329,757.50916,794.9817,770.80585,802.6374,730.5128
1694270031.359,764.35895,798.20514,772.4176,796.1905,799.81683
1694270031.36,763.5531,800.6227,773.6264,803.44324,859.0476
1694270031.3609998,765.9707,803.44324,775.64105,815.5311,800.2198
1694270031.3609998,775.64105,810.293,777.6557,825.2015,658.3883
1694270031.362,774.43225,809.89014,778.0586,819.15753,618.9011
1694270031.3630002,765.16486,806.26373,775.2381,815.9341,817.5458
1694270031.364,760.7326,805.4579,773.6264,814.3223,1185.4213
1694270031.364,748.6447,804.65204,772.4176,786.9231,953.73627
1694270031.365,747.8388,805.4579,774.43225,778.0586,572.96704
1694270031.365,755.4945,804.2491,778.86444,791.3553,691.4286
1694270031.3660002,761.13556,803.44324,777.25275,807.8755,952.9304
1694270031.367,761.53845,802.6374,773.6264,805.8608,918.68134
1694270031.388,752.27106,808.2784,775.64105,796.5934,761.53845
1694270031.389,752.27106,810.293,777.6557,794.17584,651.9414
1694270031.39,751.4652,800.6227,773.22345,795.78754,659.19415
1694270031.391,751.8681,800.6227,769.59705,799.81683,767.1795
1694270031.391,759.12085,811.0989,773.22345,793.36993,820.7692
1694270031.392,763.5531,808.68134,776.8498,796.99634,900.9524
1694270031.392,768.3883,802.6374,773.6264,805.4579,1044.7986
1694270031.393,774.0293,805.05493,777.6557,799.81683,763.95605
1694270031.3969998,769.59705,807.47253,784.90845,809.0842,728.0952
1694270031.3969998,759.5238,804.2491,786.52014,817.5458,943.2601
1694270031.3980002,758.315,805.8608,783.2967,811.50183,873.95605
1694270031.3990002,759.92676,805.8608,782.8938,803.8461,682.1612
1694270031.485,760.32965,801.4286,782.0879,795.78754,640.2564
1694270031.486,759.92676,805.05493,782.49084,807.0696,873.1502
1694270031.487,755.09155,811.9048,782.49084,813.91943,941.2454
1694270031.488,754.68866,808.2784,780.07324,799.011,805.8608
1694270031.4889998,758.71796,806.26373,778.0586,799.011,710.7692
1694270031.4899998,757.9121,811.0989,776.8498,806.26373,746.2271
1694270031.4910002,759.5238,813.91943,779.2674,801.4286,802.6374
1694270031.4910002,770.80585,812.3077,778.86444,787.326,859.0476
1694270031.492,779.67035,810.696,776.8498,781.685,886.8498
1694270031.493,768.7912,812.71063,774.83514,796.99634,944.87177
1694270031.4940002,760.32965,810.696,774.83514,790.14655,735.34796
1694270031.4950001,759.92676,805.4579,780.07324,795.78754,720.0366
1694270031.496,764.35895,807.0696,780.07324,803.8461,909.81683
1694270031.497,769.19415,809.89014,780.4762,788.93774,880.0
1694270031.497,764.35895,813.1135,783.2967,788.93774,735.34796
1694270031.498,765.9707,813.5165,782.0879,781.685,637.03296
1694270031.499,767.98535,812.71063,780.07324,786.52014,713.5897
1694270031.5,765.56775,813.5165,781.28204,812.3077,1185.0183
1694270031.501,767.1795,814.7253,780.07324,814.3223,1177.3627
1694270031.501,767.5824,815.5311,779.2674,805.4579,737.3626
1694270031.502,765.16486,814.3223,780.87915,795.38464,621.7216
1694270031.503,776.4469,818.7546,781.28204,797.3993,662.8205
1694270031.508,777.6557,821.978,782.49084,801.4286,738.5714
1694270031.5089998,765.16486,820.3663,777.6557,791.75824,813.5165
1694270031.5500002,764.35895,821.1722,776.4469,787.326,847.76556
1694270031.551,763.95605,820.7692,778.0586,787.326,713.1868
1694270031.552,772.8205,820.3663,776.4469,788.1319,639.45056
1694270031.553,782.0879,821.1722,777.6557,793.7729,771.2088
1694270031.554,776.8498,821.1722,779.2674,801.02563,875.9707
1694270031.555,778.86444,823.1868,779.2674,799.011,828.4249
1694270031.556,784.5055,820.7692,779.2674,784.10254,709.5604
1694270031.556,784.5055,815.12823,778.46155,782.49084,759.12085
1694270031.557,785.31134,814.3223,780.07324,804.65204,1124.5787
1694270031.558,791.75824,811.9048,778.86444,807.47253,1126.9963
1694270031.558,796.5934,809.4872,779.67035,794.17584,790.14655
1694270031.559,790.9524,809.89014,785.31134,796.99634,681.75824
1694270031.604,788.5348,803.44324,781.685,796.1905,688.60803
1694270031.605,790.9524,798.20514,776.4469,803.44324,746.63007
1694270031.6060002,797.8022,802.6374,772.8205,801.4286,823.1868
1694270031.607,799.011,802.6374,769.19415,794.57874,820.7692
1694270031.608,793.7729,800.6227,771.2088,797.3993,747.8388
1694270031.608,797.3993,800.2198,768.3883,788.5348,683.7729
1694270031.609,799.81683,794.57874,767.98535,788.1319,707.9487
1694270031.61,802.23444,790.9524,776.4469,805.05493,929.9634
1694270031.611,805.4579,791.3553,776.4469,816.337,1194.2858
1694270031.612,809.0842,793.7729,778.86444,804.2491,817.5458
1694270031.613,819.15753,790.54944,781.28204,798.20514,617.28937
1694270031.614,819.9634,785.31134,779.2674,801.02563,846.55676
1694270031.648,822.7839,782.8938,782.49084,808.2784,874.7619
1694270031.649,821.5751,777.25275,782.8938,809.89014,825.2015
1694270031.6499999,812.71063,778.86444,780.87915,801.8315,746.63007
1694270031.6499999,807.47253,778.46155,779.2674,792.5641,643.47986
1694270031.651,815.9341,776.4469,776.8498,797.3993,666.4469
1694270031.652,832.0513,779.2674,778.86444,805.8608,808.2784
1694270031.652,821.5751,776.8498,782.49084,801.4286,954.94507
1694270031.6529999,814.3223,769.59705,784.5055,798.60803,1057.2894
1694270031.654,813.5165,768.7912,783.69965,792.1612,798.20514
1694270031.655,815.9341,772.4176,780.4762,796.1905,615.2747
1694270031.656,829.6337,771.2088,778.0586,802.23444,790.9524
1694270031.656,823.9927,771.6117,776.04395,808.68134,937.619
1694270031.6790001,812.71063,772.4176,776.04395,808.68134,801.8315
1694270031.681,815.5311,772.4176,778.86444,799.41394,593.5165
1694270031.681,822.7839,771.2088,778.0586,797.3993,686.5934
1694270031.682,824.7985,774.83514,778.46155,814.7253,1027.0696
1694270031.683,817.9487,782.8938,777.25275,813.1135,956.1539
1694270031.684,816.337,784.10254,775.2381,803.44324,770.80585
1694270031.685,806.6667,779.67035,772.4176,819.15753,856.2271
1694270031.686,803.8461,780.87915,773.22345,818.7546,859.0476
1694270031.687,807.8755,782.49084,774.43225,799.81683,757.1062
1694270031.688,806.26373,786.1172,775.64105,792.96704,786.1172
1694270031.688,807.0696,787.326,773.22345,789.34064,872.3443
1694270031.689,802.6374,786.9231,769.59705,791.3553,827.2161
1694270031.717,813.1135,792.96704,772.8205,795.38464,623.73627
1694270031.7180002,811.9048,797.3993,770.0,795.38464,794.9817
1694270031.723,798.20514,794.9817,764.35895,801.4286,1026.6666
1694270031.724,803.0403,798.20514,765.56775,792.5641,834.4689
1694270031.724,814.7253,805.05493,768.7912,784.5055,592.71063
1694270031.725,819.5604,804.65204,768.3883,794.57874,657.1795
1694270031.726,813.1135,806.6667,768.7912,800.6227,1020.2198
1694270031.727,815.5311,813.5165,775.64105,798.60803,1020.2198
1694270031.728,817.5458,813.1135,775.2381,792.1612,773.22345
1694270031.728,813.5165,818.3516,773.22345,791.3553,678.5348
1694270031.7289999,814.7253,828.022,776.04395,791.3553,731.7216
1694270031.7299998,815.5311,826.0073,773.22345,789.7436,774.43225
1694270031.7870002,815.9341,821.1722,771.2088,793.7729,842.9304
1694270031.788,817.9487,823.9927,772.4176,803.44324,882.8205
1694270031.789,817.5458,822.7839,776.8498,812.3077,825.6044
1694270031.7900002,808.2784,815.5311,777.25275,811.9048,692.6374
1694270031.7910001,809.0842,815.9341,774.43225,813.1135,748.24176
1694270031.7910001,814.3223,818.7546,774.0293,819.15753,1035.9341
1694270031.792,811.9048,816.7399,771.6117,816.337,1187.4359
1694270031.793,817.1429,816.7399,770.40295,790.14655,787.72894
1694270031.794,829.2308,826.0073,776.8498,786.52014,556.4469
1694270031.795,825.6044,829.6337,778.0586,801.4286,736.55676
1694270031.796,818.3516,822.7839,773.22345,800.6227,856.63007
1694270031.796,819.5604,823.1868,774.0293,792.96704,809.89014
1694270031.826,821.1722,825.6044,776.8498,784.10254,704.7253
1694270031.8270001,817.9487,823.9927,774.83514,784.90845,645.09155
1694270031.8270001,816.337,826.8132,773.22345,789.7436,672.49084
1694270031.828,829.6337,829.6337,773.22345,791.75824,790.14655
1694270031.832,826.8132,830.0366,770.80585,796.5934,875.16486
1694270031.833,810.696,827.619,769.59705,791.3553,866.30035
1694270031.8339999,799.81683,825.2015,768.7912,782.8938,758.315
1694270031.835,784.90845,827.2161,771.2088,789.34064,761.53845
1694270031.836,783.2967,829.2308,772.8205,797.3993,891.685
1694270031.837,785.31134,829.2308,774.0293,795.78754,1022.6374
1694270031.838,784.5055,828.022,776.8498,796.5934,842.9304
1694270031.839,789.7436,823.1868,774.43225,803.44324,629.3773
1694270031.8609998,800.2198,820.7692,773.22345,805.8608,747.03296
1694270031.8620002,805.8608,821.978,771.6117,814.7253,1112.0879
1694270031.8630002,810.696,825.2015,770.0,803.44324,1035.9341
1694270031.864,818.7546,829.2308,772.8205,787.326,734.5421
1694270031.865,819.9634,829.2308,774.83514,792.96704,635.82416
1694270031.865,816.7399,823.9927,775.2381,801.8315,648.71796
1694270031.866,817.1429,822.381,774.43225,799.81683,802.6374
1694270031.867,824.7985,825.2015,776.4469,796.99634,817.5458
1694270031.867,824.3956,823.9927,774.43225,803.8461,907.3993
1694270031.868,818.3516,821.1722,772.8205,807.47253,1104.8352
1694270031.869,830.84247,823.1868,772.8205,795.78754,779.67035
1694270031.871,844.1392,821.978,767.98535,799.41394,711.5751
1694270031.921,842.52747,820.7692,765.9707,792.96704,977.9121
1694270031.922,840.5128,820.7692,769.59705,789.7436,882.8205
1694270031.923,847.3626,817.9487,769.59705,795.78754,644.68866
1694270031.924,845.34796,816.7399,770.0,793.7729,650.32965
1694270031.925,841.7216,814.7253,767.5824,793.7729,827.619
1694270031.926,849.3773,811.50183,761.13556,792.1612,888.86444
1694270031.929,843.3333,812.3077,764.7619,788.93774,848.97437
1694270031.9299998,834.4689,813.91943,768.7912,792.1612,720.84247
1694270031.931,840.9158,817.1429,769.19415,806.26373,967.03296
1694270031.932,846.55676,815.5311,774.0293,811.50183,1046.8132
1694270031.932,846.55676,813.91943,772.01465,803.0403,839.304
1694270031.9329998,848.97437,815.9341,771.2088,800.6227,840.9158
1694270031.984,844.1392,811.50183,772.4176,802.23444,798.20514
1694270031.985,841.7216,812.3077,773.6264,799.011,683.7729
1694270031.9859998,843.73627,817.9487,775.64105,790.9524,700.293
1694270031.987,850.989,818.3516,772.01465,790.9524,835.2747
1694270031.987,847.76556,820.3663,771.6117,795.38464,849.7802
1694270031.988,842.1245,822.381,774.43225,793.36993,749.85345
1694270031.9889998,841.31866,820.3663,771.6117,793.36993,678.1319
1694270031.9889998,836.4835,816.7399,765.16486,806.26373,801.8315
1694270031.99,838.49817,819.5604,765.9707,821.1722,1185.4213
1694270031.9910002,837.28937,819.9634,770.0,807.0696,1012.1612
1694270031.992,835.6777,817.1429,767.5824,785.7143,657.98535
1694270031.992,836.8865,818.3516,767.98535,787.326,626.1539
1694270032.023,834.87177,816.7399,766.3736,795.78754,662.01465
1694270032.024,827.619,814.7253,762.3443,800.2198,754.68866
1694270032.0249999,824.7985,818.3516,761.53845,809.89014,878.7912
1694270032.0259998,828.8278,822.381,763.5531,818.7546,893.69965
1694270032.0259998,820.3663,823.9927,763.95605,819.5604,682.5641
1694270032.027,816.7399,823.9927,764.7619,802.23444,644.68866
1694270032.028,815.5311,823.1868,768.3883,796.99634,923.5165
1694270032.029,812.3077,826.0073,770.80585,820.3663,1182.6007
1694270032.033,808.2784,829.6337,767.98535,813.91943,909.41394
1694270032.034,807.0696,832.4542,766.3736,795.78754,620.9158
1694270032.034,808.2784,832.8571,767.1795,795.38464,622.9304
1694270032.035,807.47253,834.0659,771.2088,798.60803,780.4762
1694270032.092,808.2784,828.4249,771.6117,794.17584,900.54944
1694270032.094,810.696,824.7985,768.7912,783.69965,765.9707
1694270032.095,806.26373,827.2161,763.95605,789.34064,698.2784
1694270032.097,806.6667,827.619,765.16486,807.8755,811.50183
1694270032.099,809.4872,824.7985,770.40295,812.3077,863.0769
1694270032.099,810.293,820.3663,769.19415,803.0403,935.6044
1694270032.1,815.5311,819.9634,771.6117,810.696,1029.4872
1694270032.1009998,816.7399,821.978,776.8498,823.9927,1097.1794
1694270032.1020002,810.696,822.7839,776.04395,811.9048,777.25275
1694270032.1020002,815.5311,822.381,775.64105,802.23444,721.6484
1694270032.1030002,819.15753,821.978,777.25275,801.8315,973.0769
1694270032.104,811.0989,826.0073,774.83514,799.81683,855.42126
1694270032.136,814.7253,831.2454,774.0293,787.326,630.989
1694270032.1369998,829.2308,836.8865,775.2381,787.326,642.674
1694270032.1379998,830.84247,838.0952,776.04395,795.78754,787.326
1694270032.1390002,825.2015,832.8571,774.43225,797.8022,855.42126
1694270032.1390002,817.9487,824.7985,774.0293,796.1905,790.54944
1694270032.14,807.0696,828.022,774.83514,795.38464,735.34796
1694270032.141,805.05493,830.84247,774.43225,812.71063,945.2747
1694270032.141,805.8608,826.4103,773.22345,813.5165,962.1978
1694270032.1420002,797.3993,823.9927,772.01465,800.6227,853.00366
1694270032.1430001,795.78754,826.8132,771.6117,795.78754,853.4066
1694270032.147,802.6374,830.84247,769.59705,797.3993,854.21246
1694270032.148,799.81683,825.6044,765.16486,793.36993,708.7546
1694270032.149,804.2491,823.9927,762.74725,796.1905,719.6337
1694270032.15,809.4872,828.8278,765.9707,786.1172,872.3443
1694270032.151,812.3077,829.6337,766.77655,784.10254,1068.5714
1694270032.152,813.1135,825.6044,760.7326,791.75824,805.8608
1694270032.1529999,815.9341,827.2161,763.5531,788.1319,547.5824
1694270032.1539998,818.7546,829.6337,765.9707,787.72894,725.6777
1694270032.155,819.5604,822.7839,761.9414,792.5641,939.6337
1694270032.156,828.022,822.7839,765.9707,789.7436,879.59705
1694270032.1569998,826.4103,826.0073,771.6117,784.5055,660.80585
1694270032.1580002,826.0073,822.7839,768.3883,782.8938,707.1429
1694270032.1580002,828.8278,819.9634,763.1502,784.10254,849.3773
1694270032.1590002,828.022,819.15753,763.5531,786.52014,777.25275
1694270032.189,832.0513,818.3516,764.35895,785.31134,813.91943
1694270032.19,827.2161,817.1429,765.56775,790.9524,866.7033
1694270032.19,823.1868,815.9341,767.5824,802.6374,657.5824
1694270032.191,831.2454,815.9341,770.0,803.44324,624.5421
1694270032.192,838.9011,813.1135,771.6117,799.81683,801.8315
1694270032.192,838.0952,807.8755,770.0,793.7729,941.6484
1694270032.1929998,832.4542,798.60803,765.16486,790.54944,921.0989
1694270032.1939998,840.10986,794.17584,763.95605,796.5934,682.5641
1694270032.196,858.6447,792.1612,765.16486,805.05493,665.64105
1694270032.197,851.79486,785.7143,766.3736,810.696,1085.4945
1694270032.1980002,848.97437,786.9231,770.40295,815.9341,1058.4982
1694270032.1980002,851.79486,791.3553,772.4176,815.9341,787.72894
1694270032.224,846.9597,786.52014,773.6264,802.23444,784.10254
1694270032.225,843.3333,777.25275,775.2381,797.3993,806.26373
1694270032.2259998,845.34796,771.2088,771.2088,801.4286,815.9341
1694270032.227,857.4359,769.59705,765.56775,801.4286,816.337
1694270032.227,857.03296,767.98535,763.5531,801.8315,870.32965
1694270032.232,848.1685,767.5824,764.35895,813.1135,1088.3151
1694270032.234,841.31866,765.16486,763.1502,818.7546,850.989
1694270032.236,842.52747,759.12085,760.7326,811.50183,716.4103
1694270032.239,850.989,753.0769,758.71796,807.8755,914.2491
1694270032.24,859.0476,750.65936,755.89746,800.6227,896.1172
1694270032.241,863.8828,751.8681,757.9121,788.93774,676.1172
1694270032.2419999,864.2857,749.85345,762.3443,797.3993,610.84247
1694270032.318,869.92676,747.03296,762.74725,813.91943,730.10986
1694270032.319,872.3443,745.42126,765.16486,817.5458,815.12823
1694270032.32,867.1062,739.3773,765.56775,809.4872,768.7912
1694270032.3209999,869.92676,735.34796,763.5531,807.8755,723.2601
1694270032.3219998,871.13556,731.31866,759.92676,813.5165,818.3516
1694270032.3219998,868.315,728.0952,759.5238,813.5165,822.7839
1694270032.323,874.35895,726.8865,759.92676,805.05493,877.98535
1694270032.324,875.9707,723.663,761.53845,811.50183,855.82416
1694270032.325,869.92676,722.4542,759.92676,827.2161,937.619
1694270032.3260002,875.16486,722.4542,761.9414,819.5604,809.4872
1694270032.3260002,884.83514,723.2601,762.74725,819.5604,666.8498
1694270032.3270001,890.4762,722.8571,758.71796,826.0073,862.674
1694270032.351,888.86444,722.4542,757.9121,816.7399,936.4103
1694270032.352,881.6117,725.6777,757.9121,811.9048,741.79486
1694270032.356,882.8205,728.9011,757.1062,805.8608,588.68134
1694270032.3569999,884.0293,727.28937,756.30035,805.8608,653.5531
1694270032.358,886.8498,725.6777,757.50916,817.5458,834.4689
1694270032.358,882.4176,726.8865,755.89746,821.1722,880.0
1694270032.359,875.56775,727.28937,756.30035,821.5751,743.00366
1694270032.36,877.5824,726.8865,759.5238,838.0952,792.96704
1694270032.36,877.5824,726.8865,758.315,855.42126,946.08057
1694270032.3609998,871.13556,728.0952,760.32965,840.10986,810.696
1694270032.362,872.3443,731.31866,762.74725,832.4542,764.7619
1694270032.3630002,875.9707,735.7509,765.56775,831.2454,836.4835
1694270032.37,877.98535,740.58606,769.19415,826.0073,711.1722
1694270032.371,873.1502,745.0183,767.5824,828.022,630.989
1694270032.372,867.9121,747.03296,763.95605,828.8278,823.1868
1694270032.372,861.8681,749.45056,762.74725,831.2454,928.3516
1694270032.373,854.61536,749.85345,762.3443,829.6337,850.58606
1694270032.374,851.79486,754.68866,760.32965,821.5751,697.0696
1694270032.375,844.94507,753.0769,756.30035,821.1722,695.05493
1694270032.375,843.73627,749.85345,753.8828,836.4835,1017.3993
1694270032.376,850.58606,751.8681,753.47986,840.5128,992.8205
1694270032.3769999,856.63007,754.68866,751.06226,820.3663,713.1868
1694270032.3769999,857.4359,763.5531,751.4652,808.68134,619.707
1694270032.3779998,861.4652,767.98535,752.674,811.50183,730.10986
1694270032.452,865.89746,771.2088,750.65936,809.4872,810.293
1694270032.4540002,860.65936,774.43225,748.6447,806.6667,783.69965
1694270032.4550002,862.27106,774.83514,749.85345,809.89014,808.2784
1694270032.457,860.2564,777.25275,755.09155,817.9487,797.8022
1694270032.463,861.4652,778.86444,758.315,828.4249,615.6777
1694270032.464,867.1062,780.07324,760.32965,830.4396,650.32965
1694270032.465,863.47986,780.87915,759.12085,833.2601,974.68866
1694270032.4659998,864.2857,780.87915,760.32965,839.304,1118.1318
1694270032.467,870.7326,783.2967,763.1502,829.6337,736.1539
1694270032.467,874.7619,787.326,765.16486,827.2161,567.326
1694270032.468,876.3736,790.14655,769.19415,837.28937,727.6923
1694270032.4689999,880.0,787.72894,766.77655,838.9011,866.7033
1694270032.501,887.25275,788.1319,767.5824,828.022,817.9487
1694270032.502,882.8205,787.72894,767.98535,827.2161,689.41394
1694270032.503,882.01465,786.9231,766.77655,833.2601,765.16486
1694270032.504,889.2674,790.54944,764.35895,826.8132,803.8461
1694270032.5049999,892.0879,792.1612,762.3443,829.6337,815.12823
1694270032.5059998,894.10254,790.14655,761.53845,822.7839,928.3516
1694270032.507,884.0293,786.9231,759.92676,824.3956,1098.7913
1694270032.508,875.56775,790.14655,759.12085,829.6337,834.87177
1694270032.5089998,884.83514,788.1319,760.32965,820.3663,657.1795
1694270032.5110002,891.685,785.7143,759.92676,827.2161,857.8388
1694270032.512,883.22345,784.90845,758.315,837.6923,904.17584
1694270032.514,872.74725,782.0879,757.9121,837.28937,765.56775
1694270032.542,875.16486,783.2967,758.315,823.9927,648.71796
1694270032.544,882.4176,783.2967,763.5531,827.2161,772.8205
1694270032.5449998,882.4176,780.87915,762.74725,842.52747,1085.8975
1694270032.5459998,886.04395,778.46155,759.92676,840.10986,977.50916
1694270032.5470002,884.43225,776.8498,760.32965,833.663,751.06226
1694270032.5470002,880.40295,774.43225,761.53845,841.7216,830.84247
1694270032.552,884.83514,772.01465,765.16486,857.4359,963.8095
1694270032.553,880.80585,769.59705,762.74725,860.65936,839.707
1694270032.555,883.22345,766.3736,761.13556,851.79486,820.7692
1694270032.556,887.25275,764.35895,765.16486,850.58606,903.36993
1694270032.557,882.8205,766.3736,765.9707,848.97437,796.99634
1694270032.558,882.8205,762.3443,761.13556,845.34796,646.30035
1694270032.586,880.80585,758.315,754.2857,851.39197,783.2967
1694270032.5870001,885.2381,761.53845,754.68866,853.4066,978.315
1694270032.588,882.8205,759.92676,754.68866,844.94507,842.1245
1694270032.588,873.95605,754.68866,751.06226,831.6484,588.68134
1694270032.589,871.53845,751.4652,751.8681,840.10986,620.5128
1694270032.5900002,875.16486,750.65936,755.4945,859.45056,859.85345
1694270032.591,877.1795,749.0476,757.9121,855.0183,961.39197
1694270032.592,873.5531,746.63007,755.09155,842.1245,814.7253
1694270032.592,877.5824,746.2271,751.06226,839.707,678.5348
1694270032.593,884.83514,746.63007,749.45056,848.97437,687.3993
1694270032.5939999,886.4469,746.63007,752.674,855.82416,755.89746
1694270032.595,878.7912,747.8388,755.09155,852.6007,861.06226
1694270032.621,869.5238,746.2271,753.0769,844.1392,896.1172
1694270032.6230001,870.7326,750.2564,755.09155,854.61536,1060.5128
1694270032.6230001,881.2088,754.2857,756.30035,866.30035,996.8498
1694270032.624,876.3736,750.2564,757.50916,861.4652,767.1795
1694270032.625,870.7326,743.00366,756.7033,863.47986,825.6044
1694270032.626,872.3443,741.79486,757.50916,859.45056,842.52747
1694270032.626,867.50916,750.2564,759.92676,851.79486,765.16486
1694270032.627,862.27106,757.50916,757.1062,848.97437,705.12823
1694270032.631,868.71796,759.12085,757.9121,850.58606,844.5421
1694270032.632,877.1795,760.7326,761.53845,856.63007,973.0769
1694270032.633,873.5531,763.95605,760.7326,856.2271,865.89746
1694270032.6339998,867.9121,766.3736,757.9121,851.79486,711.5751
1694270032.663,859.0476,765.56775,757.1062,854.61536,799.41394
1694270032.664,864.68866,765.16486,757.1062,856.63007,917.47253
1694270032.665,870.7326,770.40295,754.2857,848.97437,835.2747
1694270032.666,865.4945,771.2088,753.8828,852.1978,817.5458
1694270032.666,858.24176,771.2088,754.2857,847.76556,772.4176
1694270032.667,853.00366,773.6264,752.27106,841.7216,706.337
1694270032.667,849.3773,776.04395,752.27106,849.7802,698.68134
1694270032.668,853.4066,778.0586,753.8828,857.4359,844.1392
1694270032.669,855.0183,778.86444,755.09155,873.5531,1151.978
1694270032.67,848.1685,778.0586,756.30035,861.4652,957.76556
1694270032.67,840.10986,775.64105,753.47986,846.1539,631.39197
1694270032.671,854.61536,778.86444,752.27106,855.82416,700.293
1694270032.6940002,862.27106,785.31134,755.4945,864.68866,1069.7803
1694270032.6950002,857.03296,791.75824,758.315,852.6007,1002.0879
1694270032.6950002,857.03296,791.75824,759.92676,836.4835,750.2564
1694270032.696,854.61536,787.326,757.9121,842.52747,665.64105
1694270032.697,853.4066,791.3553,758.315,850.989,671.28204
1694270032.697,855.82416,794.9817,757.50916,860.65936,891.28204
1694270032.698,849.7802,789.34064,755.89746,860.2564,946.08057
1694270032.698,852.6007,792.1612,758.71796,851.79486,894.90845
1694270032.6990001,859.85345,795.78754,761.9414,859.85345,983.5531
1694270032.6990001,859.0476,795.38464,766.3736,864.68866,740.18317
1694270032.703,866.30035,797.8022,767.98535,871.9414,732.1245
1694270032.704,875.9707,800.6227,767.5824,871.13556,951.7216
1694270032.78,873.95605,804.65204,768.3883,865.09155,856.2271
1694270032.781,873.1502,801.8315,767.98535,857.8388,648.71796
1694270032.782,871.53845,800.6227,766.77655,858.6447,622.1245
1694270032.783,873.1502,800.2198,762.3443,871.53845,919.0842
1694270032.784,878.7912,800.6227,759.5238,875.16486,946.8865
1694270032.7849998,882.01465,802.6374,762.74725,867.9121,754.2857
1694270032.7859998,883.22345,808.68134,767.1795,847.76556,747.4359
1694270032.7870002,881.2088,813.5165,772.4176,856.63007,944.87177
1694270032.788,888.86444,813.1135,775.64105,865.4945,938.4249
1694270032.789,889.67035,810.696,772.8205,857.4359,871.53845
1694270032.7900002,885.64105,813.1135,771.2088,854.21246,868.315
1694270032.794,880.80585,813.1135,769.19415,851.79486,740.18317
1694270032.838,872.74725,813.5165,767.98535,857.03296,721.6484
1694270032.839,875.56775,814.7253,770.0,862.674,730.9158
1694270032.84,875.16486,811.9048,770.80585,871.53845,879.19415
1694270032.8409998,869.92676,809.0842,768.7912,869.5238,1039.9634
1694270032.8409998,861.4652,805.8608,766.3736,844.5421,772.8205
1694270032.8419998,867.50916,803.44324,763.1502,848.97437,625.7509
1694270032.8430002,875.56775,801.4286,763.95605,867.9121,790.9524
1694270032.844,882.01465,803.44324,765.16486,877.5824,884.83514
1694270032.844,885.2381,805.8608,767.98535,879.19415,809.0842
1694270032.845,878.7912,808.68134,767.5824,865.09155,662.8205
1694270032.845,880.80585,807.0696,761.13556,859.45056,754.2857
1694270032.8460002,882.4176,805.05493,762.74725,863.8828,1021.8315
1694270032.896,882.8205,806.6667,765.56775,853.4066,893.2967
1694270032.8969998,879.59705,802.6374,764.35895,852.6007,828.022
1694270032.8979998,876.3736,796.99634,765.56775,859.85345,892.49084
1694270032.8990002,882.4176,801.02563,770.40295,859.45056,720.84247
1694270032.9,886.04395,807.8755,775.2381,867.1062,645.89746
1694270032.9,882.8205,808.2784,773.22345,875.56775,876.3736
1694270032.901,877.1795,806.6667,772.8205,874.7619,1138.2784
1694270032.9020002,881.2088,806.6667,770.40295,872.3443,917.0696
1694270032.9020002,878.7912,809.4872,768.3883,876.77655,587.0696
1694270032.903,872.3443,805.8608,765.16486,873.1502,684.57874
1694270032.904,873.95605,802.23444,763.1502,878.3883,973.0769
1694270032.905,878.3883,803.44324,764.7619,877.1795,936.8132
1694270032.9390001,881.2088,807.47253,768.3883,870.32965,767.1795
1694270032.94,884.43225,810.293,769.59705,877.1795,705.9341
1694270032.941,888.46155,809.4872,770.80585,883.22345,778.46155
1694270032.941,887.6557,808.68134,774.0293,882.4176,774.0293
1694270032.9420002,886.4469,805.05493,770.80585,880.40295,819.5604
1694270032.943,886.8498,805.4579,769.59705,876.77655,867.1062
1694270032.944,883.22345,805.4579,765.9707,872.74725,741.79486
1694270032.944,880.40295,806.26373,764.7619,869.12085,631.79486
1694270032.945,884.0293,809.89014,767.5824,865.89746,697.8755
1694270032.9459999,884.43225,809.0842,767.98535,869.12085,946.08057
1694270032.947,881.2088,805.05493,763.95605,875.56775,1001.685
1694270032.947,887.25275,807.0696,763.95605,871.9414,625.7509
1694270032.9550002,885.2381,808.68134,765.9707,869.92676,518.97437
1694270032.956,892.0879,807.8755,765.9707,876.3736,751.8681
1694270032.961,896.9231,806.26373,763.1502,875.56775,878.3883
1694270032.962,886.04395,803.0403,762.74725,856.2271,841.7216
1694270032.962,888.86444,798.60803,765.56775,846.1539,731.31866
1694270032.963,885.64105,796.5934,763.95605,853.8095,699.4872
1694270032.964,884.83514,795.78754,763.1502,854.61536,833.663
1694270032.964,890.07324,791.3553,765.9707,855.42126,949.707
1694270032.965,884.43225,790.14655,763.1502,850.989,861.06226
1694270032.966,876.77655,786.9231,757.9121,843.73627,761.53845
1694270032.966,878.7912,786.9231,759.5238,848.97437,647.50916
1694270032.967,881.2088,787.326,762.74725,859.0476,657.98535
1694270032.9889998,884.43225,784.90845,762.3443,857.03296,862.27106
1694270032.99,884.83514,788.1319,765.16486,871.53845,1165.6776
1694270032.9910002,894.5055,789.7436,764.7619,874.7619,1107.2528
1694270032.9910002,898.5348,789.7436,762.74725,858.6447,710.7692
1694270032.992,897.326,788.5348,765.16486,863.0769,674.5055
1694270032.992,899.34064,785.7143,765.9707,861.8681,906.99634
1694270032.993,900.9524,788.1319,765.9707,853.4066,918.68134
1694270032.994,899.7436,790.54944,764.35895,845.34796,684.57874
1694270032.994,888.46155,785.7143,758.315,846.1539,682.5641
1694270032.9950001,883.22345,788.93774,758.315,858.6447,883.22345
1694270032.9950001,884.83514,792.1612,762.3443,859.85345,822.7839
1694270032.996,892.0879,788.5348,762.74725,857.03296,809.0842
1694270033.029,890.07324,788.1319,759.92676,856.2271,725.6777
1694270033.0300002,884.83514,784.90845,761.13556,848.97437,612.4542
1694270033.0310001,889.2674,780.4762,767.1795,850.58606,680.9524
1694270033.0310001,886.8498,784.5055,767.1795,852.6007,784.10254
1694270033.036,883.22345,788.5348,763.5531,843.3333,981.53845
1694270033.036,876.77655,783.2967,762.74725,834.87177,966.63007
1694270033.037,874.7619,785.7143,766.77655,834.87177,749.45056
1694270033.038,875.56775,788.1319,767.1795,842.52747,670.07324
1694270033.038,877.5824,786.9231,770.40295,859.85345,1021.02563
1694270033.039,884.0293,791.3553,774.0293,860.65936,1052.4542
1694270033.039,877.98535,790.14655,769.19415,848.97437,758.71796
1694270033.04,876.3736,791.75824,767.1795,844.94507,703.91943
1694270033.0649998,882.01465,794.17584,768.7912,850.989,776.04395
1694270033.0670002,880.40295,793.7729,770.40295,849.3773,861.8681
1694270033.068,882.8205,794.17584,772.8205,844.5421,894.5055
1694270033.069,882.4176,795.78754,772.4176,849.7802,859.85345
1694270033.0700002,877.5824,796.99634,772.4176,852.6007,768.7912
1694270033.071,874.7619,797.8022,771.2088,846.9597,680.54944
1694270033.071,874.7619,794.9817,770.40295,850.18317,782.49084
1694270033.072,879.59705,792.5641,768.7912,858.24176,988.3883
1694270033.073,888.0586,797.3993,770.0,862.674,1164.0659
1694270033.073,890.4762,801.02563,774.83514,859.0476,782.49084
1694270033.074,881.2088,798.60803,773.22345,855.0183,564.90845
1694270033.075,883.6264,801.8315,772.01465,861.4652,754.2857
1694270033.1260002,880.80585,799.41394,771.2088,861.4652,836.4835
1694270033.127,878.3883,797.8022,770.40295,850.58606,791.3553
1694270033.128,867.50916,801.02563,770.80585,846.1539,655.9707
1694270033.129,853.8095,796.1905,771.2088,848.97437,657.5824
1694270033.129,859.0476,794.9817,772.4176,856.2271,743.8095
1694270033.1299999,864.68866,797.8022,772.8205,865.4945,855.82416
1694270033.135,858.24176,795.38464,770.80585,861.8681,909.011
1694270033.135,848.97437,795.38464,772.4176,865.09155,1047.2161
1694270033.136,850.18317,800.2198,773.6264,868.315,962.6007
1694270033.1369998,851.79486,799.81683,768.3883,861.06226,737.76556
1694270033.1369998,850.989,798.20514,765.56775,854.21246,825.6044
1694270033.1379998,851.39197,799.81683,765.9707,849.3773,906.99634
1694270033.1790001,848.97437,804.65204,768.3883,846.1539,801.4286
1694270033.181,846.55676,806.6667,769.59705,831.2454,619.304
1694270033.1820002,846.9597,806.6667,769.59705,836.08057,678.5348
1694270033.1820002,844.5421,809.0842,771.2088,857.03296,986.77655
1694270033.183,844.5421,812.3077,769.59705,850.58606,900.9524
1694270033.184,844.94507,813.91943,772.01465,840.10986,707.1429
1694270033.185,840.5128,812.71063,778.86444,838.49817,848.97437
1694270033.1859999,830.84247,806.26373,777.25275,845.7509,1008.93774
1694270033.187,830.4396,803.0403,776.04395,844.1392,876.77655
1694270033.187,829.6337,803.8461,775.2381,836.8865,837.6923
1694270033.188,826.4103,807.47253,776.04395,836.8865,869.92676
1694270033.189,830.84247,809.4872,776.04395,838.9011,728.49817
1694270033.231,830.0366,809.4872,776.04395,836.08057,623.3333
1694270033.232,825.6044,805.4579,773.22345,833.663,749.0476
1694270033.232,825.6044,803.8461,770.40295,832.0513,898.93774
1694270033.233,824.7985,806.26373,773.6264,835.6777,805.05493
1694270033.234,838.49817,808.68134,783.2967,855.0183,618.49817
1694270033.2350001,843.73627,813.5165,781.28204,849.3773,676.52014
1694270033.2350001,830.84247,821.1722,772.4176,840.10986,1094.359
1694270033.236,834.4689,823.9927,777.25275,849.3773,1016.99634
1694270033.24,848.97437,822.381,782.49084,848.5714,716.0073
1694270033.241,848.97437,822.7839,776.8498,844.1392,650.7326
1694270033.2419999,845.7509,819.9634,772.4176,846.1539,684.17584
1694270033.243,856.2271,817.1429,776.8498,842.1245,794.17584
1694270033.267,864.68866,822.381,779.2674,836.8865,850.58606
1694270033.268,855.42126,824.7985,777.6557,833.2601,853.8095
1694270033.268,851.39197,823.5897,776.04395,832.8571,937.619
1694270033.269,854.21246,821.978,777.25275,831.6484,774.43225
1694270033.2700002,849.7802,817.9487,777.6557,828.022,751.8681
1694270033.2700002,851.39197,817.1429,780.07324,834.0659,992.01465
1694270033.2710001,854.21246,818.3516,780.87915,838.49817,1000.07324
1694270033.272,845.34796,821.1722,782.8938,832.8571,725.6777
1694270033.272,836.8865,822.7839,781.28204,826.4103,582.6374
1694270033.273,837.6923,819.5604,778.0586,821.978,791.3553
1694270033.274,844.5421,817.5458,778.0586,826.8132,946.08057
1694270033.274,842.1245,819.15753,780.4762,823.9927,807.0696
1694270033.324,840.5128,823.9927,783.69965,809.0842,647.9121
1694270033.325,838.9011,826.4103,780.4762,812.3077,612.8571
1694270033.3260002,842.52747,826.4103,778.0586,821.978,733.3333
1694270033.3260002,847.76556,825.2015,784.5055,824.7985,876.77655
1694270033.3270001,846.9597,826.0073,784.5055,814.7253,900.54944
1694270033.328,848.1685,826.4103,781.28204,805.05493,902.96704
1694270033.328,853.00366,828.022,783.2967,810.293,748.24176
1694270033.329,852.6007,829.6337,785.31134,814.7253,645.09155
1694270033.33,848.5714,823.5897,784.90845,816.337,760.32965
1694270033.33,843.73627,822.7839,780.4762,824.7985,1087.5092
1694270033.334,842.9304,823.1868,777.6557,825.2015,967.4359
1694270033.335,844.5421,819.9634,780.87915,815.5311,568.1319
1694270033.387,844.5421,821.978,784.10254,816.7399,665.2381
1694270033.388,846.55676,821.1722,784.10254,832.0513,909.011
1694270033.389,843.3333,819.9634,786.1172,836.8865,871.53845
1694270033.389,836.8865,821.5751,787.72894,825.6044,718.8278
1694270033.39,841.7216,817.5458,786.1172,832.0513,686.5934
1694270033.391,835.6777,815.12823,785.7143,828.022,828.8278
1694270033.393,821.1722,819.5604,786.52014,801.02563,922.3077
1694270033.3939998,823.1868,823.1868,784.5055,790.9524,891.28204
1694270033.395,824.3956,823.1868,786.52014,782.0879,925.5311
1694270033.3969998,825.6044,824.7985,788.5348,799.011,1054.4689
1694270033.3980002,822.7839,825.2015,786.52014,794.57874,835.6777
1694270033.3990002,814.7253,819.5604,782.49084,778.0586,779.67035
1694270033.451,821.5751,821.1722,780.07324,788.5348,919.4872
1694270033.4529998,824.3956,824.7985,780.87915,786.9231,803.0403
1694270033.4540002,814.7253,820.7692,781.28204,783.2967,637.03296
1694270033.456,821.1722,817.9487,779.67035,791.75824,617.6923
1694270033.457,834.87177,815.5311,778.46155,807.47253,772.8205
1694270033.459,831.2454,817.1429,775.64105,813.91943,915.05493
1694270033.46,824.7985,815.9341,772.4176,792.5641,819.5604
1694270033.4620001,823.5897,811.50183,774.0293,796.99634,673.69965
1694270033.463,820.3663,813.91943,777.25275,815.5311,912.6374
1694270033.464,823.5897,817.5458,778.0586,810.696,1025.8608
1694270033.465,826.4103,817.1429,780.4762,795.78754,852.6007
1694270033.4659998,807.8755,813.5165,778.46155,786.1172,815.9341
1694270033.5059998,795.38464,815.5311,776.04395,783.69965,766.3736
1694270033.508,793.36993,815.12823,775.64105,784.90845,639.85345
1694270033.508,796.99634,807.0696,773.22345,787.72894,679.34064
1694270033.5089998,809.0842,806.26373,774.83514,788.5348,825.2015
1694270033.5100002,817.5458,811.50183,777.6557,785.31134,853.4066
1694270033.5110002,815.12823,813.5165,773.6264,781.28204,731.31866
1694270033.5110002,815.5311,817.9487,771.2088,779.67035,698.2784
1694270033.512,826.4103,819.5604,776.8498,789.7436,888.86444
1694270033.513,823.5897,817.1429,780.07324,806.6667,984.7619
1694270033.514,813.91943,815.5311,778.86444,805.8608,832.8571
1694270033.515,812.3077,813.5165,776.04395,792.5641,610.0366
1694270033.516,816.7399,809.0842,774.83514,791.3553,743.00366
1694270033.5249999,825.2015,811.0989,778.46155,792.1612,1053.2601
1694270033.527,815.5311,817.5458,780.87915,789.34064,933.5897
1694270033.527,811.9048,820.7692,780.87915,790.9524,843.3333
1694270033.528,819.15753,822.381,782.8938,789.34064,752.27106
1694270033.529,809.4872,822.381,783.2967,785.7143,615.2747
1694270033.529,807.47253,818.3516,781.28204,788.5348,712.7839
1694270033.53,817.5458,815.12823,780.07324,790.14655,866.30035
1694270033.5310001,803.44324,814.3223,782.8938,795.78754,1090.7325
1694270033.532,789.7436,817.5458,785.31134,784.90845,893.2967
1694270033.533,786.52014,821.5751,785.31134,773.6264,565.31134
1694270033.5340002,792.1612,821.5751,784.10254,788.5348,619.304
1694270033.5340002,791.75824,819.15753,782.8938,792.1612,782.49084
1694270033.5830002,793.7729,816.7399,780.07324,781.28204,892.49084
1694270033.585,802.23444,813.5165,783.2967,776.04395,763.5531
1694270033.5900002,810.293,811.50183,790.54944,783.69965,657.5824
1694270033.591,814.3223,812.71063,791.75824,804.2491,915.4579
1694270033.591,801.4286,814.3223,789.7436,799.41394,892.49084
1694270033.592,800.6227,814.7253,786.9231,781.28204,853.4066
1694270033.593,812.71063,811.9048,790.54944,785.31134,991.6117
1694270033.5939999,813.1135,809.0842,793.36993,791.75824,942.8571
1694270033.5939999,811.50183,813.91943,796.5934,786.9231,671.685
1694270033.595,813.1135,817.1429,794.17584,788.5348,716.4103
1694270033.596,814.7253,808.68134,790.54944,789.7436,950.5128
1694270033.597,809.4872,801.02563,788.5348,780.4762,889.67035
1694270033.641,808.2784,805.4579,787.326,776.04395,676.9231
1694270033.642,809.89014,807.8755,789.34064,784.10254,701.9048
1694270033.6430001,818.3516,805.05493,789.34064,786.52014,890.07324
1694270033.644,815.12823,803.8461,787.72894,783.69965,909.81683
1694270033.645,809.89014,804.2491,788.1319,784.10254,825.6044
1694270033.6460001,818.7546,801.02563,786.9231,790.54944,760.32965
1694270033.647,821.5751,798.60803,784.90845,803.0403,941.2454
1694270033.648,820.7692,798.60803,784.5055,811.50183,1014.57874
1694270033.648,820.7692,794.57874,784.90845,798.60803,832.0513
1694270033.649,826.8132,788.5348,784.5055,783.69965,769.59705
1694270033.6499999,829.6337,790.54944,785.31134,788.5348,675.7143
1694270033.651,819.9634,788.5348,784.90845,791.3553,663.6264
1694270033.652,826.0073,784.5055,780.07324,792.1612,825.6044
1694270033.6529999,845.34796,786.52014,778.46155,806.26373,974.2857
1694270033.654,842.9304,787.326,780.87915,805.4579,1076.63
1694270033.655,823.9927,781.28204,783.69965,783.69965,786.1172
1694270033.66,825.2015,776.4469,783.2967,784.90845,584.65204
1694270033.661,828.4249,778.46155,782.49084,788.93774,830.84247
1694270033.6620002,830.4396,778.0586,786.1172,786.1172,1054.8718
1694270033.663,837.6923,779.2674,786.52014,783.2967,981.13556
1694270033.664,832.0513,780.87915,787.72894,774.0293,726.4835
1694270033.665,836.8865,781.685,788.93774,786.9231,734.94507
1694270033.666,843.3333,780.4762,785.7143,802.6374,962.6007
1694270033.667,831.2454,779.2674,783.2967,798.20514,882.01465
1694270033.698,836.8865,781.28204,782.49084,800.2198,832.4542
1694270033.6990001,846.55676,784.5055,784.5055,796.99634,782.49084
1694270033.7,843.73627,784.5055,782.8938,786.9231,651.53845
1694270033.7,841.31866,782.8938,783.2967,789.7436,633.4066
1694270033.701,842.9304,781.28204,782.0879,792.96704,813.5165
1694270033.7020001,838.49817,782.49084,779.67035,792.5641,963.8095
1694270033.7020001,840.10986,787.326,780.4762,788.93774,820.7692
1694270033.703,851.39197,792.1612,775.64105,792.5641,627.3626
1694270033.703,849.7802,790.14655,766.77655,799.011,650.7326
1694270033.704,841.7216,790.14655,766.3736,805.05493,1081.8682
1694270033.705,837.28937,796.5934,770.0,796.99634,1067.7656
1694270033.705,842.1245,795.38464,772.8205,781.28204,711.978
1694270033.747,846.1539,794.57874,775.2381,784.90845,715.6044
1694270033.748,844.1392,798.20514,775.64105,801.02563,840.5128
1694270033.7489998,846.1539,797.3993,774.43225,806.6667,775.64105
1694270033.7500002,855.42126,801.02563,779.2674,802.6374,799.41394
1694270033.7510002,855.82416,804.65204,784.90845,801.8315,784.10254
1694270033.7510002,848.5714,805.8608,785.7143,790.9524,683.7729
1694270033.756,848.97437,807.8755,782.49084,787.72894,693.8461
1694270033.757,854.21246,804.2491,781.28204,798.20514,799.011
1694270033.7580001,850.58606,799.011,778.86444,801.8315,975.89746
1694270033.759,838.0952,800.2198,780.4762,803.0403,1041.1721
1694270033.76,833.663,805.4579,779.67035,787.72894,689.011
1694270033.76,836.4835,806.6667,777.25275,781.685,567.326
1694270033.816,841.31866,807.0696,780.87915,799.011,879.59705
1694270033.817,848.1685,807.47253,782.0879,803.8461,960.989
1694270033.8179998,849.7802,807.47253,782.49084,799.81683,786.9231
1694270033.819,849.3773,807.8755,782.8938,794.57874,652.74725
1694270033.82,846.1539,798.60803,778.0586,782.49084,645.89746
1694270033.8209999,848.5714,797.3993,774.83514,781.685,805.4579
1694270033.822,856.2271,806.6667,772.4176,783.2967,911.8315
1694270033.823,850.18317,805.05493,772.4176,775.2381,874.35895
1694270033.824,850.58606,804.2491,774.83514,782.8938,989.19415
1694270033.825,849.7802,808.2784,774.0293,783.69965,909.41394
1694270033.826,850.18317,807.8755,775.2381,782.49084,738.5714
1694270033.8270001,861.4652,804.65204,778.86444,788.5348,866.30035
1694270033.851,858.24176,804.2491,778.46155,797.8022,924.7253
1694270033.852,853.00366,806.26373,776.8498,788.93774,732.52747
1694270033.853,855.82416,810.696,780.4762,786.52014,604.3956
1694270033.853,857.8388,811.9048,783.2967,807.47253,736.1539
1694270033.854,854.21246,811.9048,786.1172,809.0842,1029.4872
1694270033.855,855.0183,813.91943,785.7143,797.3993,1009.7436
1694270033.855,853.4066,815.12823,785.7143,796.1905,756.7033
1694270033.856,845.34796,812.3077,789.34064,802.6374,696.26373
1694270033.86,850.18317,810.293,787.326,809.4872,906.1905
1694270033.8609998,858.24176,813.1135,784.10254,808.68134,871.53845
1694270033.8620002,852.1978,807.0696,779.67035,804.2491,844.5421
1694270033.8620002,848.5714,804.2491,778.46155,792.1612,775.2381
1694270033.891,850.989,808.68134,781.28204,783.2967,592.71063
1694270033.892,846.55676,804.65204,780.4762,786.52014,598.3516
1694270033.893,846.55676,803.8461,778.46155,800.6227,760.32965
1694270033.894,850.58606,801.02563,777.6557,800.6227,863.8828
1694270033.894,850.58606,802.6374,778.46155,795.38464,776.04395
1694270033.895,853.00366,806.26373,781.685,794.9817,675.31134
1694270033.895,861.06226,803.0403,782.49084,786.52014,704.7253
1694270033.896,856.2271,802.6374,779.2674,789.34064,896.1172
1694270033.8969998,853.00366,804.65204,778.86444,785.7143,938.022
1694270033.8969998,851.79486,806.26373,780.07324,773.22345,769.19415
1694270033.8979998,851.79486,805.05493,787.326,781.685,657.98535
1694270033.8990002,850.989,801.8315,788.5348,796.1905,1014.17584
1694270033.925,850.989,801.02563,783.2967,790.54944,1185.0183
1694270033.929,853.4066,802.6374,785.31134,779.2674,913.0403
1694270033.9299998,845.34796,801.8315,789.34064,774.0293,828.8278
1694270033.932,842.1245,802.23444,788.1319,770.40295,754.68866
1694270033.934,842.52747,804.65204,787.72894,769.19415,637.03296
1694270033.936,843.3333,801.4286,787.326,764.7619,709.9634
1694270033.937,842.52747,797.3993,785.7143,772.8205,1011.3553
1694270033.938,837.6923,796.5934,786.1172,786.1172,1162.4542
1694270033.9390001,827.619,795.38464,787.72894,780.07324,771.2088
1694270033.94,832.0513,796.1905,791.3553,774.83514,563.2967
1694270033.944,837.28937,796.5934,792.1612,783.2967,755.89746
1694270033.945,833.2601,795.38464,791.75824,785.31134,854.61536
1694270033.9750001,834.4689,799.011,794.17584,777.6557,760.7326
1694270033.976,830.4396,803.44324,792.1612,776.04395,657.98535
1694270033.977,821.1722,803.44324,788.93774,770.80585,724.4689
1694270033.978,808.68134,804.2491,791.3553,770.0,768.3883
1694270033.978,799.81683,803.8461,792.5641,782.0879,801.8315
1694270033.979,800.2198,804.65204,794.57874,787.326,925.5311
1694270033.98,799.41394,803.8461,795.38464,778.0586,901.75824
1694270033.98,792.5641,798.60803,794.9817,782.49084,705.12823
1694270033.981,790.14655,806.6667,792.5641,794.17584,686.1905
1694270033.981,792.96704,813.1135,790.14655,797.3993,871.9414
1694270033.982,783.2967,807.0696,790.14655,802.6374,1203.1501
1694270033.983,775.2381,805.8608,789.34064,796.99634,1033.9194
1694270034.006,777.6557,805.8608,787.326,779.2674,591.9048
1694270034.007,777.6557,804.65204,788.5348,765.16486,638.6447
1694270034.007,782.8938,804.65204,787.326,775.2381,960.58606
1694270034.008,780.07324,805.05493,785.31134,775.64105,859.85345
1694270034.008,773.6264,807.47253,784.5055,767.1795,616.4835
1694270034.0089998,765.16486,806.26373,787.326,767.1795,625.34796
1694270034.01,763.1502,802.23444,785.7143,769.59705,739.7802
1694270034.01,767.98535,803.8461,780.07324,768.3883,765.9707
1694270034.0110002,762.3443,803.8461,777.6557,762.3443,787.326
1694270034.012,758.315,804.2491,777.6557,759.92676,825.6044
1694270034.012,761.53845,804.2491,777.6557,762.3443,715.6044
1694270034.013,771.2088,807.47253,775.64105,759.5238,595.9341
1694270034.075,775.2381,811.0989,774.0293,765.9707,778.46155
1694270034.076,774.43225,809.4872,774.0293,774.83514,1065.751
1694270034.077,774.43225,811.0989,770.80585,768.3883,900.14655
1694270034.078,785.31134,810.696,771.2088,769.59705,595.9341
1694270034.079,806.26373,808.68134,773.22345,770.0,632.1978
1694270034.079,819.9634,804.65204,770.80585,759.12085,931.5751
1694270034.08,829.2308,806.26373,773.22345,761.53845,956.55676
1694270034.0809999,836.08057,805.8608,775.2381,766.3736,787.326
1694270034.0809999,834.87177,802.23444,771.2088,767.5824,694.65204
1694270034.0819998,829.2308,799.81683,768.7912,776.04395,904.17584
1694270034.0830002,830.4396,796.5934,768.7912,784.10254,961.39197
1694270034.0830002,831.6484,800.2198,771.6117,780.87915,819.9634
1694270034.108,830.4396,806.26373,776.04395,775.64105,832.4542
1694270034.109,825.2015,807.8755,777.6557,772.01465,831.2454
1694270034.1100001,819.5604,806.6667,777.25275,765.56775,652.3443
1694270034.111,819.5604,803.8461,773.6264,765.16486,752.674
1694270034.112,822.381,801.8315,770.40295,758.71796,917.8755
1694270034.112,811.0989,798.20514,771.2088,751.4652,865.89746
1694270034.113,806.6667,797.8022,774.43225,762.74725,726.08057
1694270034.113,814.7253,798.20514,772.4176,773.22345,572.96704
1694270034.1139998,811.0989,796.99634,770.40295,778.46155,800.6227
1694270034.115,812.3077,801.02563,768.7912,780.07324,1218.4615
1694270034.116,818.3516,804.65204,769.59705,760.7326,953.3333
1694270034.1169999,819.15753,807.47253,773.22345,755.09155,676.9231
1694270034.15,819.15753,807.47253,775.64105,759.12085,667.6557
1694270034.151,813.1135,804.65204,775.64105,767.5824,703.91943
1694270034.155,815.5311,803.44324,774.0293,778.46155,837.28937
1694270034.156,823.1868,807.8755,776.8498,776.04395,856.2271
1694270034.1580002,815.9341,807.47253,776.4469,772.8205,740.58606
1694270034.1590002,817.1429,804.2491,774.0293,768.7912,718.8278
1694270034.1590002,827.2161,803.0403,774.43225,767.5824,741.39197
1694270034.16,822.7839,799.41394,777.25275,765.9707,797.8022
1694270034.161,824.3956,799.011,776.4469,772.4176,1113.6996
1694270034.162,827.2161,806.26373,780.07324,777.6557,988.7912
1694270034.163,821.1722,808.68134,779.67035,763.1502,593.5165
1694270034.164,825.6044,806.6667,776.04395,759.5238,654.35895
1694270034.1939998,833.2601,807.0696,777.6557,774.43225,881.6117
1694270034.196,835.2747,811.9048,776.04395,781.28204,911.8315
1694270034.1980002,826.8132,811.9048,774.0293,770.40295,790.9524
1694270034.1990001,820.3663,806.26373,777.25275,764.7619,665.2381
1694270034.2,825.2015,807.0696,778.86444,768.7912,769.59705
1694270034.202,827.619,812.3077,777.6557,771.6117,917.8755
1694270034.203,829.6337,817.5458,782.0879,775.64105,901.75824
1694270034.204,826.8132,819.9634,783.2967,782.8938,938.022
1694270034.205,822.7839,813.91943,781.28204,781.28204,1061.3187
1694270034.207,817.1429,810.293,777.6557,763.1502,866.30035
1694270034.208,816.7399,812.3077,776.04395,757.50916,762.3443
1694270034.208,816.7399,809.89014,776.8498,766.3736,974.2857
1694270034.263,820.3663,805.05493,775.64105,770.80585,899.7436
1694270034.264,817.5458,802.23444,773.6264,765.9707,634.61536
1694270034.2649999,817.1429,799.011,771.2088,751.8681,635.42126
1694270034.2659998,817.5458,790.9524,769.59705,751.06226,786.1172
1694270034.2710001,806.6667,788.93774,768.7912,752.674,859.0476
1694270034.272,805.8608,792.5641,770.80585,755.4945,801.02563
1694270034.272,815.12823,792.96704,772.01465,764.35895,743.8095
1694270034.273,824.7985,788.5348,771.2088,774.83514,907.8022
1694270034.274,831.6484,790.9524,775.2381,766.3736,926.337
1694270034.274,833.663,792.96704,775.64105,754.2857,839.707
1694270034.275,833.663,790.54944,772.01465,759.12085,780.4762
1694270034.276,834.4689,790.9524,774.43225,762.74725,679.34064
1694270034.299,840.5128,786.52014,776.04395,760.32965,645.09155
1694270034.3,853.4066,783.69965,777.25275,762.74725,694.65204
1694270034.3009999,862.27106,787.326,777.6557,772.4176,846.55676
1694270034.302,866.30035,786.9231,778.0586,781.685,1032.3077
1694270034.303,873.95605,788.5348,780.4762,779.2674,782.8938
1694270034.304,891.28204,792.1612,780.07324,782.49084,587.0696
1694270034.3049998,901.75824,787.326,780.07324,784.90845,873.1502
1694270034.3049998,890.07324,782.49084,783.69965,784.5055,1156.0073
1694270034.3059998,876.3736,782.8938,784.5055,784.5055,885.2381
1694270034.3070002,876.77655,781.28204,782.0879,786.9231,641.4652
1694270034.3070002,879.59705,779.67035,780.87915,787.326,678.5348
1694270034.308,886.8498,781.28204,784.10254,796.1905,744.21246
1694270034.3379998,886.4469,780.07324,781.685,796.99634,800.2198
1694270034.339,879.59705,779.2674,780.4762,786.1172,854.61536
1694270034.34,876.77655,779.67035,779.67035,778.86444,913.44324
1694270034.34,875.9707,778.86444,779.67035,773.22345,749.45056
1694270034.3409998,874.7619,776.8498,782.8938,779.67035,649.12085
1694270034.3420002,867.50916,777.25275,778.86444,788.1319,859.45056
1694270034.346,870.7326,779.2674,774.43225,799.41394,1256.7399
1694270034.346,873.5531,783.2967,775.64105,795.78754,1073.4066
1694270034.3470001,860.2564,785.31134,776.4469,775.2381,638.6447
1694270034.3470001,849.7802,784.10254,775.2381,772.8205,633.8095
1694270034.348,857.8388,787.326,776.4469,776.8498,791.75824
1694270034.348,861.06226,792.96704,778.46155,778.86444,861.4652
1694270034.405,855.42126,793.7729,778.0586,779.67035,781.685
1694270034.4060001,853.4066,790.54944,780.07324,783.2967,686.5934
1694270034.407,856.63007,792.5641,780.87915,786.9231,826.4103
1694270034.408,861.8681,798.60803,776.8498,784.5055,849.3773
1694270034.408,865.89746,801.8315,776.8498,784.90845,813.5165
1694270034.409,867.50916,804.65204,780.4762,774.43225,923.5165
1694270034.4099998,865.4945,803.0403,780.4762,773.6264,925.12823
1694270034.411,863.8828,806.26373,782.8938,772.8205,684.57874
1694270034.412,855.82416,807.47253,781.685,771.2088,672.0879
1694270034.4129999,856.63007,805.8608,779.67035,778.46155,912.23444
1694270034.414,865.4945,807.47253,782.0879,780.87915,919.89014
1694270034.415,859.0476,809.4872,783.2967,776.04395,669.2674
1694270034.474,853.8095,809.0842,781.28204,774.83514,657.1795
1694270034.4750001,855.42126,805.4579,777.6557,780.07324,847.3626
1694270034.476,852.1978,805.4579,775.64105,775.64105,888.46155
1694270034.476,847.3626,809.0842,771.6117,761.13556,758.315
1694270034.477,848.97437,809.89014,772.01465,769.19415,644.2857
1694270034.4780002,847.76556,813.5165,776.4469,781.28204,709.9634
1694270034.4780002,842.9304,818.3516,774.83514,777.6557,838.49817
1694270034.479,849.7802,816.337,774.83514,773.22345,902.1612
1694270034.483,842.1245,811.50183,771.2088,762.74725,825.6044
1694270034.484,834.87177,812.3077,771.2088,771.6117,906.1905
1694270034.485,831.2454,812.71063,778.0586,776.4469,841.31866
1694270034.485,825.6044,812.3077,784.10254,765.9707,733.3333
1694270034.529,827.2161,814.3223,787.72894,770.40295,946.8865
1694270034.53,832.4542,815.5311,785.7143,777.6557,1094.762
1694270034.5310001,823.5897,814.7253,782.49084,764.7619,822.7839
1694270034.532,826.0073,817.9487,781.685,755.09155,629.7802
1694270034.533,829.2308,817.1429,780.4762,757.50916,761.9414
1694270034.5340002,824.3956,815.5311,780.87915,764.7619,970.2564
1694270034.5340002,822.7839,817.5458,779.67035,755.89746,938.8278
1694270034.535,823.5897,817.1429,778.86444,746.2271,705.9341
1694270034.536,820.7692,814.3223,778.86444,750.2564,751.8681
1694270034.537,816.337,808.2784,778.0586,761.9414,1041.1721
1694270034.537,819.9634,807.0696,781.685,759.12085,973.8828
1694270034.5379999,815.9341,811.50183,783.2967,745.0183,858.24176
1694270034.569,805.4579,812.71063,781.28204,745.42126,843.73627
1694270034.57,804.2491,814.7253,783.69965,749.45056,651.13556
1694270034.57,813.1135,817.9487,786.1172,756.30035,600.7692
1694270034.571,818.3516,817.1429,784.90845,761.53845,773.22345
1694270034.572,823.9927,817.1429,784.5055,761.9414,838.0952
1694270034.572,819.15753,815.12823,785.7143,752.674,770.0
1694270034.573,803.44324,811.50183,784.90845,746.2271,627.3626
1694270034.5740001,801.4286,810.293,783.2967,753.0769,621.31866
1694270034.5740001,808.2784,812.71063,784.5055,765.56775,996.8498
1694270034.575,817.1429,816.337,786.1172,770.0,1046.0073
1694270034.579,818.3516,815.5311,786.1172,760.7326,751.4652
1694270034.58,809.0842,810.696,786.1172,752.27106,615.2747
1694270034.582,806.6667,813.1135,786.52014,757.1062,714.3956
1694270034.5830002,808.2784,812.3077,787.72894,760.7326,870.7326
1694270034.5830002,808.68134,807.0696,788.5348,761.13556,862.27106
1694270034.584,803.44324,811.50183,786.9231,756.30035,805.05493
1694270034.585,801.02563,812.71063,785.31134,747.03296,716.8132
1694270034.586,804.65204,811.0989,782.49084,740.58606,681.75824
1694270034.586,807.8755,809.0842,783.69965,745.0183,799.81683
1694270034.5870001,797.8022,808.2784,783.69965,754.68866,1013.36993
1694270034.5870001,786.52014,807.8755,780.4762,759.12085,1211.2087
1694270034.588,784.10254,807.8755,781.28204,751.8681,889.67035
1694270034.588,784.90845,811.0989,781.28204,748.24176,587.47253
1694270034.589,777.6557,814.3223,779.67035,743.00366,738.97437
1694270034.64,776.04395,814.7253,784.90845,743.8095,870.32965
1694270034.641,780.4762,813.1135,784.10254,730.10986,781.685
1694270034.642,779.67035,814.3223,779.67035,709.15753,640.2564
1694270034.6430001,773.22345,809.0842,780.07324,708.3516,720.84247
1694270034.644,770.0,804.2491,779.67035,713.5897,776.04395
1694270034.645,767.1795,805.8608,778.46155,717.619,873.5531
1694270034.6460001,764.7619,808.2784,779.67035,725.2747,944.0659
1694270034.6460001,765.16486,812.71063,779.67035,739.7802,1046.8132
1694270034.647,776.4469,809.89014,774.43225,745.82416,1010.14655
1694270034.648,775.64105,798.60803,769.19415,730.5128,773.22345
1694270034.648,772.4176,798.20514,770.0,713.5897,828.8278
1694270034.649,792.5641,804.2491,772.8205,724.4689,860.2564
1694270034.6940002,799.011,805.8608,774.83514,740.58606,719.2308
1694270034.6950002,790.14655,806.26373,774.43225,739.3773,590.696
1694270034.696,798.60803,804.65204,770.80585,740.989,699.0842
1694270034.697,804.65204,802.6374,770.80585,757.1062,961.79486
1694270034.697,797.8022,802.6374,772.8205,757.1062,930.3663
1694270034.698,806.6667,807.8755,777.25275,753.0769,730.5128
1694270034.6990001,816.337,814.7253,778.46155,762.74725,748.6447
1694270034.7,809.89014,815.9341,776.04395,774.43225,1088.3151
1694270034.7,816.7399,816.337,772.4176,767.1795,971.06226
1694270034.701,822.381,818.3516,770.40295,761.13556,792.96704
1694270034.7020001,815.5311,823.1868,772.4176,760.7326,774.83514
1694270034.703,819.9634,820.7692,772.4176,759.5238,629.7802
1694270034.7340002,830.4396,817.9487,772.8205,770.40295,637.03296
1694270034.736,827.2161,820.3663,772.8205,778.46155,788.1319
1694270034.736,821.978,822.381,774.83514,770.80585,863.8828
1694270034.737,825.6044,824.7985,780.4762,763.5531,765.16486
1694270034.738,823.9927,823.5897,782.0879,765.9707,578.20514
1694270034.738,819.15753,819.9634,777.6557,771.2088,677.326
1694270034.739,826.8132,818.7546,778.0586,782.8938,1117.7289
1694270034.74,827.619,820.7692,775.64105,785.7143,1050.0366
1694270034.74,829.2308,822.381,773.22345,776.4469,748.24176
1694270034.741,831.6484,821.5751,778.0586,767.98535,624.1392
1694270034.742,835.2747,819.15753,775.64105,772.8205,672.0879
1694270034.743,837.28937,820.7692,771.6117,778.86444,801.8315
1694270034.766,832.8571,821.1722,774.43225,779.2674,894.90845
1694270034.768,825.6044,821.978,775.64105,780.4762,871.9414
1694270034.772,813.91943,822.7839,773.22345,778.86444,781.685
1694270034.773,808.68134,823.5897,774.0293,778.46155,658.7912
1694270034.7740002,811.9048,821.1722,773.6264,778.0586,697.8755
1694270034.776,804.2491,817.5458,774.83514,772.8205,971.8681
1694270034.777,796.5934,816.7399,776.8498,770.40295,1025.8608
1694270034.779,804.65204,815.5311,775.2381,765.56775,727.6923
1694270034.78,807.8755,820.3663,778.0586,764.35895,585.05493
1694270034.781,814.3223,824.7985,779.2674,763.1502,829.6337
1694270034.781,817.5458,819.9634,778.0586,770.80585,1077.033
1694270034.782,813.1135,821.1722,779.2674,773.22345,955.7509
1694270034.815,805.8608,824.7985,779.2674,768.7912,707.9487
1694270034.816,803.8461,819.5604,779.67035,772.4176,714.3956
1694270034.817,805.4579,817.9487,776.04395,780.4762,812.3077
1694270034.8179998,805.8608,819.15753,777.6557,778.0586,818.7546
1694270034.819,803.44324,818.7546,782.0879,774.0293,861.8681
1694270034.819,801.8315,817.5458,779.2674,770.0,830.0366
1694270034.82,808.2784,813.5165,777.25275,765.9707,662.8205
1694270034.8209999,811.0989,811.0989,778.46155,760.7326,681.75824
1694270034.8209999,813.5165,814.3223,781.28204,767.98535,860.2564
1694270034.822,813.5165,811.9048,780.4762,783.2967,1093.5531
1694270034.823,815.9341,810.293,779.67035,771.2088,857.4359
1694270034.823,813.1135,811.0989,782.49084,755.4945,624.5421
1694270034.876,802.6374,807.47253,785.7143,765.56775,858.6447
1694270034.8769999,806.26373,803.0403,784.90845,774.83514,1163.2601
1694270034.878,815.5311,800.6227,783.69965,760.7326,998.46155
1694270034.879,811.0989,796.99634,783.69965,752.27106,684.9817
1694270034.884,815.5311,798.20514,784.90845,767.98535,655.16486
1694270034.885,822.381,799.81683,785.31134,771.2088,829.2308
1694270034.8860002,811.0989,795.78754,782.0879,769.59705,922.71063
1694270034.887,810.293,797.3993,781.28204,763.1502,830.0366
1694270034.887,816.337,803.0403,780.4762,748.6447,819.15753
1694270034.888,816.337,804.2491,780.4762,758.315,876.77655
1694270034.889,816.7399,805.05493,782.49084,764.35895,716.4103
1694270034.889,819.15753,801.02563,782.8938,763.5531,749.0476
1694270034.9190001,817.1429,797.8022,780.07324,761.9414,878.7912
1694270034.92,812.71063,797.3993,775.64105,747.8388,763.95605
1694270034.92,812.71063,794.9817,777.25275,740.58606,557.6557
1694270034.921,809.89014,792.1612,781.685,749.0476,579.011
1694270034.922,811.0989,789.34064,783.2967,756.7033,838.49817
1694270034.923,823.5897,790.54944,782.49084,753.8828,963.8095
1694270034.923,819.5604,794.57874,784.10254,750.65936,818.3516
1694270034.924,809.4872,793.7729,786.52014,746.2271,690.2198
1694270034.925,811.9048,792.96704,786.1172,749.45056,810.696
1694270034.927,808.68134,794.9817,784.10254,753.47986,844.94507
1694270034.928,812.71063,796.99634,779.2674,748.6447,806.26373
1694270034.928,817.5458,796.5934,777.25275,744.61536,791.3553
1694270034.951,814.7253,793.36993,777.6557,755.09155,1025.0549
1694270034.952,811.50183,794.57874,779.2674,756.30035,932.381
1694270034.9529998,811.0989,795.38464,779.2674,757.1062,709.9634
1694270034.9539998,807.8755,788.5348,776.4469,748.6447,834.0659
1694270034.9539998,809.89014,785.7143,776.4469,735.7509,801.8315
1694270034.9550002,806.6667,787.326,775.64105,738.5714,701.50183
1694270034.959,799.41394,783.69965,774.83514,739.7802,673.69965
1694270034.96,797.8022,784.10254,773.6264,741.79486,901.75824
1694270034.96,808.68134,784.5055,772.4176,760.32965,1267.2161
1694270034.961,826.4103,788.5348,775.2381,773.22345,990.80585
1694270034.962,825.6044,789.34064,777.6557,765.9707,647.50916
1694270034.962,812.71063,784.90845,776.8498,751.8681,640.65936
1694270034.9910002,811.50183,783.69965,777.25275,760.32965,738.5714
1694270034.992,811.50183,782.8938,776.4469,765.56775,818.7546
1694270034.993,814.3223,787.326,775.64105,761.53845,817.1429
1694270034.993,819.5604,792.5641,776.04395,763.1502,735.34796
1694270034.994,817.9487,794.17584,776.8498,756.7033,624.1392
1694270034.9950001,819.15753,793.36993,776.04395,759.5238,654.7619
1694270034.9950001,827.2161,793.7729,775.64105,765.56775,855.82416
1694270034.996,827.2161,798.60803,779.2674,775.64105,1092.7472
1694270034.996,815.12823,796.99634,776.8498,778.86444,923.91943
1694270034.997,807.0696,793.7729,776.04395,774.43225,620.9158
1694270034.997,808.2784,796.5934,777.25275,779.67035,660.0
1694270034.9980001,811.0989,796.5934,775.64105,786.1172,930.7692
1694270035.0419998,813.91943,798.20514,774.83514,768.7912,1011.3553
1694270035.043,817.5458,804.2491,776.04395,751.4652,765.16486
1694270035.044,817.9487,804.2491,777.6557,750.65936,656.77655
1694270035.0460002,815.12823,803.0403,777.25275,759.5238,789.34064
1694270035.048,819.15753,802.6374,777.25275,765.16486,843.73627
1694270035.049,823.5897,801.8315,779.2674,763.1502,888.86444
1694270035.05,822.381,801.8315,781.685,763.5531,990.40295
1694270035.051,813.5165,800.6227,778.86444,768.3883,1037.5458
1694270035.055,809.4872,803.44324,778.0586,758.315,745.42126
1694270035.056,811.0989,803.44324,779.2674,760.7326,729.304
1694270035.056,819.9634,807.8755,777.6557,779.2674,889.67035
1694270035.057,823.9927,811.9048,780.07324,776.4469,751.06226
1694270035.089,820.3663,808.68134,779.67035,758.71796,608.022
1694270035.09,817.1429,807.0696,776.4469,755.09155,636.2271
1694270035.091,816.337,804.65204,776.04395,768.7912,887.6557
1694270035.091,819.9634,804.65204,776.4469,770.0,950.10986
1694270035.092,816.337,803.0403,772.01465,757.1062,762.3443
1694270035.093,820.7692,807.47253,772.8205,755.4945,706.7399
1694270035.093,825.2015,813.91943,779.67035,780.07324,991.6117
1694270035.094,823.5897,812.71063,778.86444,788.5348,1088.7179
1694270035.095,820.7692,812.71063,774.83514,774.0293,853.00366
1694270035.095,821.978,812.71063,776.8498,767.1795,736.9597
1694270035.096,817.1429,810.293,780.07324,767.98535,643.8828
1694270035.096,811.50183,807.8755,778.46155,758.315,623.73627
1694270035.1430001,815.5311,805.4579,775.2381,758.71796,720.84247
1694270035.144,815.9341,808.68134,777.6557,775.2381,843.3333
1694270035.145,814.7253,811.0989,778.0586,778.86444,961.39197
1694270035.146,811.9048,810.696,775.2381,761.53845,783.69965
1694270035.146,809.0842,808.68134,773.22345,756.30035,547.98535
1694270035.147,805.8608,808.68134,770.80585,775.2381,778.0586
1694270035.148,804.2491,811.0989,768.7912,796.1905,1245.4579
1694270035.148,808.68134,809.0842,764.35895,780.07324,990.80585
1694270035.149,805.05493,807.0696,762.74725,770.80585,644.68866
1694270035.15,796.5934,809.0842,762.74725,781.685,637.4359
1694270035.155,805.8608,810.293,759.5238,773.22345,702.3077
1694270035.155,806.6667,807.8755,756.30035,770.0,802.23444
1694270035.184,805.05493,807.47253,755.09155,765.9707,828.8278
1694270035.185,806.6667,807.8755,759.5238,761.13556,772.01465
1694270035.1859999,806.26373,806.26373,763.1502,764.35895,711.978
1694270035.1859999,812.71063,804.65204,761.9414,768.7912,739.7802
1694270035.187,815.12823,805.8608,760.7326,782.0879,932.381
1694270035.188,819.15753,811.0989,764.7619,786.9231,1103.2234
1694270035.188,821.1722,815.5311,767.1795,777.25275,903.36993
1694270035.189,811.50183,817.1429,765.16486,770.0,707.1429
1694270035.189,812.3077,815.12823,762.3443,775.64105,725.6777
1694270035.19,822.7839,815.12823,759.12085,794.17584,1112.0879
1694270035.191,824.3956,814.7253,758.315,782.49084,1153.5897
1694270035.191,822.381,811.50183,757.9121,767.1795,789.7436
1694270035.24,819.5604,812.71063,758.315,771.2088,731.31866
1694270035.241,812.71063,812.71063,755.89746,765.9707,739.7802
1694270035.2419999,812.71063,809.4872,753.8828,772.8205,780.07324
1694270035.243,826.0073,810.293,755.89746,782.49084,821.5751
1694270035.243,826.4103,813.1135,755.09155,779.67035,774.43225
1694270035.244,816.337,811.9048,753.0769,780.07324,791.75824
1694270035.245,814.7253,807.8755,753.8828,773.6264,723.2601
1694270035.246,822.7839,812.71063,759.12085,778.46155,717.619
1694270035.246,828.022,813.1135,758.71796,794.57874,994.0293
1694270035.247,817.5458,807.8755,753.47986,795.38464,1136.2638
1694270035.248,805.4579,806.26373,753.8828,776.4469,755.89746
1694270036.076,842.9304,796.5934,778.0586,808.2784,782.8938
1694270036.0809999,847.3626,799.81683,780.07324,796.99634,658.7912
1694270036.0809999,848.5714,802.23444,778.0586,796.1905,666.04395
1694270036.0819998,843.3333,800.6227,776.4469,807.0696,802.23444
1694270036.0830002,846.55676,800.2198,776.8498,808.68134,922.3077
1694270036.084,847.3626,803.8461,778.46155,803.44324,873.95605
1694270036.085,851.79486,806.26373,779.2674,797.3993,690.2198
1694270036.085,855.0183,808.68134,776.4469,792.1612,617.6923
1694270036.0860002,855.82416,813.1135,777.25275,804.2491,981.53845
1694270036.1169999,859.85345,813.5165,780.07324,810.696,1373.9927
1694270036.118,866.7033,811.50183,781.685,794.57874,1035.5311
1694270036.118,865.89746,811.50183,781.28204,786.1172,658.7912
1694270036.119,854.61536,814.3223,779.2674,794.17584,786.52014
1694270036.119,853.8095,817.1429,780.87915,797.8022,857.8388
1694270036.12,852.1978,815.12823,781.28204,796.99634,865.89746
1694270036.121,845.7509,808.68134,783.69965,790.9524,879.19415
1694270036.122,837.6923,812.71063,788.5348,803.8461,929.9634
1694270036.1230001,834.87177,816.337,789.7436,813.5165,790.14655
1694270036.124,836.8865,813.91943,788.5348,805.05493,684.9817
1694270036.124,834.0659,808.2784,786.1172,809.0842,793.7729
1694270036.125,834.4689,806.6667,787.72894,809.89014,807.47253
1694270036.18,836.08057,809.0842,789.7436,798.20514,713.5897
1694270036.1820002,830.0366,806.6667,785.7143,788.5348,583.44324
1694270036.1820002,825.6044,809.0842,784.5055,792.96704,782.0879
1694270036.183,827.2161,809.4872,782.8938,808.2784,1151.1721
1694270036.184,834.87177,809.89014,784.10254,798.20514,1004.90845
1694270036.185,834.87177,811.9048,786.9231,790.9524,724.4689
1694270036.189,823.5897,808.2784,784.5055,799.41394,729.707
1694270036.19,823.5897,809.4872,784.10254,802.23444,935.6044
1694270036.191,832.8571,810.293,783.2967,796.99634,889.2674
1694270036.191,827.619,807.0696,785.7143,792.1612,805.4579
1694270036.192,821.5751,811.0989,791.3553,792.96704,747.4359
1694270036.1929998,829.6337,813.5165,793.36993,794.17584,583.8461
1694270036.248,840.10986,811.0989,793.7729,794.57874,630.18317
1694270036.2489998,836.8865,810.696,792.1612,800.2198,795.78754
1694270036.2499998,821.978,807.47253,788.93774,794.17584,871.9414
1694270036.2510002,817.1429,809.89014,789.34064,789.34064,771.6117
1694270036.2510002,820.7692,813.91943,787.326,793.36993,585.4579
1694270036.252,822.7839,810.696,785.31134,797.3993,718.8278
1694270036.252,826.0073,807.47253,784.90845,805.05493,1162.4542
1694270036.253,825.2015,805.8608,787.326,802.6374,1079.4506
1694270036.2540002,815.12823,802.6374,791.3553,793.36993,718.022
1694270036.2540002,812.3077,802.6374,790.54944,790.54944,640.65936
1694270036.255,819.15753,804.65204,790.54944,807.47253,890.87915
1694270036.256,827.619,804.2491,793.7729,815.9341,937.2161
1694270036.281,829.6337,801.4286,790.54944,802.6374,834.87177
1694270036.2819998,827.2161,799.81683,788.5348,792.96704,801.02563
1694270036.283,826.0073,802.23444,790.9524,786.1172,737.3626
1694270036.284,824.3956,803.8461,789.34064,776.4469,670.87915
1694270036.2849998,822.381,803.8461,788.1319,779.2674,731.7216
1694270036.2849998,820.3663,801.02563,784.10254,785.7143,938.4249
1694270036.286,817.5458,797.3993,784.10254,792.1612,1020.6227
1694270036.2870002,821.1722,800.6227,786.1172,783.2967,745.0183
1694270036.2910001,819.15753,798.60803,784.90845,782.8938,608.8278
1694270036.292,813.5165,794.9817,782.8938,789.34064,778.86444
1694270036.293,813.91943,797.3993,785.7143,782.8938,931.978
1694270036.2940001,812.3077,793.7729,786.1172,777.6557,819.9634
1694270036.325,809.4872,789.34064,783.2967,769.59705,603.1868
1694270036.3260002,805.4579,789.7436,782.8938,778.86444,710.7692
1694270036.3260002,801.8315,788.93774,784.10254,796.1905,944.0659
1694270036.3270001,799.41394,785.7143,782.0879,790.54944,849.3773
1694270036.328,792.96704,783.2967,777.25275,782.0879,799.81683
1694270036.328,792.96704,783.2967,777.25275,774.0293,847.76556
1694270036.329,800.2198,780.4762,781.28204,767.5824,705.5311
1694270036.329,802.23444,775.64105,782.8938,777.25275,708.7546
1694270036.33,797.3993,776.4469,780.4762,774.0293,803.44324
1694270036.33,796.5934,774.43225,776.4469,775.64105,1060.9158
1694270036.331,796.1905,770.0,776.8498,776.8498,1120.1465
1694270036.331,796.1905,766.3736,782.0879,762.74725,684.17584
1694270036.36,803.0403,766.77655,782.0879,768.3883,719.2308
1694270036.3609998,803.44324,772.8205,782.49084,785.7143,1008.1319
1694270036.3609998,797.3993,770.80585,783.69965,776.04395,859.85345
1694270036.362,791.75824,768.7912,782.8938,764.35895,637.8388
1694270036.3630002,797.3993,774.83514,784.5055,763.1502,595.5311
1694270036.3630002,803.0403,776.8498,786.1172,772.4176,757.9121
1694270036.364,799.81683,775.2381,784.5055,779.67035,895.7143
1694270036.365,802.23444,775.2381,787.326,768.3883,807.0696
1694270036.3660002,804.65204,778.86444,790.9524,766.77655,797.3993
1694270036.3660002,803.0403,782.49084,790.14655,775.2381,847.76556
1694270036.37,808.2784,786.9231,790.54944,775.64105,689.011
1694270036.371,808.2784,786.52014,790.9524,779.2674,745.82416
1694270036.424,807.0696,784.10254,790.9524,781.685,898.1319
1694270036.425,807.8755,786.52014,791.75824,777.6557,772.01465
1694270036.4259999,794.17584,788.5348,790.54944,780.07324,555.64105
1694270036.427,796.1905,787.72894,788.1319,786.1172,617.28937
1694270036.427,801.02563,788.1319,785.7143,790.54944,936.0073
1694270036.428,802.6374,790.9524,786.52014,787.326,1000.07324
1694270036.429,804.65204,788.93774,785.31134,767.98535,854.21246
1694270036.43,807.0696,791.75824,789.34064,763.5531,725.6777
1694270036.43,809.89014,796.1905,792.5641,786.1172,882.8205
1694270036.431,815.5311,796.5934,795.38464,800.6227,976.30035
1694270036.432,813.1135,797.8022,797.3993,785.7143,872.3443
1694270036.432,803.0403,796.1905,796.1905,774.0293,867.9121
1694270036.4780002,803.0403,795.78754,794.57874,780.87915,828.022
1694270036.479,803.0403,800.2198,796.1905,781.28204,682.96704
1694270036.48,804.65204,801.8315,796.1905,778.46155,704.7253
1694270036.481,796.99634,803.0403,795.78754,788.1319,924.7253
1694270036.4819999,792.5641,802.23444,797.3993,796.99634,1039.9634
1694270036.483,797.3993,801.8315,796.99634,782.8938,782.49084
1694270036.483,795.38464,805.4579,801.4286,781.28204,581.02563
1694270036.484,790.9524,806.26373,801.02563,790.54944,781.28204
1694270036.485,793.36993,805.05493,794.57874,798.60803,1114.1025
1694270036.486,794.57874,805.4579,794.57874,786.52014,890.07324
1694270036.487,787.72894,805.05493,795.78754,777.6557,643.47986
1694270036.488,782.8938,801.8315,794.57874,778.86444,673.69965
1694270036.5219998,788.1319,801.02563,794.9817,776.04395,792.1612
1694270036.523,789.7436,803.0403,796.5934,773.22345,887.25275
1694270036.524,784.90845,802.6374,797.8022,768.7912,811.9048
1694270036.524,781.28204,803.8461,790.14655,762.3443,692.23444
1694270036.5249999,776.8498,808.68134,789.34064,762.3443,645.89746
1694270036.526,777.6557,813.5165,790.54944,767.5824,736.1539
1694270036.527,781.28204,813.91943,792.96704,771.2088,881.6117
1694270036.527,781.28204,815.9341,798.20514,781.685,1211.6117
1694270036.528,780.4762,820.7692,794.9817,788.1319,1133.0403
1694270036.529,779.2674,815.9341,786.9231,765.16486,670.4762
1694270036.53,775.2381,815.9341,783.69965,761.13556,709.9634
1694270036.53,779.67035,813.1135,785.7143,767.1795,956.55676
1694270036.554,783.69965,806.26373,787.326,762.74725,920.293
1694270036.555,775.64105,809.0842,788.1319,759.12085,720.84247
1694270036.556,773.6264,808.2784,788.1319,754.68866,701.50183
1694270036.557,766.77655,803.44324,786.9231,764.35895,919.4872
1694270036.557,766.3736,806.6667,788.93774,761.53845,888.86444
1694270036.558,769.19415,807.8755,786.1172,747.03296,822.7839
1694270036.558,777.6557,807.47253,777.25275,755.09155,796.99634
1694270036.559,772.01465,807.47253,782.0879,749.45056,667.25275
1694270036.56,767.1795,801.8315,785.7143,735.7509,676.52014
1694270036.5609999,780.4762,797.8022,782.8938,743.00366,764.7619
1694270036.5609999,783.2967,792.96704,784.10254,763.5531,954.94507
1694270036.5619998,788.1319,791.3553,785.7143,782.49084,1117.7289
1694270036.636,785.7143,793.36993,782.0879,762.74725,718.8278
1694270036.6369998,782.8938,792.96704,779.2674,756.7033,572.1612
1694270036.642,799.81683,794.9817,780.07324,776.04395,822.7839
1694270036.6430001,802.6374,795.78754,780.07324,768.3883,907.3993
1694270036.644,791.3553,788.93774,782.0879,758.71796,757.1062
1694270036.645,786.1172,786.52014,779.2674,750.2564,632.1978
1694270036.6460001,796.5934,787.326,778.86444,764.35895,874.35895
1694270036.6460001,795.78754,784.5055,781.28204,779.2674,947.6923
1694270036.647,790.14655,786.9231,783.69965,775.64105,846.9597
1694270036.648,796.5934,791.75824,786.52014,778.46155,765.16486
1694270036.648,800.6227,786.52014,786.1172,771.2088,685.78754
1694270036.649,802.23444,786.1172,786.1172,758.71796,672.8938
1694270036.6990001,801.8315,790.54944,786.52014,759.5238,726.8865
1694270036.7,810.293,790.9524,785.7143,763.95605,872.3443
1694270036.701,823.1868,793.7729,787.72894,765.56775,948.9011
1694270036.7020001,811.0989,795.38464,790.14655,764.7619,739.3773
1694270036.703,799.011,794.17584,783.69965,757.1062,561.28204
1694270036.704,801.02563,794.17584,781.28204,754.2857,900.54944
1694270036.704,797.3993,793.36993,786.9231,768.7912,1271.2454
1694270036.705,790.9524,791.3553,787.326,759.5238,960.989
1694270036.7059999,787.326,794.17584,784.90845,746.2271,624.1392
1694270036.707,786.1172,790.9524,787.326,758.71796,674.90845
1694270036.71,790.9524,792.1612,792.5641,781.685,1052.4542
1694270036.711,796.99634,802.6374,794.9817,776.4469,1008.93774
1694270036.72,790.54944,803.8461,795.38464,756.7033,779.2674
1694270036.722,786.9231,800.6227,792.5641,746.63007,751.4652
1694270036.723,794.9817,802.6374,789.7436,749.0476,644.2857
1694270036.724,796.99634,805.4579,791.75824,752.674,616.4835
1694270036.728,793.7729,804.2491,788.93774,754.68866,784.90845
1694270036.7289999,790.9524,803.8461,788.1319,759.92676,1090.3297
1694270036.7299998,792.5641,806.26373,786.9231,759.5238,923.1135
1694270036.731,792.5641,809.89014,788.5348,756.30035,561.685
1694270036.732,791.75824,808.68134,788.1319,757.50916,624.5421
1694270036.732,792.96704,806.6667,787.326,763.5531,944.0659
1694270036.733,792.1612,809.89014,789.7436,759.5238,939.6337
1694270036.7340002,793.36993,813.1135,791.3553,752.27106,676.1172
1694270036.757,801.8315,812.71063,790.9524,757.50916,657.98535
1694270036.7580001,799.81683,811.9048,788.1319,765.56775,830.4396
1694270036.759,790.54944,815.9341,790.54944,768.7912,821.978
1694270036.759,795.38464,821.5751,791.75824,768.3883,799.011
1694270036.76,794.17584,821.1722,791.3553,768.3883,810.293
1694270036.761,787.326,822.381,792.5641,769.19415,800.6227
1694270036.761,788.93774,823.9927,788.1319,761.53845,733.3333
1694270036.7619998,800.2198,825.2015,788.5348,762.74725,807.0696
1694270036.763,813.1135,826.8132,791.3553,776.8498,959.7802
1694270036.763,810.293,828.022,790.54944,789.7436,1086.3004
1694270036.764,808.68134,830.4396,794.17584,789.7436,746.63007
1694270036.7649999,812.71063,834.0659,799.41394,794.57874,570.54944
1694270036.794,814.7253,834.87177,799.81683,791.75824,762.3443
1694270036.795,813.5165,830.4396,795.78754,784.5055,849.7802
1694270036.796,809.89014,825.2015,793.36993,776.4469,751.8681
1694270036.796,811.9048,825.6044,791.3553,765.16486,641.4652
1694270036.797,816.337,826.8132,796.99634,778.0586,693.8461
1694270036.798,822.7839,828.4249,796.1905,778.86444,846.9597
1694270036.8009999,828.8278,824.7985,789.7436,761.53845,894.10254
1694270036.8019998,829.6337,821.978,791.3553,765.56775,787.326
1694270036.803,825.6044,825.6044,790.54944,791.75824,898.1319
1694270036.804,821.1722,827.619,783.69965,803.0403,940.84247
1694270036.8049998,811.9048,828.022,782.8938,785.7143,751.06226
1694270036.8049998,809.0842,827.2161,784.90845,777.25275,847.76556
1694270036.831,813.91943,825.6044,779.67035,775.64105,946.8865
1694270036.832,815.12823,828.8278,779.2674,784.10254,716.4103
1694270036.833,819.15753,829.2308,779.67035,782.49084,594.7253
1694270036.8339999,821.978,826.8132,778.0586,784.5055,767.1795
1694270036.835,831.2454,830.4396,779.67035,792.5641,978.315
1694270036.835,830.0366,832.0513,778.0586,787.72894,948.0952
1694270036.836,828.022,834.87177,780.07324,780.87915,740.989
1694270036.837,831.6484,832.8571,785.31134,789.34064,703.5165
1694270036.837,836.8865,825.6044,786.1172,808.2784,948.0952
1694270036.838,840.9158,831.2454,785.31134,807.47253,927.5458
1694270036.838,836.8865,834.4689,782.0879,798.60803,811.9048
1694270036.839,833.663,829.6337,782.0879,791.3553,731.7216
1694270036.8990002,833.2601,832.8571,785.31134,792.96704,638.24176
1694270036.9,828.022,832.8571,783.2967,799.81683,659.59705
1694270036.901,830.0366,826.0073,780.4762,803.0403,846.55676
1694270036.9020002,838.0952,829.2308,779.67035,808.68134,977.9121
1694270036.9020002,829.2308,832.8571,777.6557,797.3993,770.40295
1694270036.903,829.2308,830.0366,775.64105,778.0586,597.1429
1694270036.904,835.6777,832.4542,777.25275,773.6264,736.1539
1694270036.905,840.5128,830.0366,777.6557,794.57874,1053.663
1694270036.909,842.1245,825.6044,773.22345,796.99634,1052.0513
1694270036.91,842.52747,826.0073,774.83514,787.326,737.76556
1694270036.911,844.5421,824.7985,777.25275,790.54944,614.0659
1694270036.911,844.1392,821.978,773.6264,792.1612,682.5641
1694270036.9350002,841.31866,818.3516,769.59705,794.17584,848.1685
1694270036.936,838.9011,817.1429,767.98535,794.57874,881.6117
1694270036.937,839.707,815.9341,766.77655,788.93774,818.3516
1694270036.938,836.8865,816.7399,767.98535,797.8022,967.03296
1694270036.9390001,838.49817,813.5165,763.5531,805.8608,809.4872
1694270036.9390001,847.76556,813.1135,761.9414,806.26373,740.58606
1694270036.94,842.1245,810.696,765.16486,803.0403,932.7839
1694270036.941,828.8278,806.6667,760.32965,796.1905,868.315
1694270036.9420002,823.1868,806.26373,755.4945,802.23444,649.5238
1694270036.9420002,828.4249,804.65204,757.1062,797.8022,556.4469
1694270036.9459999,830.84247,804.2491,756.7033,805.8608,846.1539
1694270036.948,827.2161,803.8461,753.47986,828.022,1206.3737
1694270036.992,828.8278,806.26373,756.30035,816.7399,900.54944
1694270036.993,836.08057,810.293,756.30035,799.011,581.8315
1694270036.993,828.8278,805.4579,752.674,799.011,660.0
1694270036.994,821.5751,799.41394,751.4652,805.4579,799.81683
1694270036.9950001,826.4103,796.1905,749.0476,807.8755,817.5458
1694270036.996,823.9927,794.17584,746.63007,808.68134,848.1685
1694270036.996,821.978,794.57874,745.82416,809.0842,992.01465
1694270036.997,820.7692,791.3553,744.21246,803.8461,807.8755
1694270036.9980001,822.381,790.54944,745.0183,806.26373,684.9817
1694270036.9980001,821.5751,788.5348,747.03296,813.91943,894.90845
1694270037.0019999,824.7985,787.72894,747.8388,813.1135,947.6923
1694270037.0019999,830.84247,784.90845,748.24176,818.7546,790.54944
1694270037.044,828.8278,780.87915,744.61536,827.2161,683.7729
1694270037.0449998,828.8278,781.685,743.8095,826.4103,746.63007
1694270037.0460002,825.6044,781.28204,744.61536,836.4835,1141.9048
1694270037.0460002,820.3663,780.07324,744.61536,839.707,1121.3553
1694270037.0470002,827.2161,774.83514,738.1685,823.1868,692.23444
1694270037.0470002,828.4249,773.6264,743.4066,826.4103,660.80585
1694270037.048,833.2601,780.07324,751.4652,840.5128,835.2747
1694270037.049,833.663,781.685,745.82416,836.08057,940.84247
1694270037.049,830.4396,776.4469,744.21246,828.4249,834.0659
1694270037.05,832.0513,778.46155,741.79486,836.4835,752.674
1694270037.05,832.0513,783.2967,749.45056,852.1978,848.1685
1694270037.051,827.2161,781.685,751.06226,844.94507,729.707
1694270037.1020002,828.022,782.49084,740.18317,840.5128,794.17584
1694270037.1030002,831.2454,785.31134,730.5128,842.52747,909.81683
1694270037.104,819.15753,778.46155,724.87177,821.978,759.5238
1694270037.105,805.8608,774.0293,723.663,805.8608,579.81683
1694270037.106,812.3077,776.8498,730.9158,821.978,626.55676
1694270037.107,821.1722,775.2381,735.7509,843.73627,885.2381
1694270037.107,816.337,763.1502,728.9011,841.7216,904.9817
1694270037.108,812.71063,756.30035,722.4542,823.9927,722.4542
1694270037.109,811.50183,751.8681,722.4542,813.5165,640.65936
1694270037.1100001,790.14655,738.97437,722.0513,807.8755,913.8461
1694270037.1100001,786.9231,735.7509,723.663,811.50183,1021.4286
1694270037.111,781.28204,729.707,716.8132,792.5641,879.59705
1694270037.15,761.13556,709.9634,709.5604,773.6264,893.2967
1694270037.151,758.71796,687.8022,706.337,777.6557,831.6484
1694270037.152,751.06226,664.0293,702.71063,767.98535,688.60803
1694270037.152,740.989,642.27106,695.05493,758.315,713.1868
1694270037.1529999,733.3333,619.304,688.60803,754.2857,851.39197
1694270037.1539998,728.9011,599.5604,679.7436,746.2271,923.91943
1694270037.1539998,730.5128,588.68134,672.8938,747.03296,805.8608
1694270037.155,726.4835,569.7436,665.2381,742.1978,617.28937
1694270037.156,723.2601,543.5531,649.92676,734.1392,776.04395
1694270037.156,723.663,531.06226,641.8681,755.09155,1087.9121
1694270037.1569998,732.52747,525.0183,637.8388,758.315,899.34064
1694270037.1580002,742.1978,520.989,629.3773,736.9597,645.4945
1694270037.1660001,743.8095,510.1099,621.31866,746.63007,668.0586
1694270037.167,745.0183,498.4249,614.0659,754.2857,780.07324
1694270037.168,746.2271,498.4249,607.619,749.85345,812.3077
1694270037.168,747.8388,502.85715,603.5897,758.315,791.3553
1694270037.169,745.82416,506.0806,603.5897,768.7912,723.2601
1694270037.171,748.24176,505.67764,606.8132,776.8498,686.1905
1694270037.172,752.674,507.28937,611.6484,782.8938,780.07324
1694270037.1729999,755.09155,517.76556,618.49817,788.1319,934.3956
1694270037.174,762.3443,532.27106,627.3626,799.41394,1116.5201
1694270037.175,758.71796,543.95605,633.00366,804.2491,949.304
1694270037.176,761.53845,558.46155,636.2271,807.0696,618.49817
1694270037.177,768.3883,566.9231,641.06226,806.26373,737.76556
1694270037.204,776.8498,577.8022,650.7326,809.4872,967.4359
1694270037.205,783.2967,595.5311,658.7912,813.1135,930.3663
1694270037.2099998,780.87915,603.1868,661.2088,814.7253,711.5751
1694270037.2099998,790.54944,612.4542,669.2674,826.8132,610.0366
1694270037.211,788.93774,626.1539,673.2967,834.0659,842.52747
1694270037.212,786.52014,635.82416,674.5055,833.2601,983.5531
1694270037.212,796.99634,642.674,680.54944,832.4542,889.67035
1694270037.2129998,799.41394,652.3443,685.78754,830.84247,790.14655
1694270037.2140002,791.3553,657.98535,690.6227,840.5128,828.8278
1694270037.2140002,798.60803,664.0293,698.2784,838.9011,649.5238
1694270037.2150002,803.44324,673.2967,700.696,833.2601,699.0842
1694270037.216,790.54944,682.5641,701.50183,834.0659,902.5641
1694270037.246,793.36993,693.0403,711.1722,837.28937,785.7143
1694270037.247,805.4579,697.47253,720.0366,844.94507,596.7399
1694270037.247,808.2784,706.7399,725.6777,859.0476,628.1685
1694270037.248,802.23444,710.3663,725.2747,859.45056,857.8388
1694270037.2489998,807.0696,711.978,725.6777,855.82416,965.42126
1694270037.2489998,812.71063,721.6484,729.707,857.03296,817.9487
1694270037.2499998,807.47253,726.4835,729.707,846.55676,685.38464
1694270037.2510002,801.02563,724.87177,728.49817,856.2271,925.5311
1694270037.2510002,797.8022,726.8865,731.31866,869.12085,1123.773
1694270037.252,793.7729,728.0952,730.10986,852.1978,941.6484
1694270037.252,796.1905,730.5128,728.0952,852.6007,805.4579
1694270037.253,800.6227,738.1685,736.1539,852.1978,678.1319
1694270037.276,799.41394,743.8095,742.6007,856.63007,691.02563
1694270037.277,811.50183,746.2271,744.21246,870.32965,779.67035
1694270037.277,817.9487,749.85345,747.4359,860.2564,894.5055
1694270037.278,812.71063,755.89746,750.65936,861.06226,967.8388
1694270037.2819998,815.12823,759.5238,754.68866,861.4652,748.6447
1694270037.283,817.1429,759.12085,755.4945,857.8388,641.4652
1694270037.283,816.7399,764.35895,756.7033,867.1062,851.79486
1694270037.284,827.2161,773.6264,758.71796,874.7619,1252.7106
1694270037.2849998,821.978,777.6557,759.5238,864.68866,1002.49084
1694270037.2849998,814.3223,781.685,761.13556,862.674,639.45056
1694270037.286,819.5604,784.5055,758.315,873.95605,661.6117
1694270037.2870002,822.381,786.9231,757.1062,878.7912,777.25275
1694270037.3609998,824.7985,787.72894,760.7326,869.5238,846.1539
1694270037.362,821.1722,786.9231,759.12085,863.0769,803.44324
1694270037.3630002,807.47253,786.9231,761.9414,863.0769,730.5128
1694270037.364,807.8755,786.52014,767.1795,864.68866,608.4249
1694270037.364,821.5751,789.7436,769.59705,865.89746,666.8498
1694270037.365,827.2161,789.7436,768.3883,863.47986,917.8755
1694270037.3660002,825.6044,792.5641,770.80585,870.32965,1194.2858
1694270037.3660002,828.4249,799.81683,774.83514,868.71796,964.61536
1694270037.367,821.1722,801.8315,773.22345,859.45056,598.7546
1694270037.368,814.3223,799.81683,770.0,857.8388,726.4835
1694270037.368,814.3223,801.02563,770.40295,861.4652,956.1539
1694270037.369,813.1135,803.0403,772.4176,861.4652,960.58606
1694270037.396,812.3077,804.65204,772.8205,852.6007,747.4359
1694270037.3969998,812.71063,809.4872,778.86444,853.8095,630.989
1694270037.3980002,809.0842,811.9048,781.685,872.74725,869.5238
1694270037.3980002,824.3956,814.7253,782.8938,875.56775,921.0989
1694270037.3990002,834.4689,812.3077,781.685,863.47986,814.3223
1694270037.4,816.337,805.4579,778.46155,849.3773,818.3516
1694270037.404,819.15753,805.4579,779.67035,847.76556,871.9414
1694270037.407,828.022,804.65204,783.2967,854.21246,776.04395
1694270037.408,823.9927,805.4579,784.10254,861.8681,790.54944
1694270037.409,823.9927,807.47253,784.10254,872.74725,872.74725
1694270037.4099998,819.9634,808.68134,782.8938,874.35895,757.9121
1694270037.4099998,815.12823,812.3077,784.10254,863.47986,594.7253
1694270037.452,821.978,813.91943,783.2967,861.8681,653.5531
1694270037.4540002,823.5897,812.71063,782.49084,864.2857,849.3773
1694270037.4540002,822.7839,815.9341,784.5055,861.4652,935.2015
1694270037.4550002,819.9634,817.5458,784.10254,854.61536,727.28937
1694270037.456,819.5604,817.1429,782.8938,853.8095,616.8865
1694270037.456,825.6044,816.7399,781.28204,853.8095,762.3443
1694270037.457,826.0073,816.7399,779.2674,853.4066,864.2857
1694270037.458,828.022,821.978,782.8938,857.03296,838.9011
1694270037.459,827.619,824.3956,782.49084,859.45056,798.60803
1694270037.459,845.7509,829.2308,779.67035,880.40295,922.71063
1694270037.46,848.1685,827.2161,786.9231,880.40295,788.93774
1694270037.461,827.2161,821.1722,792.5641,856.63007,735.7509
1694270037.497,835.6777,821.5751,791.3553,853.4066,1006.9231
1694270037.498,839.304,819.5604,791.3553,855.0183,988.3883
1694270037.499,833.663,817.9487,794.17584,851.79486,696.26373
1694270037.5,836.8865,817.5458,789.34064,851.79486,595.5311
1694270037.501,828.8278,818.7546,786.9231,859.0476,740.58606
1694270037.501,832.4542,822.381,784.5055,864.68866,991.6117
1694270037.502,842.1245,824.3956,782.0879,854.61536,935.2015
1694270037.503,834.87177,823.9927,784.5055,842.1245,679.7436
1694270037.507,835.6777,825.2015,787.326,854.21246,707.1429
1694270037.508,841.7216,824.7985,785.7143,869.12085,966.2271
1694270037.5089998,838.0952,823.9927,787.326,856.63007,887.25275
1694270037.5100002,833.663,820.3663,791.3553,850.18317,777.6557
1694270037.54,838.49817,818.3516,789.7436,844.1392,704.3223
1694270037.541,839.304,820.7692,791.3553,834.87177,595.9341
1694270037.541,835.2747,823.1868,790.54944,836.4835,707.9487
1694270037.542,834.0659,820.3663,785.7143,837.6923,882.8205
1694270037.543,824.3956,815.9341,785.7143,834.0659,935.2015
1694270037.543,818.3516,817.5458,788.5348,836.4835,863.0769
1694270037.544,822.7839,815.9341,791.75824,839.304,692.6374
1694270037.5449998,817.5458,810.696,787.72894,832.4542,738.1685
1694270037.5449998,814.7253,813.1135,785.31134,838.49817,990.40295
1694270037.5459998,816.337,811.0989,788.1319,843.73627,901.3553
1694270037.5470002,815.12823,804.2491,787.326,836.08057,667.6557
1694270037.5470002,814.7253,802.6374,783.2967,824.7985,599.5604
1694270037.571,813.1135,801.02563,780.87915,834.0659,1060.5128
1694270037.572,808.68134,803.44324,784.90845,849.7802,1303.4799
1694270037.573,797.3993,803.8461,786.9231,845.34796,954.94507
1694270037.573,794.57874,806.6667,790.54944,840.10986,709.9634
1694270037.5740001,800.2198,809.4872,791.75824,836.4835,610.84247
1694270037.575,806.6667,809.4872,787.72894,838.49817,678.5348
1694270037.575,800.2198,808.2784,785.7143,841.7216,790.9524
1694270037.576,803.0403,807.47253,786.9231,846.1539,954.1392
1694270037.577,809.89014,806.6667,785.31134,848.1685,1167.2894
1694270037.577,808.2784,807.8755,781.685,838.0952,840.9158
1694270037.5809999,804.2491,811.50183,784.10254,825.6044,565.31134
1694270037.582,801.8315,812.3077,784.5055,828.022,767.5824
1694270037.612,803.8461,812.3077,782.8938,832.8571,853.8095
1694270037.613,797.3993,809.4872,782.0879,828.4249,733.3333
1694270037.614,800.2198,810.293,782.49084,819.5604,632.1978
1694270037.615,811.50183,815.5311,783.2967,819.15753,653.1502
1694270037.615,817.9487,815.9341,784.90845,824.7985,769.59705
1694270037.616,817.1429,814.3223,792.5641,834.4689,898.5348
1694270037.616,813.91943,815.12823,792.5641,837.28937,876.3736
1694270037.6169999,809.4872,811.50183,788.93774,830.0366,909.41394
1694270037.6179998,803.8461,801.4286,787.326,822.7839,814.3223
1694270037.6179998,803.44324,793.7729,779.2674,815.12823,742.1978
1694270037.619,794.9817,786.52014,768.7912,808.68134,903.7729
1694270037.62,780.87915,782.8938,767.1795,803.44324,953.3333
1694270037.666,771.2088,780.4762,762.74725,790.54944,799.41394
1694270037.668,780.4762,776.8498,759.5238,788.93774,641.4652
1694270037.671,784.5055,776.04395,760.7326,801.02563,743.00366
1694270037.672,784.90845,776.04395,758.315,807.0696,991.2088
1694270037.6729999,791.3553,775.64105,756.7033,799.81683,857.4359
1694270037.675,784.5055,774.83514,755.4945,786.52014,620.5128
1694270037.676,779.67035,772.01465,755.09155,782.8938,725.2747
1694270037.677,776.8498,772.8205,759.5238,807.0696,1023.0403
1694270037.677,778.86444,773.6264,759.92676,810.696,963.8095
1694270037.6780002,779.67035,773.6264,757.1062,790.54944,832.4542
1694270037.6780002,778.46155,774.83514,756.7033,784.10254,687.8022
1694270037.6790001,782.0879,776.8498,757.1062,785.31134,563.2967
1694270037.733,778.0586,772.8205,756.30035,791.3553,634.61536
1694270037.7340002,782.0879,774.0293,756.30035,797.3993,785.31134
1694270037.7350001,791.75824,780.07324,759.12085,797.8022,905.78754
1694270037.7350001,778.0586,775.64105,759.12085,793.7729,775.2381
1694270037.736,768.3883,774.0293,761.13556,790.54944,600.3663
1694270037.737,773.22345,773.6264,762.3443,798.20514,796.5934
1694270037.737,770.40295,774.83514,762.74725,810.293,1065.348
1694270037.738,768.7912,781.685,767.1795,813.5165,946.8865
1694270037.739,772.4176,789.34064,768.3883,801.02563,707.1429
1694270037.739,772.8205,790.54944,770.40295,800.6227,654.7619
1694270037.74,764.7619,790.14655,775.64105,816.7399,878.7912
1694270037.74,764.7619,792.5641,775.2381,821.1722,963.4066
1694270037.766,772.8205,795.78754,772.8205,812.3077,875.56775
1694270037.767,773.22345,798.60803,774.83514,806.26373,809.0842
1694270037.768,777.6557,804.2491,775.2381,813.91943,806.26373
1694270037.769,780.4762,803.8461,767.98535,806.6667,762.74725
1694270037.769,780.07324,801.4286,768.3883,805.8608,774.83514
1694270037.77,793.7729,805.8608,772.8205,811.0989,960.989
1694270037.7710001,803.44324,805.4579,777.6557,817.5458,1217.6556
1694270037.7710001,785.7143,805.05493,782.8938,806.26373,835.2747
1694270037.772,776.8498,807.8755,780.07324,795.78754,575.38464
1694270037.772,792.96704,810.696,779.67035,815.9341,813.1135
1694270037.773,795.78754,809.89014,780.07324,830.4396,916.26373
1694270037.7740002,788.5348,809.0842,779.2674,820.3663,819.15753
1694270037.833,789.34064,810.293,777.25275,813.1135,656.77655
1694270037.8339999,790.54944,807.0696,775.64105,818.3516,691.02563
1694270037.838,790.14655,805.4579,777.25275,813.91943,833.663
1694270037.839,792.96704,808.68134,779.67035,805.4579,860.65936
1694270037.84,786.1172,806.6667,779.67035,810.293,794.57874
1694270037.8409998,779.2674,798.20514,774.43225,813.91943,759.92676
1694270037.8409998,780.07324,797.3993,773.22345,811.50183,739.3773
1694270037.8419998,785.31134,798.60803,777.6557,816.7399,837.28937
1694270037.8430002,787.72894,796.99634,775.64105,823.9927,908.60803
1694270037.844,797.8022,796.99634,772.8205,832.4542,1070.586
1694270037.844,799.41394,799.81683,774.43225,816.7399,887.25275
1694270037.845,790.9524,799.81683,773.22345,799.011,624.1392
1694270037.8700001,798.20514,799.41394,772.01465,811.0989,847.3626
1694270037.872,803.0403,799.011,772.4176,816.7399,961.39197
1694270037.872,790.14655,803.8461,770.0,807.47253,847.3626
1694270037.873,786.52014,809.0842,768.3883,802.23444,590.293
1694270037.8739998,796.5934,807.47253,769.59705,813.5165,572.1612
1694270037.875,794.57874,808.2784,768.3883,819.5604,967.8388
1694270037.876,803.8461,813.1135,767.98535,809.4872,989.59705
1694270037.876,807.8755,815.5311,767.98535,809.0842,779.2674
1694270037.8769999,794.57874,816.337,767.5824,804.2491,732.52747
1694270037.878,786.9231,813.5165,765.56775,791.75824,715.2015
1694270037.878,788.1319,816.7399,763.5531,787.72894,673.69965
1694270037.879,796.1905,817.5458,761.9414,788.1319,754.2857
1694270037.91,786.52014,814.7253,760.32965,786.9231,944.4689
1694270037.9129999,783.69965,814.3223,760.7326,791.3553,918.68134
1694270037.9139998,788.1319,815.12823,757.50916,778.86444,589.89014
1694270037.9169998,782.49084,816.7399,755.89746,777.25275,619.304
1694270037.921,781.685,818.7546,763.95605,794.57874,836.4835
1694270037.924,782.0879,817.5458,764.35895,796.99634,946.8865
1694270037.925,787.72894,817.5458,759.92676,788.93774,786.52014
1694270037.926,790.14655,820.7692,761.13556,788.5348,579.011
1694270037.927,792.5641,818.7546,759.5238,797.3993,855.82416
1694270037.928,785.7143,819.9634,758.315,803.8461,987.5824
1694270037.928,779.2674,821.978,761.9414,792.96704,836.4835
1694270037.929,790.54944,823.1868,762.74725,782.0879,837.6923
1694270037.952,794.17584,830.0366,763.5531,790.54944,832.4542
1694270037.9529998,792.96704,826.8132,762.3443,793.36993,721.6484
1694270037.9539998,794.9817,821.978,760.32965,790.9524,759.5238
1694270037.9550002,794.57874,826.8132,763.1502,796.5934,914.2491
1694270037.956,785.7143,824.3956,763.1502,795.38464,943.663
1694270037.957,782.8938,819.15753,758.71796,793.36993,791.3553
1694270037.957,786.52014,819.15753,760.32965,794.57874,706.7399
1694270037.9580002,792.5641,818.3516,761.9414,795.38464,838.9011
1694270037.959,792.1612,817.5458,762.74725,808.2784,1099.1941
1694270037.959,790.54944,823.9927,767.98535,807.0696,867.9121
1694270037.96,794.57874,828.8278,767.98535,793.36993,631.79486
1694270037.961,794.9817,824.7985,761.9414,787.72894,680.14655
1694270038.05,793.7729,820.7692,761.53845,783.2967,730.9158
1694270038.052,788.93774,817.9487,765.56775,790.9524,825.2015
1694270038.052,792.1612,819.15753,768.7912,798.20514,810.293
1694270038.053,793.36993,822.7839,767.5824,792.96704,732.52747
1694270038.0540001,796.99634,825.6044,766.77655,796.1905,686.5934
1694270038.055,804.65204,824.3956,766.77655,803.8461,797.8022
1694270038.059,804.2491,820.3663,768.3883,805.4579,995.2381
1694270038.06,794.9817,818.3516,768.3883,806.26373,1166.0806
1694270038.0609999,786.9231,815.12823,768.3883,802.6374,953.73627
1694270038.062,787.72894,817.1429,768.3883,788.93774,603.1868
1694270038.063,798.20514,823.9927,768.3883,792.1612,691.8315
1694270038.064,802.6374,823.1868,770.0,799.41394,847.3626
1694270038.0649998,791.75824,819.15753,770.80585,790.14655,869.5238
1694270038.066,782.8938,816.337,771.6117,778.86444,692.23444
1694270038.0670002,783.69965,814.7253,769.19415,785.7143,626.9597
1694270038.068,787.326,816.7399,771.2088,811.9048,834.4689
1694270038.068,791.75824,814.3223,771.6117,815.9341,921.9048
