timestamp,RAW_TP9,RAW_AF7,RAW_AF8,RAW_TP10,AUX_RIGHT
1694304671.273,790.14655,796.1905,790.54944,801.4286,775.2381
1694304671.275,788.5348,792.96704,790.14655,794.57874,689.81683
1694304671.276,788.5348,792.5641,794.9817,795.38464,700.293
1694304671.277,784.90845,790.54944,797.3993,808.2784,1040.7693
1694304671.278,788.1319,795.78754,792.96704,810.293,917.47253
1694304671.279,788.93774,796.99634,797.8022,799.41394,682.5641
1694304671.281,787.72894,796.1905,792.96704,792.96704,767.1795
1694304671.2819998,788.5348,800.6227,785.31134,795.78754,1008.5348
1694304671.283,786.1172,801.02563,790.14655,801.02563,836.4835
1694304671.284,789.34064,797.3993,793.36993,806.26373,665.2381
1694304671.2849998,790.9524,791.75824,792.5641,801.02563,754.68866
1694304671.289,784.10254,790.14655,789.7436,784.10254,762.3443
1694304671.332,790.54944,797.3993,790.54944,787.326,682.1612
1694304671.333,800.6227,802.23444,791.3553,798.20514,698.68134
1694304671.334,801.02563,802.23444,790.9524,799.011,784.10254
1694304671.335,790.9524,801.8315,794.9817,802.6374,721.6484
1694304671.339,782.49084,796.5934,793.36993,795.38464,615.2747
1694304671.339,790.9524,796.99634,792.96704,788.93774,625.7509
1694304671.34,791.3553,794.9817,798.60803,801.02563,974.2857
1694304671.3409998,786.52014,789.7436,796.99634,807.47253,1092.7472
1694304671.3409998,790.9524,794.17584,795.78754,799.81683,745.82416
1694304671.3420002,794.9817,796.1905,793.36993,795.38464,658.3883
1694304671.3420002,793.7729,794.9817,792.5641,796.1905,828.4249
1694304671.3430002,797.3993,796.1905,799.011,806.6667,823.1868
1694304671.344,804.65204,796.99634,798.20514,809.4872,759.12085
1694304671.344,801.8315,796.1905,790.14655,791.3553,760.7326
1694304671.345,782.0879,790.54944,784.90845,779.67035,879.59705
1694304671.345,776.8498,788.93774,787.326,785.31134,778.0586
1694304671.346,780.07324,791.75824,791.3553,790.9524,679.34064
1694304671.346,784.10254,789.34064,794.9817,802.23444,879.59705
1694304671.3470001,792.5641,792.5641,796.99634,811.0989,1042.381
1694304671.3470001,787.72894,799.41394,792.96704,802.23444,828.4249
1694304671.3470001,790.54944,794.9817,792.96704,798.20514,716.4103
1694304671.348,792.5641,790.54944,797.3993,797.3993,801.02563
1694304671.349,786.9231,790.9524,793.7729,800.6227,983.5531
1694304671.3500001,786.9231,789.7436,792.96704,794.9817,836.4835
1694304671.356,794.9817,793.36993,790.54944,795.78754,681.75824
1694304671.3569999,795.78754,793.36993,795.38464,809.0842,710.3663
1694304671.3569999,783.2967,785.31134,801.02563,803.0403,733.3333
1694304671.358,789.7436,784.5055,800.2198,791.75824,747.4359
1694304671.358,795.78754,785.31134,797.3993,784.90845,772.4176
1694304671.358,791.75824,787.326,788.5348,786.9231,849.7802
1694304671.3609998,791.75824,790.9524,790.54944,787.72894,823.5897
1694304671.362,790.54944,790.14655,794.17584,782.49084,751.8681
1694304671.362,794.57874,792.5641,792.96704,784.5055,774.83514
1694304671.362,800.6227,799.011,795.38464,793.7729,971.4652
1694304671.3630002,805.4579,799.41394,792.1612,796.99634,863.47986
1694304671.3630002,801.02563,794.57874,790.9524,789.34064,604.3956
1694304671.364,799.81683,794.9817,794.9817,792.96704,680.54944
1694304671.365,803.44324,795.38464,795.38464,811.9048,994.83514
1694304671.3660002,804.2491,797.8022,796.99634,819.15753,940.4396
1694304671.3660002,796.99634,801.02563,796.99634,811.50183,686.99634
1694304671.367,786.52014,798.20514,799.011,803.8461,644.68866
1694304671.367,790.14655,797.3993,802.6374,814.7253,727.6923
1694304671.367,792.5641,796.1905,801.02563,808.2784,765.9707
1694304671.368,791.75824,790.9524,797.3993,797.8022,705.12823
1694304671.368,788.1319,791.3553,796.5934,803.8461,751.4652
1694304671.369,785.7143,795.78754,798.60803,806.6667,965.0183
1694304671.37,793.7729,798.60803,794.9817,807.8755,802.6374
1694304671.371,793.36993,794.9817,793.36993,802.6374,703.1135
1694304671.376,793.7729,790.14655,794.9817,796.5934,784.90845
1694304671.376,790.9524,792.96704,793.36993,791.75824,761.53845
1694304671.3769999,785.31134,792.5641,792.5641,792.1612,685.38464
1694304671.3769999,797.3993,793.36993,788.5348,802.6374,677.72894
1694304671.379,801.8315,797.8022,790.14655,811.50183,852.1978
1694304671.38,796.5934,794.57874,791.3553,803.0403,898.5348
1694304671.381,791.75824,791.3553,787.326,797.3993,856.2271
1694304671.3820002,786.52014,790.54944,792.5641,792.5641,779.67035
1694304671.385,790.14655,790.54944,794.17584,795.38464,933.5897
1694304671.386,794.9817,791.3553,794.17584,809.0842,1039.9634
1694304671.387,793.36993,790.9524,794.17584,805.4579,777.6557
1694304671.387,786.9231,793.7729,787.72894,801.4286,744.21246
1694304671.389,787.326,796.5934,789.7436,798.60803,749.45056
1694304671.389,796.99634,797.3993,793.36993,805.05493,653.5531
1694304671.39,799.011,796.1905,793.7729,807.0696,662.01465
1694304671.39,796.1905,792.5641,794.9817,801.02563,796.1905
1694304671.39,795.78754,792.5641,791.3553,808.2784,1032.7106
1694304671.391,792.5641,795.38464,790.14655,797.8022,874.35895
1694304671.391,799.011,797.3993,792.5641,792.5641,648.315
1694304671.392,808.2784,799.011,791.3553,798.20514,723.663
1694304671.392,808.2784,799.81683,788.93774,807.8755,995.2381
1694304671.393,802.23444,797.3993,787.72894,805.8608,834.87177
1694304671.393,793.36993,793.7729,792.5641,795.38464,633.00366
1694304671.393,794.9817,792.5641,794.17584,795.38464,630.989
1694304671.3980002,798.60803,792.96704,791.3553,794.9817,676.1172
1694304671.3990002,805.05493,794.9817,793.36993,795.38464,728.49817
1694304671.4,799.81683,798.20514,794.57874,797.3993,754.2857
1694304671.4,794.9817,795.78754,792.5641,789.7436,793.36993
1694304671.401,802.6374,794.17584,798.20514,791.75824,718.022
1694304671.401,792.5641,796.1905,797.8022,799.011,706.337
1694304671.402,788.93774,799.81683,794.17584,796.5934,833.2601
1694304671.402,794.17584,799.41394,793.7729,805.4579,988.7912
1694304671.403,790.9524,794.9817,791.75824,805.4579,828.022
1694304671.403,793.7729,793.7729,790.54944,803.44324,614.87177
1694304671.4060001,800.6227,793.7729,790.9524,813.5165,701.9048
1694304671.407,802.6374,796.5934,794.17584,815.5311,948.0952
1694304671.408,806.6667,801.8315,799.011,818.7546,951.31866
1694304671.408,807.8755,803.0403,802.23444,807.47253,758.71796
1694304671.408,803.0403,800.2198,796.5934,787.326,691.02563
1694304671.409,806.26373,796.1905,792.1612,800.2198,964.61536
1694304671.409,807.8755,796.99634,799.011,805.4579,974.68866
1694304671.4099998,800.6227,795.38464,793.36993,802.23444,796.99634
1694304671.4099998,796.5934,792.1612,787.326,807.8755,870.7326
1694304671.4099998,796.5934,792.1612,793.36993,816.337,972.674
1694304671.411,799.81683,794.17584,796.1905,808.2784,747.03296
1694304671.411,795.38464,792.96704,796.1905,793.36993,684.9817
1694304671.412,794.17584,790.54944,797.3993,791.75824,820.3663
1694304671.412,790.54944,792.5641,793.7729,786.9231,851.39197
1694304671.451,786.1172,792.1612,790.14655,789.7436,716.0073
1694304671.451,795.38464,790.9524,794.9817,801.8315,607.619
1694304671.452,797.8022,790.54944,795.78754,801.8315,720.4396
1694304671.452,795.38464,792.5641,791.75824,798.60803,788.5348
1694304671.4529998,794.9817,795.78754,792.5641,798.60803,749.45056
1694304671.4529998,798.60803,795.78754,792.96704,799.41394,757.9121
1694304671.4529998,796.99634,798.20514,793.7729,791.3553,820.3663
1694304671.4529998,788.1319,799.41394,797.8022,789.34064,823.9927
1694304671.4540002,792.96704,797.3993,793.7729,802.6374,767.1795
1694304671.4540002,795.38464,792.5641,792.96704,807.47253,766.77655
1694304671.4540002,792.1612,793.7729,792.96704,808.68134,953.3333
1694304671.4550002,790.54944,799.41394,793.36993,800.6227,924.7253
1694304671.458,799.81683,802.6374,796.1905,801.02563,777.25275
1694304671.458,803.44324,803.44324,795.78754,807.0696,842.52747
1694304671.458,801.4286,801.02563,793.7729,809.0842,1079.4506
1694304671.459,802.23444,799.011,792.1612,808.68134,974.2857
1694304671.459,799.011,794.9817,793.36993,803.8461,663.6264
1694304671.459,802.23444,796.99634,796.99634,807.47253,801.4286
1694304671.46,803.8461,801.02563,794.57874,812.71063,989.59705
1694304671.46,798.60803,801.4286,790.14655,808.68134,840.10986
1694304671.46,798.60803,798.60803,789.34064,797.8022,687.3993
1694304671.461,804.2491,797.3993,789.7436,794.9817,712.7839
1694304671.461,801.02563,798.20514,790.9524,797.8022,801.8315
1694304671.461,798.20514,796.5934,791.3553,802.6374,768.3883
1694304671.4659998,796.5934,793.7729,787.72894,798.60803,729.304
1694304671.467,786.52014,790.14655,789.7436,801.02563,739.7802
1694304671.467,787.326,791.3553,789.7436,795.78754,712.381
1694304671.468,788.93774,792.1612,786.52014,791.3553,705.9341
1694304671.468,797.8022,790.9524,788.93774,804.2491,719.6337
1694304671.4689999,803.0403,793.7729,788.1319,810.696,938.8278
1694304671.4689999,795.78754,792.96704,788.1319,805.4579,1041.5751
1694304671.47,798.20514,791.3553,789.7436,792.96704,724.0659
1694304671.47,799.81683,794.57874,788.5348,797.8022,648.315
1694304671.471,795.38464,794.17584,792.5641,801.4286,802.23444
1694304671.471,795.78754,788.5348,795.38464,801.4286,803.8461
1694304671.472,799.41394,787.72894,792.96704,797.8022,695.8608
1694304671.514,803.44324,794.17584,791.3553,791.75824,672.49084
1694304671.515,788.1319,794.9817,790.9524,811.50183,945.6777
1694304671.517,785.7143,795.78754,791.3553,826.8132,955.34796
1694304671.5180001,796.5934,796.1905,792.96704,813.1135,747.03296
1694304671.5180001,803.8461,796.1905,791.3553,787.72894,758.71796
1694304671.519,807.8755,799.81683,791.75824,773.22345,797.8022
1694304671.519,800.2198,796.5934,792.5641,767.98535,747.4359
1694304671.519,795.78754,796.1905,790.9524,780.87915,773.22345
1694304671.52,801.4286,796.5934,798.60803,804.2491,873.95605
1694304671.52,800.2198,795.38464,792.1612,808.68134,1096.7766
1694304671.52,797.3993,799.011,787.326,802.6374,857.4359
1694304671.521,805.05493,801.8315,788.5348,796.5934,630.18317
1694304671.5619998,811.0989,799.81683,789.7436,804.65204,750.2564
1694304671.563,799.81683,793.36993,791.3553,807.0696,772.8205
1694304671.563,798.20514,794.57874,793.36993,811.50183,705.5311
1694304671.563,798.60803,796.99634,795.38464,813.5165,655.16486
1694304671.564,796.5934,796.5934,794.57874,801.02563,750.2564
1694304671.564,803.44324,792.96704,792.5641,807.8755,835.6777
1694304671.564,801.8315,792.1612,790.54944,812.3077,775.64105
1694304671.5649998,801.02563,789.7436,792.1612,805.4579,799.41394
1694304671.5649998,805.8608,791.3553,791.75824,804.2491,891.28204
1694304671.5660002,799.41394,793.7729,791.75824,798.20514,767.1795
1694304671.5660002,798.20514,796.1905,795.38464,801.02563,651.53845
1694304671.5670002,799.41394,792.96704,792.5641,797.3993,768.3883
1694304671.62,799.41394,790.9524,789.34064,810.293,1156.8132
1694304671.621,803.8461,796.99634,794.17584,818.3516,1150.7693
1694304671.621,805.4579,799.41394,798.20514,807.47253,724.0659
1694304671.621,806.6667,796.99634,796.99634,805.8608,652.74725
1694304671.624,813.5165,799.41394,794.9817,807.47253,761.13556
1694304671.625,818.3516,798.20514,797.3993,802.6374,844.5421
1694304671.625,807.8755,794.9817,798.20514,801.8315,737.76556
1694304671.626,799.011,795.78754,798.20514,803.8461,714.7985
1694304671.626,804.2491,794.9817,798.20514,807.8755,979.12085
1694304671.626,804.65204,796.5934,796.5934,811.0989,868.315
1694304671.627,792.5641,796.5934,791.75824,811.0989,693.0403
1694304671.627,789.7436,793.7729,794.17584,803.0403,704.3223
1694304671.652,790.9524,791.3553,799.011,794.9817,679.34064
1694304671.6529999,786.52014,787.72894,794.17584,798.60803,647.50916
1694304671.6529999,790.14655,784.10254,794.17584,803.0403,715.6044
1694304671.654,798.60803,786.9231,797.3993,807.0696,808.68134
1694304671.654,792.96704,793.7729,796.99634,809.0842,768.7912
1694304671.655,793.7729,798.20514,796.99634,805.05493,730.9158
1694304671.655,794.57874,797.3993,796.99634,801.02563,707.9487
1694304671.655,793.36993,797.3993,797.3993,804.2491,877.98535
1694304671.656,799.41394,799.011,797.3993,805.05493,923.91943
1694304671.656,807.47253,803.8461,790.9524,803.8461,693.8461
1694304671.6569998,798.60803,799.81683,794.9817,804.65204,654.35895
1694304671.6569998,780.4762,788.93774,805.05493,792.1612,701.9048
1694304671.6579998,782.0879,784.5055,803.44324,794.57874,744.21246
1694304671.6590002,796.1905,784.90845,802.6374,810.696,759.92676
1694304671.6590002,801.02563,785.7143,799.81683,809.0842,767.5824
1694304671.6590002,787.326,790.14655,793.7729,803.0403,975.4945
1694304671.66,776.4469,795.78754,791.3553,791.75824,845.34796
1694304671.66,776.8498,795.78754,797.8022,784.5055,661.6117
1694304671.663,781.685,797.8022,796.1905,799.41394,819.9634
1694304671.664,786.52014,796.99634,794.17584,809.89014,1058.0952
1694304671.664,787.326,792.5641,793.7729,793.36993,830.84247
1694304671.665,792.5641,796.5934,794.17584,787.326,598.7546
1694304671.666,794.57874,798.60803,800.6227,796.5934,682.96704
1694304671.666,791.3553,796.5934,798.60803,798.60803,734.5421
1694304671.769,790.14655,793.7729,794.17584,803.8461,718.4249
1694304671.77,783.69965,793.7729,799.41394,796.5934,708.3516
1694304671.77,786.52014,793.36993,797.3993,783.2967,740.989
1694304671.7710001,785.7143,790.9524,791.3553,780.87915,779.2674
1694304671.7710001,786.1172,792.1612,790.54944,789.34064,765.56775
1694304671.772,792.1612,792.5641,788.93774,787.72894,745.42126
1694304671.773,787.326,792.1612,784.90845,780.4762,1070.1831
1694304671.773,784.90845,796.5934,784.10254,790.9524,1190.6593
1694304671.7740002,784.10254,795.38464,788.5348,789.7436,791.3553
1694304671.7740002,790.54944,794.9817,792.1612,796.1905,720.84247
1694304671.775,795.38464,796.99634,791.3553,803.44324,781.28204
1694304671.775,791.75824,792.96704,793.7729,786.1172,739.3773
1694304671.8019998,792.96704,796.1905,795.78754,785.31134,709.5604
1694304671.803,799.41394,799.41394,795.38464,799.41394,741.39197
1694304671.804,796.5934,795.78754,794.17584,801.8315,966.63007
1694304671.804,795.38464,798.20514,792.5641,794.9817,863.8828
1694304671.8049998,804.2491,804.2491,796.1905,795.38464,695.05493
1694304671.8049998,797.8022,804.2491,796.5934,798.60803,767.1795
1694304671.8060002,790.14655,801.4286,796.5934,803.0403,882.4176
1694304671.8070002,799.011,801.4286,796.5934,799.011,860.65936
1694304671.811,794.17584,796.1905,795.78754,799.41394,728.0952
1694304671.811,792.96704,791.3553,797.8022,813.91943,749.0476
1694304671.812,801.02563,794.57874,796.99634,815.12823,983.95605
1694304671.813,805.8608,798.60803,799.011,803.44324,810.696
1694304671.819,806.6667,794.17584,801.4286,805.05493,681.75824
1694304671.82,802.23444,789.34064,795.78754,805.4579,845.34796
1694304671.8209999,801.8315,791.75824,796.99634,802.6374,852.1978
1694304671.8209999,794.9817,789.34064,801.8315,796.5934,725.6777
1694304671.822,791.75824,791.75824,792.96704,790.14655,655.9707
1694304671.822,800.6227,795.38464,788.1319,796.1905,839.304
1694304671.823,803.44324,794.57874,790.14655,798.20514,896.1172
1694304671.823,797.3993,796.1905,794.9817,800.2198,728.0952
1694304671.824,792.5641,794.9817,801.02563,799.41394,705.12823
1694304671.825,794.17584,792.1612,794.57874,804.2491,956.9597
1694304671.8270001,799.41394,797.3993,790.54944,811.9048,1001.685
1694304671.8270001,802.6374,797.3993,791.75824,801.02563,758.71796
1694304671.851,801.4286,790.54944,790.14655,800.6227,806.26373
1694304671.852,799.011,792.5641,789.34064,799.011,931.5751
1694304671.853,799.81683,803.0403,790.54944,789.7436,719.2308
1694304671.854,805.4579,806.6667,792.1612,797.8022,653.1502
1694304671.855,802.23444,804.2491,790.14655,794.9817,726.08057
1694304671.855,796.5934,801.02563,792.96704,790.14655,777.6557
1694304671.856,793.7729,796.5934,791.75824,793.36993,805.05493
1694304671.856,788.5348,792.1612,789.34064,788.93774,701.9048
1694304671.8569999,788.1319,793.7729,791.75824,788.1319,755.89746
1694304671.8569999,792.5641,795.78754,786.9231,799.41394,1063.7362
1694304671.8609998,796.99634,796.5934,788.1319,808.68134,882.01465
1694304671.8620002,799.41394,799.81683,793.36993,793.7729,649.92676
1694304671.894,797.8022,802.23444,791.75824,782.8938,703.91943
1694304671.895,800.2198,801.02563,791.3553,788.93774,769.59705
1694304671.896,800.2198,796.99634,793.36993,788.1319,757.9121
1694304671.896,797.3993,795.78754,797.8022,788.5348,762.74725
1694304671.8969998,794.57874,794.17584,805.4579,800.6227,749.0476
1694304671.8969998,793.7729,792.96704,805.4579,801.4286,753.8828
1694304671.8979998,795.38464,792.1612,800.6227,802.23444,788.1319
1694304671.8979998,796.5934,794.17584,801.8315,808.68134,784.10254
1694304671.8990002,798.60803,794.57874,799.81683,808.68134,959.7802
1694304671.8990002,809.4872,794.57874,795.78754,808.68134,957.3626
1694304671.9,804.65204,798.20514,789.7436,801.4286,671.28204
1694304671.901,789.7436,796.1905,788.5348,800.6227,671.685
1694304671.987,798.20514,796.1905,793.36993,800.2198,833.663
1694304671.988,798.20514,799.81683,788.1319,788.93774,822.7839
1694304671.9889998,792.5641,800.2198,789.7436,794.57874,729.304
1694304671.9889998,799.81683,798.60803,794.17584,802.23444,661.2088
1694304671.99,799.011,796.1905,795.78754,802.6374,904.17584
1694304671.9910002,794.57874,796.1905,797.8022,799.81683,931.5751
1694304671.992,799.81683,797.3993,797.8022,798.20514,721.2454
1694304671.992,803.0403,797.3993,797.3993,803.0403,762.74725
1694304671.993,798.60803,798.20514,796.5934,798.60803,961.39197
1694304671.994,796.5934,798.20514,792.96704,788.1319,762.3443
1694304671.994,801.02563,799.011,792.1612,790.14655,680.9524
1694304671.9950001,805.05493,798.60803,793.36993,796.5934,806.6667
1694304672.0259998,803.8461,799.011,792.96704,789.34064,770.80585
1694304672.027,798.20514,800.2198,793.7729,784.90845,674.90845
1694304672.028,800.2198,799.011,792.5641,792.5641,648.71796
1694304672.029,805.4579,797.8022,789.7436,799.81683,754.68866
1694304672.029,803.44324,797.8022,788.5348,805.05493,844.5421
1694304672.0300002,803.44324,800.6227,788.93774,803.44324,880.80585
1694304672.0310001,801.8315,803.0403,790.9524,797.8022,771.2088
1694304672.0310001,800.6227,800.2198,792.96704,800.2198,955.7509
1694304672.032,801.02563,795.78754,793.36993,811.0989,1176.9597
1694304672.033,797.3993,798.60803,790.9524,811.0989,880.0
1694304672.033,799.81683,802.23444,789.7436,794.17584,730.5128
1694304672.034,796.5934,799.011,788.5348,786.1172,758.315
1694304672.035,793.7729,799.41394,787.72894,784.10254,704.3223
1694304672.036,797.3993,801.4286,785.7143,778.0586,649.5238
1694304672.036,804.2491,799.41394,790.9524,788.5348,755.89746
1694304672.037,808.2784,797.3993,796.99634,804.2491,984.7619
1694304672.038,800.6227,800.2198,792.5641,806.26373,846.9597
1694304672.038,800.6227,798.60803,796.1905,807.8755,709.15753
1694304672.039,803.44324,796.99634,794.9817,795.78754,834.0659
1694304672.039,804.65204,800.2198,790.14655,786.52014,1173.3334
1694304672.04,808.68134,795.78754,791.75824,786.9231,1005.7143
1694304672.041,800.6227,788.93774,789.7436,780.4762,676.9231
1694304672.041,799.011,792.5641,788.93774,783.69965,639.85345
1694304672.0419998,811.9048,799.011,789.34064,801.02563,651.53845
1694304672.1230001,809.4872,796.1905,797.3993,800.6227,743.4066
1694304672.125,799.41394,791.3553,800.6227,799.011,779.67035
1694304672.129,801.8315,788.5348,799.81683,798.60803,764.35895
1694304672.1299999,807.8755,785.7143,801.4286,788.93774,686.99634
1694304672.131,809.4872,789.7436,795.78754,792.5641,664.83514
1694304672.132,811.9048,794.17584,794.17584,802.6374,807.0696
1694304672.133,807.8755,794.57874,795.78754,807.47253,1133.8462
1694304672.134,801.4286,796.99634,792.96704,805.05493,1104.4323
1694304672.135,805.4579,796.99634,792.5641,801.02563,680.54944
1694304672.136,805.8608,792.96704,793.36993,799.81683,653.1502
1694304672.136,805.8608,788.93774,792.1612,796.99634,901.75824
1694304672.1369998,806.26373,786.1172,789.34064,801.02563,799.011
1694304672.191,799.41394,786.52014,789.34064,805.8608,704.7253
1694304672.1929998,796.5934,790.54944,789.7436,806.26373,713.5897
1694304672.1929998,798.60803,791.3553,789.7436,805.8608,809.0842
1694304672.1939998,797.8022,791.75824,789.7436,808.2784,780.87915
1694304672.1950002,798.60803,791.3553,787.326,802.6374,693.0403
1694304672.1950002,807.47253,793.36993,790.9524,799.41394,884.0293
1694304672.196,800.6227,795.38464,796.5934,813.5165,1061.7216
1694304672.197,799.011,799.011,797.8022,808.68134,763.5531
1694304672.197,809.89014,802.23444,792.1612,790.9524,635.0183
1694304672.1980002,807.47253,798.60803,790.54944,791.3553,778.0586
1694304672.1990001,806.26373,799.011,792.1612,798.60803,871.9414
1694304672.1990001,802.23444,799.011,792.5641,790.9524,785.31134
1694304672.2350001,798.20514,796.99634,791.3553,789.34064,699.89014
1694304672.236,801.8315,799.41394,788.1319,799.011,769.19415
1694304672.237,804.65204,797.8022,788.5348,804.2491,838.0952
1694304672.2380002,803.0403,792.96704,793.36993,799.011,781.685
1694304672.2419999,791.75824,792.96704,793.36993,794.9817,720.4396
1694304672.2419999,789.34064,795.38464,789.7436,794.9817,918.2784
1694304672.243,795.78754,795.78754,791.75824,792.1612,938.022
1694304672.244,794.9817,794.9817,796.5934,797.8022,732.52747
1694304672.244,792.5641,796.5934,792.96704,801.4286,777.25275
1694304672.245,785.31134,796.5934,788.1319,801.4286,1002.49084
1694304672.245,794.9817,798.20514,788.93774,789.34064,832.0513
1694304672.246,805.05493,800.6227,791.75824,781.685,631.39197
1694304672.247,800.6227,798.20514,786.52014,788.1319,765.56775
1694304672.247,800.2198,795.38464,780.87915,801.02563,962.1978
1694304672.248,802.6374,800.2198,785.7143,801.4286,873.5531
1694304672.248,802.23444,801.8315,785.7143,785.7143,651.53845
1694304672.2489998,801.4286,796.99634,785.7143,782.49084,666.8498
1694304672.2499998,805.05493,799.011,788.5348,798.60803,918.2784
1694304672.2499998,807.47253,799.41394,789.7436,806.6667,877.1795
1694304672.2510002,804.65204,799.011,789.7436,798.60803,713.9927
1694304672.252,798.60803,799.81683,791.75824,787.326,721.2454
1694304672.253,794.17584,801.4286,790.54944,791.75824,855.0183
1694304672.253,800.2198,801.8315,789.7436,799.011,751.8681
1694304672.2540002,802.23444,798.20514,792.1612,800.6227,694.65204
1694304672.28,794.9817,795.78754,793.36993,794.9817,754.2857
1694304672.281,784.5055,794.57874,794.17584,786.9231,709.9634
1694304672.281,784.10254,796.5934,793.7729,794.17584,665.64105
1694304672.2819998,793.36993,795.78754,795.78754,803.44324,714.7985
1694304672.2819998,803.8461,801.8315,797.3993,805.8608,845.7509
1694304672.2819998,801.4286,802.6374,792.96704,800.6227,887.6557
1694304672.286,800.2198,794.9817,791.3553,790.54944,810.696
1694304672.286,808.68134,797.3993,792.5641,776.4469,677.326
1694304672.2870002,805.05493,797.8022,798.60803,781.685,909.81683
1694304672.2870002,802.23444,797.3993,797.8022,806.26373,1095.5677
1694304672.2870002,800.6227,798.60803,795.38464,800.6227,797.8022
1694304672.288,794.9817,795.38464,794.17584,791.3553,720.0366
1694304672.3430002,792.5641,796.5934,791.75824,796.5934,758.71796
1694304672.344,794.17584,798.60803,794.57874,790.14655,697.8755
1694304672.345,800.6227,795.78754,796.99634,784.90845,722.4542
1694304672.345,797.8022,794.9817,794.57874,796.99634,816.337
1694304672.346,804.65204,801.02563,794.9817,810.293,878.7912
1694304672.346,803.0403,796.1905,804.65204,803.0403,814.3223
1694304672.3470001,788.93774,789.34064,807.47253,794.57874,722.8571
1694304672.3470001,788.93774,790.9524,807.0696,806.6667,757.9121
1694304672.348,801.4286,789.34064,807.0696,816.7399,1134.652
1694304672.349,803.44324,790.9524,801.02563,814.7253,984.7619
1694304672.349,791.75824,795.38464,800.2198,799.41394,652.3443
1694304672.3500001,792.5641,798.20514,799.011,791.3553,699.0842
1694304672.381,801.4286,799.011,796.99634,800.6227,719.6337
1694304672.3830001,801.02563,794.9817,794.57874,806.6667,716.4103
1694304672.3830001,793.36993,791.3553,792.96704,809.4872,770.40295
1694304672.384,787.326,788.5348,795.78754,812.71063,738.97437
1694304672.385,792.5641,791.75824,794.17584,809.89014,676.52014
1694304672.385,804.2491,797.8022,794.9817,816.7399,726.8865
1694304672.386,809.0842,797.3993,796.5934,822.7839,811.50183
1694304672.387,807.0696,798.20514,795.78754,815.5311,997.6557
1694304672.391,796.5934,798.60803,790.14655,801.8315,928.7546
1694304672.392,794.17584,795.38464,786.52014,785.31134,661.6117
1694304672.392,797.8022,794.57874,787.326,787.326,679.7436
1694304672.393,801.8315,794.17584,790.14655,799.011,823.5897
1694304672.414,798.20514,791.3553,790.54944,794.9817,792.96704
1694304672.415,795.38464,792.5641,785.31134,789.7436,651.9414
1694304672.416,803.0403,793.7729,790.14655,793.36993,664.43225
1694304672.4169998,811.0989,794.57874,795.38464,805.05493,960.989
1694304672.4169998,808.68134,794.17584,794.17584,810.696,911.02563
1694304672.418,811.0989,791.3553,796.5934,807.8755,776.8498
1694304672.418,807.0696,790.54944,793.7729,793.36993,821.5751
1694304672.418,793.36993,788.5348,788.93774,798.60803,1019.011
1694304672.4190001,794.57874,789.34064,790.54944,809.89014,857.03296
1694304672.4190001,801.8315,793.7729,792.96704,812.3077,702.71063
1694304672.42,802.6374,792.5641,796.5934,814.3223,790.9524
1694304672.42,796.5934,795.38464,799.41394,808.68134,714.3956
1694304672.474,801.02563,794.9817,797.3993,798.60803,616.08057
1694304672.4750001,813.5165,794.17584,798.20514,798.20514,625.7509
1694304672.476,808.68134,795.38464,803.0403,803.8461,772.8205
1694304672.476,798.20514,792.96704,800.6227,803.44324,848.1685
1694304672.477,795.78754,791.75824,797.3993,806.26373,743.4066
1694304672.477,796.99634,794.17584,797.8022,808.68134,712.381
1694304672.4780002,794.57874,792.1612,794.9817,808.68134,983.1502
1694304672.4780002,796.99634,785.7143,794.9817,804.65204,1059.3041
1694304672.479,799.81683,785.7143,793.36993,788.1319,821.978
1694304672.479,794.57874,790.9524,790.14655,780.4762,763.5531
1694304672.483,796.5934,797.8022,790.54944,783.69965,695.8608
1694304672.483,798.60803,796.1905,790.54944,786.9231,699.89014
1694304672.5059998,798.60803,791.3553,794.17584,794.17584,781.28204
1694304672.507,795.78754,787.326,794.57874,792.5641,823.9927
1694304672.508,792.96704,788.1319,791.75824,793.7729,994.43225
1694304672.508,791.3553,792.5641,793.36993,788.5348,792.5641
1694304672.5089998,789.7436,790.9524,793.36993,789.7436,620.5128
1694304672.5089998,792.5641,792.1612,796.1905,799.011,797.3993
1694304672.5100002,790.14655,795.78754,798.20514,800.6227,1100.0
1694304672.5110002,788.93774,795.38464,792.5641,799.011,900.9524
1694304672.512,786.52014,791.75824,787.72894,792.96704,580.2198
1694304672.513,787.72894,793.7729,785.31134,782.49084,676.9231
1694304672.514,801.02563,798.60803,780.87915,788.1319,834.4689
1694304672.514,804.2491,799.011,783.2967,791.75824,792.96704
1694304672.573,801.4286,790.54944,789.34064,794.9817,733.73627
1694304672.5740001,811.0989,787.72894,789.7436,801.02563,723.663
1694304672.575,809.4872,793.7729,788.5348,793.36993,723.663
1694304672.575,801.4286,799.41394,782.0879,784.10254,698.2784
1694304672.576,796.5934,801.8315,784.5055,784.10254,770.0
1694304672.576,782.8938,795.38464,790.54944,785.7143,946.8865
1694304672.577,774.0293,789.7436,794.17584,778.0586,863.8828
1694304672.577,774.43225,792.1612,790.54944,777.25275,731.31866
1694304672.5779998,780.07324,790.14655,787.72894,783.69965,731.31866
1694304672.579,788.5348,791.75824,793.36993,794.17584,1003.69965
1694304672.579,794.9817,798.60803,796.1905,800.6227,1068.1685
1694304672.58,790.9524,797.3993,792.96704,790.9524,724.87177
1694304672.6060002,786.1172,796.5934,788.1319,794.57874,738.5714
1694304672.607,799.81683,798.20514,794.57874,811.0989,935.6044
1694304672.607,802.6374,796.99634,794.9817,803.44324,832.4542
1694304672.608,797.8022,797.3993,791.3553,797.3993,707.9487
1694304672.609,800.6227,793.7729,793.7729,803.8461,658.3883
1694304672.609,790.9524,791.75824,789.34064,799.011,668.46155
1694304672.61,785.7143,794.9817,791.3553,795.38464,726.4835
1694304672.611,794.57874,800.6227,797.8022,810.293,682.1612
1694304672.612,790.9524,795.78754,796.5934,807.8755,758.71796
1694304672.612,780.87915,788.5348,798.60803,801.4286,1105.641
1694304672.613,785.7143,791.3553,799.41394,804.2491,902.5641
1694304672.613,788.1319,793.7729,795.78754,794.57874,668.86444
1694304672.669,788.93774,794.57874,794.57874,796.5934,768.3883
1694304672.67,789.7436,794.17584,797.3993,801.4286,766.3736
1694304672.671,791.3553,800.2198,801.02563,796.99634,698.2784
1694304672.671,792.96704,801.02563,799.011,792.1612,648.71796
1694304672.672,793.7729,795.78754,792.96704,788.93774,698.68134
1694304672.672,801.8315,795.78754,790.9524,794.9817,797.3993
1694304672.6729999,808.2784,799.011,795.78754,805.8608,783.2967
1694304672.6729999,802.6374,795.38464,797.3993,798.20514,727.28937
1694304672.6739998,792.96704,791.3553,795.78754,788.1319,881.6117
1694304672.6739998,790.14655,794.9817,796.1905,794.9817,904.57874
1694304672.675,796.99634,796.99634,792.96704,801.4286,746.2271
1694304672.675,803.8461,798.60803,794.9817,806.6667,814.7253
1694304672.707,795.78754,799.81683,794.17584,797.3993,916.26373
1694304672.708,788.93774,800.6227,792.96704,789.7436,785.7143
1694304672.712,799.81683,799.41394,796.5934,801.02563,643.47986
1694304672.712,802.6374,797.8022,799.011,801.8315,762.3443
1694304672.7129998,794.17584,795.78754,799.011,800.2198,1049.2307
1694304672.714,791.75824,796.5934,796.99634,797.8022,990.40295
1694304672.714,787.72894,797.3993,793.36993,781.685,724.0659
1694304672.7150002,791.3553,795.38464,791.3553,785.31134,655.9707
1694304672.716,801.4286,796.99634,794.17584,806.26373,952.9304
1694304672.717,804.65204,797.8022,795.38464,807.47253,843.73627
1694304672.717,800.6227,799.81683,792.1612,795.78754,650.7326
1694304672.7180002,796.5934,798.20514,795.38464,786.52014,662.01465
1694304672.769,797.8022,793.36993,796.1905,789.7436,657.98535
1694304672.7710001,805.4579,796.5934,789.34064,799.41394,713.5897
1694304672.7710001,809.4872,799.41394,786.52014,805.05493,768.7912
1694304672.772,805.8608,797.8022,787.326,812.3077,879.19415
1694304672.773,804.2491,798.20514,785.7143,798.60803,791.75824
1694304672.773,803.44324,799.81683,782.8938,780.07324,672.0879
1694304672.7740002,805.05493,797.8022,782.49084,786.1172,777.25275
1694304672.776,810.293,795.78754,785.7143,798.20514,998.0586
1694304672.777,808.2784,797.8022,786.9231,803.0403,1027.8755
1694304672.777,803.44324,801.02563,786.52014,804.65204,755.4945
1694304672.7779999,807.8755,803.44324,788.1319,792.1612,664.43225
1694304672.7779999,807.0696,803.0403,789.7436,784.90845,756.30035
1694304672.8270001,807.0696,799.011,789.34064,792.5641,849.3773
1694304672.828,813.91943,800.6227,792.1612,797.3993,786.9231
1694304672.829,810.293,800.6227,795.38464,793.36993,759.92676
1694304672.8300002,798.20514,799.011,795.78754,801.4286,875.56775
1694304672.835,796.5934,799.011,788.1319,806.26373,743.8095
1694304672.836,800.2198,799.81683,787.326,797.8022,674.5055
1694304672.837,801.02563,800.2198,790.9524,793.36993,882.8205
1694304672.837,799.41394,805.05493,789.7436,801.02563,1169.3041
1694304672.838,797.8022,803.44324,789.34064,799.81683,907.3993
1694304672.839,797.3993,799.011,789.34064,794.17584,581.4286
1694304672.839,799.011,801.02563,786.9231,795.78754,634.61536
1694304672.84,803.44324,800.6227,788.93774,801.4286,718.4249
1694304672.873,791.3553,802.6374,787.326,800.2198,720.84247
1694304672.8739998,785.7143,801.02563,784.5055,790.14655,651.13556
1694304672.875,792.1612,798.60803,789.34064,786.1172,682.1612
1694304672.876,792.5641,799.011,795.78754,787.326,723.2601
1694304672.876,799.011,798.20514,795.38464,802.23444,751.8681
1694304672.8769999,796.1905,797.3993,792.96704,817.1429,792.1612
1694304672.8769999,790.9524,800.2198,799.011,810.293,979.12085
1694304672.878,798.60803,803.44324,792.5641,802.6374,1072.1978
1694304672.878,800.2198,804.2491,784.90845,796.99634,857.4359
1694304672.879,803.0403,805.05493,790.14655,794.9817,797.3993
1694304672.879,805.8608,803.0403,791.3553,803.44324,955.7509
1694304672.88,803.0403,797.3993,792.5641,801.02563,813.1135
1694304672.882,802.6374,797.3993,793.36993,794.9817,650.32965
1694304672.8830001,801.4286,799.41394,792.5641,793.7729,718.8278
1694304672.8830001,802.6374,801.4286,792.5641,805.8608,932.381
1694304672.884,799.81683,797.3993,788.1319,805.4579,857.03296
1694304672.884,795.78754,792.96704,786.9231,796.1905,638.6447
1694304672.885,799.011,794.57874,788.1319,806.26373,680.54944
1694304672.889,800.6227,794.17584,787.72894,804.2491,878.3883
1694304672.8899999,802.23444,791.75824,781.28204,797.8022,804.65204
1694304672.8899999,799.41394,786.52014,782.49084,799.011,701.9048
1694304672.891,794.57874,790.9524,788.1319,791.75824,758.315
1694304672.893,797.3993,796.1905,791.3553,799.011,893.69965
1694304672.894,800.2198,790.9524,790.9524,810.696,777.25275
1694304672.921,802.6374,791.3553,794.57874,804.2491,696.26373
1694304672.922,805.05493,793.7729,793.7729,798.20514,830.0366
1694304672.923,810.696,798.60803,783.69965,804.65204,829.2308
1694304672.923,820.3663,801.02563,781.685,809.89014,658.7912
1694304672.924,800.6227,786.1172,794.9817,792.96704,677.326
1694304672.925,788.5348,784.10254,800.6227,790.14655,888.46155
1694304672.925,807.8755,784.90845,800.6227,812.3077,900.14655
1694304672.926,806.6667,785.31134,801.02563,809.0842,748.24176
1694304672.926,799.81683,792.5641,791.3553,791.3553,654.35895
1694304672.926,807.0696,798.20514,786.52014,794.57874,831.2454
1694304672.927,804.65204,798.20514,786.9231,794.57874,885.64105
1694304672.927,801.4286,797.3993,785.7143,790.14655,728.0952
1694304673.004,808.68134,798.60803,785.7143,800.6227,844.94507
1694304673.0049999,795.78754,796.1905,788.1319,805.4579,1039.9634
1694304673.006,788.1319,796.1905,786.9231,798.60803,823.1868
1694304673.006,805.4579,800.6227,786.1172,800.6227,647.1062
1694304673.007,813.5165,798.20514,786.1172,806.6667,725.6777
1694304673.007,801.02563,794.57874,785.31134,801.02563,820.3663
1694304673.008,794.57874,797.3993,787.72894,793.36993,809.89014
1694304673.0089998,801.4286,800.6227,787.72894,803.0403,709.9634
1694304673.013,799.011,802.6374,784.5055,807.8755,754.2857
1694304673.013,800.2198,800.6227,786.9231,808.2784,1040.7693
1694304673.0140002,806.6667,798.20514,788.5348,812.3077,869.5238
1694304673.015,803.0403,798.20514,792.1612,797.8022,599.15753
1694304673.059,800.2198,802.23444,798.60803,795.78754,643.0769
1694304673.06,807.47253,803.8461,796.5934,810.696,737.76556
1694304673.0609999,805.4579,797.3993,790.54944,803.44324,794.57874
1694304673.062,798.60803,798.20514,790.14655,798.60803,790.54944
1694304673.062,798.20514,802.23444,794.57874,797.8022,814.7253
1694304673.063,802.23444,799.011,796.1905,789.34064,807.8755
1694304673.064,811.0989,803.0403,798.20514,790.54944,842.9304
1694304673.064,812.3077,801.02563,793.7729,796.99634,790.54944
1694304673.0649998,808.2784,795.78754,785.31134,801.02563,989.19415
1694304673.066,802.23444,795.38464,790.14655,803.0403,1121.3553
1694304673.066,803.8461,798.60803,798.20514,799.81683,748.6447
1694304673.0670002,805.05493,791.3553,795.78754,795.38464,769.59705
1694304673.107,803.44324,785.31134,791.75824,801.8315,1090.7325
1694304673.108,802.6374,791.3553,793.7729,801.02563,950.5128
1694304673.109,797.3993,794.57874,794.9817,794.17584,712.381
1694304673.109,805.8608,795.38464,794.9817,800.2198,649.12085
1694304673.1100001,810.696,795.38464,794.57874,808.2784,695.05493
1694304673.111,798.20514,794.57874,792.96704,805.05493,794.57874
1694304673.112,797.8022,795.38464,795.38464,817.9487,772.8205
1694304673.112,799.81683,798.60803,799.41394,819.15753,774.43225
1694304673.113,797.8022,803.0403,797.3993,809.0842,952.9304
1694304673.1139998,800.6227,805.8608,796.5934,817.1429,834.4689
1694304673.118,805.4579,803.0403,798.60803,810.293,697.47253
1694304673.119,803.44324,794.57874,799.011,811.9048,780.4762
1694304673.147,798.60803,792.1612,798.20514,817.5458,746.63007
1694304673.148,797.8022,795.78754,794.17584,805.05493,626.55676
1694304673.149,799.41394,792.1612,793.7729,790.54944,628.97437
1694304673.149,798.20514,792.96704,798.20514,789.7436,758.71796
1694304673.15,796.99634,801.02563,791.75824,800.2198,818.7546
1694304673.151,797.8022,801.8315,788.5348,797.8022,820.3663
1694304673.151,799.41394,801.4286,791.75824,790.9524,759.5238
1694304673.152,805.8608,800.6227,792.1612,799.011,909.81683
1694304673.152,804.2491,799.41394,792.5641,804.2491,969.0476
1694304673.1529999,802.6374,799.81683,794.57874,805.8608,809.0842
1694304673.1539998,801.4286,799.41394,794.9817,801.4286,759.5238
1694304673.1539998,796.5934,797.3993,788.93774,789.7436,869.5238
1694304673.155,797.8022,797.3993,784.10254,782.0879,858.24176
1694304673.156,801.02563,796.1905,786.52014,788.1319,707.5458
1694304673.1569998,804.2491,796.1905,790.9524,804.2491,788.93774
1694304673.1569998,805.05493,798.20514,792.96704,814.3223,985.9707
1694304673.1580002,800.6227,797.8022,789.7436,806.6667,786.1172
1694304673.1580002,801.4286,794.57874,790.9524,801.4286,655.16486
1694304673.1590002,807.8755,791.3553,795.38464,801.4286,812.3077
1694304673.1590002,807.0696,797.8022,794.9817,815.12823,1041.978
1694304673.16,799.011,802.23444,792.1612,816.337,904.57874
1694304673.161,793.7729,795.78754,798.60803,800.2198,658.3883
1694304673.161,796.99634,793.7729,795.78754,803.44324,644.2857
1694304673.162,802.23444,793.36993,795.38464,817.9487,777.25275
1694304673.227,807.47253,794.17584,799.81683,814.3223,801.02563
1694304673.228,813.5165,800.2198,795.78754,809.4872,712.7839
1694304673.2289999,829.2308,809.89014,794.9817,815.12823,764.35895
1694304673.2289999,827.619,803.8461,803.0403,812.3077,795.38464
1694304673.23,800.6227,793.36993,807.0696,790.9524,701.0989
1694304673.231,798.60803,794.17584,801.8315,784.90845,690.2198
1694304673.231,798.20514,792.1612,801.4286,802.23444,1004.10254
1694304673.232,792.5641,792.5641,803.8461,815.12823,998.46155
1694304673.232,791.3553,794.17584,801.4286,791.75824,649.12085
1694304673.233,791.75824,794.17584,796.99634,779.67035,660.40295
1694304673.234,799.41394,801.8315,796.5934,802.6374,758.315
1694304673.234,792.5641,805.4579,799.41394,811.0989,786.52014
1694304673.277,784.10254,802.6374,800.2198,801.8315,715.6044
1694304673.278,794.17584,801.4286,802.23444,796.5934,689.81683
1694304673.279,802.23444,799.011,807.8755,808.2784,1056.4835
1694304673.279,794.9817,796.5934,800.2198,810.293,973.47986
1694304673.28,792.96704,792.5641,792.96704,801.02563,705.5311
1694304673.281,794.17584,795.78754,790.9524,796.1905,792.1612
1694304673.281,795.38464,799.41394,787.72894,789.34064,805.05493
1694304673.2819998,797.8022,794.17584,788.1319,787.72894,755.4945
1694304673.283,808.2784,792.5641,786.1172,796.99634,709.9634
1694304673.2849998,812.71063,792.5641,789.34064,803.44324,811.50183
1694304673.286,806.6667,793.36993,795.38464,803.8461,1138.6813
1694304673.2870002,809.0842,790.54944,792.96704,799.81683,880.40295
1694304673.346,813.5165,787.72894,792.96704,792.96704,620.9158
1694304673.3470001,815.12823,790.54944,797.8022,796.5934,732.52747
1694304673.352,813.5165,791.3553,797.3993,798.60803,780.4762
1694304673.353,808.2784,791.3553,799.81683,803.0403,728.49817
1694304673.3539999,803.8461,790.9524,802.23444,802.23444,638.6447
1694304673.3539999,804.2491,788.5348,797.3993,804.2491,825.6044
1694304673.355,811.0989,789.7436,794.9817,804.2491,923.91943
1694304673.356,810.696,790.14655,796.1905,795.78754,821.5751
1694304673.3569999,803.0403,790.14655,792.96704,802.6374,739.3773
1694304673.3569999,795.38464,793.7729,796.5934,805.8608,834.0659
1694304673.358,801.8315,793.36993,799.41394,804.2491,791.3553
1694304673.359,810.696,788.1319,795.78754,798.20514,657.1795
1694304673.381,807.8755,793.7729,794.17584,801.02563,834.87177
1694304673.3830001,802.6374,794.17584,794.57874,812.71063,963.00366
1694304673.3830001,794.17584,791.3553,799.011,805.4579,757.50916
1694304673.384,797.3993,791.75824,797.3993,799.011,582.6374
1694304673.385,811.0989,793.7729,795.38464,800.6227,649.92676
1694304673.385,818.7546,798.60803,793.36993,794.9817,800.2198
1694304673.386,812.71063,795.78754,791.75824,801.02563,834.87177
1694304673.386,805.8608,793.7729,796.1905,803.0403,749.45056
1694304673.387,806.6667,795.78754,794.57874,794.57874,695.4579
1694304673.388,816.337,796.5934,793.36993,800.2198,1019.41394
1694304673.388,818.7546,795.38464,795.38464,813.5165,965.82416
1694304673.389,807.8755,796.99634,792.96704,814.7253,718.022
1694304673.395,803.0403,792.96704,790.14655,794.9817,674.90845
1694304673.3969998,802.23444,788.93774,790.9524,780.87915,609.6337
1694304673.3969998,801.8315,794.57874,793.36993,788.1319,626.1539
1694304673.3980002,809.89014,799.41394,793.36993,799.81683,668.0586
1694304673.402,810.293,794.57874,795.78754,797.8022,767.5824
1694304673.402,801.8315,789.7436,791.75824,793.36993,801.4286
1694304673.403,800.6227,788.93774,790.54944,793.7729,758.71796
1694304673.403,804.65204,790.54944,793.36993,796.1905,720.0366
1694304673.404,809.89014,794.9817,794.17584,804.65204,970.2564
1694304673.405,809.0842,794.9817,797.8022,811.0989,1063.3334
1694304673.405,793.36993,789.7436,793.7729,801.02563,809.0842
1694304673.4060001,792.5641,791.3553,794.9817,802.6374,726.08057
1694304673.4499998,800.2198,792.5641,801.02563,810.696,998.0586
1694304673.452,798.60803,789.34064,794.17584,792.1612,947.6923
1694304673.4540002,801.4286,790.9524,788.93774,788.93774,682.5641
1694304673.4550002,798.20514,793.7729,793.7729,796.1905,686.99634
1694304673.456,795.38464,793.7729,798.20514,788.5348,666.4469
1694304673.457,801.02563,794.57874,793.7729,785.31134,726.08057
1694304673.458,806.6667,792.5641,792.5641,796.1905,732.52747
1694304673.458,803.0403,786.9231,791.75824,801.8315,742.6007
1694304673.459,795.78754,788.93774,791.3553,809.0842,1020.6227
1694304673.46,796.5934,796.1905,793.36993,798.20514,811.9048
1694304673.461,802.6374,799.81683,794.9817,790.54944,636.63007
1694304673.461,809.4872,801.4286,792.1612,795.78754,771.2088
1694304673.543,814.3223,799.011,791.75824,792.1612,863.47986
1694304673.544,804.65204,796.5934,794.57874,787.326,862.674
1694304673.5449998,804.2491,798.20514,791.75824,783.2967,682.96704
1694304673.5459998,824.7985,801.4286,787.72894,796.99634,739.3773
1694304673.5459998,819.15753,797.3993,793.36993,803.8461,841.7216
1694304673.5470002,798.20514,789.7436,798.60803,791.3553,855.0183
1694304673.551,798.60803,787.326,799.011,803.0403,917.8755
1694304673.552,800.2198,787.72894,797.3993,805.05493,989.59705
1694304673.553,808.68134,793.7729,793.36993,794.9817,934.3956
1694304673.553,813.91943,795.78754,790.9524,788.93774,740.58606
1694304673.554,804.65204,795.78754,785.31134,789.34064,727.28937
1694304673.555,794.17584,791.3553,791.75824,795.38464,835.2747
1694304673.556,793.36993,788.93774,796.5934,809.0842,864.68866
1694304673.557,798.20514,790.9524,789.34064,807.8755,677.326
1694304673.557,804.2491,793.7729,787.326,796.99634,661.6117
1694304673.558,815.5311,794.57874,792.5641,812.3077,1035.5311
1694304673.558,815.5311,794.9817,796.1905,811.9048,959.3773
1694304673.559,806.26373,801.02563,797.8022,798.60803,699.89014
1694304673.559,809.89014,800.6227,794.9817,794.9817,765.9707
1694304673.56,818.3516,797.8022,794.9817,797.8022,867.1062
1694304673.5609999,821.1722,798.20514,797.3993,795.38464,784.5055
1694304673.5609999,819.5604,796.99634,798.60803,795.78754,695.05493
1694304673.5619998,809.0842,797.8022,796.5934,801.02563,753.0769
1694304673.5619998,805.8608,801.4286,796.5934,789.7436,875.16486
1694304673.611,813.5165,805.4579,797.3993,788.1319,710.3663
1694304673.612,811.0989,807.47253,796.5934,805.05493,715.6044
1694304673.613,809.89014,802.23444,799.41394,803.44324,816.337
1694304673.614,806.6667,801.4286,792.5641,796.5934,756.30035
1694304673.615,795.78754,805.05493,791.75824,795.38464,652.74725
1694304673.615,797.8022,805.05493,794.9817,791.3553,677.72894
1694304673.616,803.0403,800.6227,793.36993,806.6667,958.97437
1694304673.6169999,811.50183,799.011,793.36993,813.1135,1062.5275
1694304673.6220002,809.89014,800.6227,795.38464,800.2198,829.2308
1694304673.6220002,800.6227,798.20514,797.3993,794.17584,720.4396
1694304673.6230001,801.02563,793.36993,797.3993,799.41394,825.6044
1694304673.624,806.26373,796.5934,799.81683,804.2491,808.2784
1694304673.6739998,809.0842,796.5934,798.60803,810.696,750.65936
1694304673.675,798.60803,790.9524,798.20514,801.8315,756.7033
1694304673.676,794.57874,796.1905,799.41394,796.5934,865.09155
1694304673.677,799.011,795.38464,801.4286,803.0403,765.16486
1694304673.6780002,805.05493,795.78754,802.23444,796.5934,663.6264
1694304673.68,808.2784,802.23444,801.4286,794.17584,863.47986
1694304673.681,804.2491,803.0403,796.99634,805.05493,1062.5275
1694304673.682,801.02563,803.44324,790.9524,797.8022,790.54944
1694304673.682,794.57874,802.23444,790.9524,788.5348,609.2308
1694304673.683,799.41394,799.41394,790.9524,797.3993,731.7216
1694304673.684,805.05493,803.0403,790.54944,806.26373,950.10986
1694304673.685,804.65204,803.44324,788.5348,800.2198,817.5458
1694304673.723,801.02563,799.81683,788.93774,792.96704,665.2381
1694304673.724,802.23444,799.81683,788.5348,788.93774,705.9341
1694304673.725,811.50183,802.23444,790.14655,792.5641,723.2601
1694304673.726,815.5311,801.8315,793.36993,802.6374,702.71063
1694304673.727,809.4872,799.41394,790.54944,800.2198,731.7216
1694304673.727,804.65204,800.6227,788.5348,796.1905,861.06226
1694304673.728,808.2784,799.81683,788.93774,794.57874,805.8608
1694304673.7289999,809.89014,799.011,790.9524,791.3553,755.09155
1694304673.7299998,807.0696,794.9817,793.36993,791.3553,740.989
1694304673.7299998,803.0403,791.75824,795.78754,801.4286,919.89014
1694304673.736,798.60803,794.9817,795.38464,796.99634,934.7985
1694304673.737,799.011,795.78754,791.3553,783.69965,707.9487
1694304673.739,808.68134,791.75824,789.7436,776.8498,707.9487
1694304673.739,817.9487,795.78754,794.57874,792.1612,952.1245
1694304673.74,807.0696,800.6227,798.60803,803.8461,912.23444
1694304673.741,792.1612,798.20514,798.20514,796.99634,652.74725
1694304673.742,790.9524,799.011,794.9817,788.5348,636.2271
1694304673.742,796.1905,797.3993,790.14655,784.10254,748.6447
1694304673.743,808.2784,794.57874,784.90845,785.7143,830.4396
1694304673.744,808.68134,796.5934,782.49084,789.7436,774.83514
1694304673.744,801.02563,796.5934,785.31134,795.38464,776.04395
1694304673.745,799.41394,796.99634,784.90845,796.1905,914.2491
1694304673.7459998,807.8755,799.41394,785.7143,792.1612,776.4469
1694304673.7459998,814.3223,797.3993,787.72894,794.57874,708.7546
1694304673.7779999,807.8755,793.36993,789.34064,794.9817,790.14655
1694304673.779,803.8461,795.38464,790.9524,787.72894,815.12823
1694304673.78,805.8608,795.38464,792.1612,782.8938,757.9121
1694304673.78,811.50183,792.96704,794.17584,790.14655,707.1429
1694304673.781,817.1429,794.57874,794.9817,801.4286,814.7253
1694304673.782,814.3223,796.5934,795.78754,809.4872,913.0403
1694304673.782,807.0696,797.3993,801.02563,813.1135,864.2857
1694304673.783,804.2491,796.99634,801.02563,811.0989,715.2015
1694304673.783,801.4286,793.7729,798.60803,818.7546,847.3626
1694304673.784,809.4872,790.54944,800.2198,810.696,927.1429
1694304673.784,814.7253,791.75824,800.6227,798.20514,720.4396
1694304673.7849998,803.44324,795.78754,799.81683,795.78754,730.10986
1694304673.839,799.41394,799.81683,796.99634,786.9231,807.47253
1694304673.84,800.2198,794.9817,792.1612,784.5055,724.4689
1694304673.8409998,801.4286,788.93774,790.9524,789.34064,674.5055
1694304673.8409998,809.89014,789.34064,792.5641,798.20514,755.89746
1694304673.8419998,803.8461,788.5348,794.9817,799.011,913.0403
1694304673.8430002,790.54944,786.1172,793.7729,790.9524,827.619
1694304673.8430002,793.36993,787.326,794.57874,790.9524,683.7729
1694304673.844,801.8315,792.5641,792.5641,785.7143,698.2784
1694304673.845,805.8608,794.17584,788.5348,788.93774,1024.652
1694304673.845,806.26373,792.5641,794.57874,788.93774,990.80585
1694304673.8460002,800.2198,794.9817,799.011,785.31134,673.2967
1694304673.8460002,798.60803,795.78754,796.1905,787.326,646.30035
1694304673.879,805.4579,792.1612,797.3993,786.52014,674.10254
1694304673.88,807.0696,790.9524,799.011,790.9524,685.78754
1694304673.881,807.0696,790.54944,800.6227,794.17584,738.97437
1694304673.882,806.26373,787.72894,802.23444,789.34064,723.2601
1694304673.882,802.6374,790.54944,799.81683,789.7436,660.40295
1694304673.8830001,809.0842,789.7436,800.2198,792.5641,721.6484
1694304673.8830001,812.3077,787.72894,801.02563,793.36993,775.64105
1694304673.884,803.0403,785.7143,801.8315,802.23444,976.7033
1694304673.885,796.5934,783.2967,801.02563,808.68134,1126.5934
1694304673.8860002,798.60803,785.7143,799.011,800.2198,757.50916
1694304673.8860002,804.2491,782.49084,801.02563,798.60803,674.10254
1694304673.887,806.6667,783.2967,801.8315,806.26373,862.27106
1694304673.928,807.47253,789.34064,803.44324,811.50183,846.55676
1694304673.929,802.23444,786.52014,805.4579,808.68134,729.304
1694304673.934,791.75824,788.93774,800.6227,798.20514,686.1905
1694304673.9350002,798.60803,792.1612,799.41394,800.2198,838.9011
1694304673.9350002,807.8755,792.5641,796.1905,803.0403,817.1429
1694304673.936,801.4286,793.36993,793.36993,799.81683,786.9231
1694304673.937,798.60803,790.54944,791.75824,793.36993,834.0659
1694304673.937,803.0403,790.14655,789.7436,795.78754,1031.0989
1694304673.938,803.8461,793.7729,794.57874,794.17584,881.2088
1694304673.9390001,804.65204,787.72894,796.1905,786.52014,698.2784
1694304673.9390001,808.2784,788.5348,790.14655,793.7729,808.68134
1694304673.94,799.011,791.75824,791.3553,798.20514,818.3516
1694304674.012,789.7436,787.72894,793.7729,796.5934,675.7143
1694304674.013,797.8022,792.1612,794.17584,809.0842,643.8828
1694304674.0140002,809.4872,795.38464,796.5934,817.5458,765.56775
1694304674.015,803.44324,793.7729,795.78754,809.4872,804.65204
1694304674.016,799.41394,794.17584,797.3993,799.011,779.67035
1694304674.017,793.36993,798.60803,800.6227,776.4469,756.7033
1694304674.018,790.9524,799.011,793.36993,779.2674,970.2564
1694304674.019,802.6374,798.60803,792.1612,799.81683,1033.5165
1694304674.019,801.8315,798.20514,799.011,805.4579,794.9817
1694304674.02,788.5348,796.1905,800.6227,801.4286,747.8388
1694304674.021,783.69965,792.1612,795.38464,790.9524,723.663
1694304674.022,792.96704,789.34064,793.36993,788.5348,693.44324
1694304674.049,796.99634,791.3553,792.1612,792.96704,733.73627
1694304674.05,797.8022,794.57874,789.7436,795.38464,755.09155
1694304674.051,801.8315,796.5934,790.54944,801.02563,956.9597
1694304674.052,794.9817,795.78754,791.75824,799.81683,873.1502
1694304674.057,793.36993,794.57874,791.3553,798.60803,572.96704
1694304674.0579998,793.7729,792.1612,789.7436,790.54944,751.06226
1694304674.059,793.36993,786.52014,793.7729,790.54944,1007.326
1694304674.059,792.5641,783.2967,791.75824,791.75824,839.707
1694304674.06,784.5055,788.5348,787.326,783.2967,647.1062
1694304674.0609999,788.93774,792.96704,795.78754,791.75824,661.6117
1694304674.062,801.02563,794.9817,794.9817,799.41394,781.28204
1694304674.063,804.65204,794.57874,790.9524,797.8022,742.1978
1694304674.071,800.2198,794.57874,796.1905,796.99634,721.2454
1694304674.072,790.54944,795.38464,793.36993,796.1905,746.63007
1694304674.074,786.52014,795.78754,786.9231,785.7143,704.7253
1694304674.074,795.78754,798.60803,786.9231,780.4762,725.6777
1694304674.075,798.20514,801.8315,790.9524,798.60803,723.2601
1694304674.078,791.75824,797.3993,790.14655,817.1429,1008.5348
1694304674.08,784.10254,791.75824,787.72894,802.23444,1151.5751
1694304674.0809999,786.1172,788.93774,788.5348,780.07324,753.0769
1694304674.0830002,794.57874,788.5348,785.7143,782.0879,684.57874
1694304674.084,788.93774,788.93774,784.5055,792.5641,897.72894
1694304674.084,791.3553,790.9524,786.1172,793.36993,857.4359
1694304674.085,797.8022,792.5641,786.1172,779.2674,731.31866
1694304674.134,798.20514,786.9231,789.7436,780.87915,797.8022
1694304674.135,811.9048,788.5348,791.3553,797.3993,932.7839
1694304674.135,819.9634,795.78754,793.7729,798.20514,780.07324
1694304674.136,809.4872,792.5641,799.41394,794.57874,682.5641
1694304674.1369998,799.41394,792.5641,796.99634,796.1905,743.4066
1694304674.1369998,796.5934,794.9817,796.1905,795.38464,774.43225
1694304674.1420002,801.8315,796.99634,796.99634,796.99634,823.9927
1694304674.1430001,803.8461,799.81683,797.8022,797.3993,813.5165
1694304674.1430001,798.60803,804.65204,797.8022,801.02563,844.5421
1694304674.144,788.93774,801.4286,797.8022,811.9048,1059.7069
1694304674.144,785.31134,798.60803,801.02563,808.68134,869.92676
1694304674.145,792.96704,796.5934,802.23444,795.78754,639.45056
1694304674.201,802.23444,794.17584,800.2198,803.44324,744.21246
1694304674.203,801.8315,796.5934,801.4286,812.71063,849.3773
1694304674.204,788.5348,791.75824,801.4286,804.65204,752.27106
1694304674.205,782.49084,784.90845,796.1905,792.5641,618.9011
1694304674.206,790.54944,786.9231,793.7729,782.0879,660.80585
1694304674.206,796.5934,790.14655,794.17584,785.31134,851.79486
1694304674.207,800.2198,792.96704,794.9817,799.81683,886.04395
1694304674.208,796.5934,794.17584,794.17584,804.2491,777.6557
1694304674.2089999,795.78754,795.38464,798.20514,802.6374,986.77655
1694304674.2089999,799.011,799.011,799.41394,807.47253,1131.0256
1694304674.2099998,800.2198,797.3993,792.96704,796.1905,786.1172
1694304674.211,808.68134,795.78754,791.3553,794.57874,732.52747
1694304674.241,802.23444,795.78754,793.7729,799.011,870.7326
1694304674.2419999,793.36993,791.75824,798.20514,799.011,735.34796
1694304674.243,801.4286,794.17584,799.81683,804.65204,608.022
1694304674.243,810.293,799.41394,796.1905,800.2198,725.6777
1694304674.244,810.293,802.23444,794.57874,802.23444,846.1539
1694304674.245,813.5165,802.23444,795.78754,807.47253,820.7692
1694304674.245,806.26373,794.57874,801.8315,800.2198,797.3993
1694304674.246,794.57874,788.1319,804.65204,787.326,697.8755
1694304674.2499998,798.20514,792.1612,805.05493,793.7729,910.6227
1694304674.2510002,801.8315,796.99634,805.05493,799.011,834.4689
1694304674.252,795.38464,799.011,798.20514,790.54944,679.7436
1694304674.253,788.93774,805.8608,797.3993,784.10254,748.6447
1694304674.261,796.1905,807.8755,796.5934,786.9231,698.2784
1694304674.262,803.8461,801.8315,795.78754,788.1319,657.98535
1694304674.263,806.6667,799.41394,802.6374,789.7436,705.9341
1694304674.264,804.2491,803.0403,799.41394,795.78754,759.92676
1694304674.2649999,803.44324,804.65204,793.36993,803.0403,733.3333
1694304674.2659998,803.0403,805.4579,792.5641,800.6227,698.68134
1694304674.2659998,801.8315,801.8315,791.3553,792.5641,695.4579
1694304674.267,804.2491,797.3993,788.93774,802.23444,898.93774
1694304674.267,800.6227,799.41394,786.52014,807.47253,998.0586
1694304674.268,799.011,802.6374,786.52014,786.52014,725.6777
1694304674.268,803.0403,803.44324,789.7436,779.67035,610.0366
1694304674.269,801.02563,801.8315,790.9524,780.07324,695.4579
1694304674.317,799.41394,803.8461,792.1612,786.9231,805.8608
1694304674.318,801.4286,802.6374,794.17584,789.34064,769.59705
1694304674.319,802.6374,801.4286,791.75824,785.31134,723.2601
1694304674.32,796.99634,801.8315,793.36993,790.14655,906.99634
1694304674.3209999,800.2198,801.4286,798.20514,796.5934,836.08057
1694304674.3219998,809.0842,799.011,798.60803,790.9524,712.7839
1694304674.323,812.3077,801.8315,795.38464,793.7729,807.0696
1694304674.324,807.0696,802.23444,794.17584,801.4286,1020.6227
1694304674.325,797.3993,795.78754,791.3553,787.72894,825.2015
1694304674.325,804.2491,795.38464,793.7729,792.1612,587.47253
1694304674.33,819.15753,794.57874,799.011,803.0403,718.8278
1694304674.331,816.7399,797.3993,798.60803,796.5934,860.2564
1694304674.393,804.65204,803.8461,798.60803,801.02563,817.1429
1694304674.3939998,796.5934,801.4286,796.1905,800.2198,708.7546
1694304674.395,804.2491,803.0403,788.5348,794.17584,711.5751
1694304674.396,815.5311,805.05493,789.7436,791.3553,751.4652
1694304674.396,819.5604,800.2198,796.1905,799.41394,801.8315
1694304674.3969998,819.5604,803.44324,803.0403,811.50183,834.4689
1694304674.3980002,807.0696,803.44324,796.99634,803.8461,994.43225
1694304674.3980002,799.81683,799.011,796.1905,800.2198,1116.9231
1694304674.3990002,804.2491,803.8461,803.44324,800.6227,784.10254
1694304674.4,806.26373,803.44324,800.6227,797.3993,689.41394
1694304674.4,801.8315,799.81683,797.8022,799.81683,803.44324
1694304674.401,794.9817,799.81683,803.44324,804.65204,759.12085
1694304674.437,803.0403,799.81683,801.8315,796.5934,690.6227
1694304674.4380002,815.5311,801.02563,801.02563,795.78754,724.87177
1694304674.4390001,811.50183,800.6227,801.8315,809.89014,969.0476
1694304674.44,805.8608,800.2198,798.20514,811.9048,912.6374
1694304674.44,804.2491,798.60803,796.1905,809.0842,716.8132
1694304674.441,799.41394,794.9817,793.7729,806.26373,784.90845
1694304674.442,803.8461,796.1905,798.20514,815.12823,1083.8828
1694304674.442,803.8461,798.60803,803.0403,822.381,921.0989
1694304674.443,800.2198,797.3993,800.6227,821.978,708.3516
1694304674.444,800.6227,792.96704,800.2198,822.7839,777.25275
1694304674.445,800.6227,790.14655,800.6227,821.5751,813.91943
1694304674.445,804.2491,790.9524,795.78754,814.3223,759.5238
1694304674.46,802.23444,792.96704,797.3993,807.47253,748.24176
1694304674.4620001,795.38464,792.1612,802.6374,810.696,743.4066
1694304674.463,787.326,784.90845,798.20514,801.02563,729.304
1694304674.464,782.8938,785.7143,792.96704,787.72894,626.55676
1694304674.4659998,787.326,790.14655,794.57874,786.9231,620.9158
1694304674.467,788.93774,788.1319,792.5641,800.2198,868.71796
1694304674.467,793.7729,789.7436,794.17584,801.4286,923.5165
1694304674.4689999,790.9524,790.9524,792.96704,790.14655,758.315
1694304674.47,785.7143,790.54944,787.326,786.52014,670.4762
1694304674.471,791.3553,790.14655,788.5348,792.1612,1006.1172
1694304674.471,792.96704,789.7436,792.5641,800.6227,1094.359
1694304674.472,802.6374,792.1612,792.5641,797.8022,809.0842
1694304674.5,804.2491,790.9524,784.90845,795.78754,878.3883
1694304674.501,796.1905,790.9524,781.685,801.02563,967.8388
1694304674.502,796.99634,794.17584,787.326,795.78754,747.4359
1694304674.503,801.8315,793.36993,784.5055,796.99634,647.1062
1694304674.503,807.47253,795.78754,784.10254,805.4579,741.39197
1694304674.504,804.2491,794.9817,793.7729,801.4286,795.38464
1694304674.504,796.99634,795.38464,792.96704,792.96704,715.2015
1694304674.5049999,799.81683,797.3993,787.326,787.72894,612.8571
1694304674.5049999,805.8608,796.1905,793.7729,793.36993,671.685
1694304674.5059998,803.44324,796.99634,799.011,813.91943,1021.02563
1694304674.507,794.57874,794.9817,793.36993,803.8461,894.90845
1694304674.507,790.14655,793.36993,794.17584,780.87915,649.5238
1694304674.536,794.9817,797.3993,795.78754,784.5055,768.7912
1694304674.537,798.20514,798.60803,791.3553,792.1612,798.20514
1694304674.541,806.26373,798.60803,792.1612,796.5934,732.52747
1694304674.541,803.0403,800.2198,793.36993,801.4286,744.61536
1694304674.542,792.96704,797.3993,791.3553,795.78754,731.7216
1694304674.542,796.99634,795.78754,792.1612,783.2967,680.14655
1694304674.543,805.05493,798.60803,792.1612,785.7143,761.53845
1694304674.543,813.5165,795.78754,792.5641,795.78754,792.96704
1694304674.544,805.4579,795.78754,796.5934,807.47253,932.7839
1694304674.544,792.96704,801.4286,795.38464,808.68134,1018.60803
1694304674.5449998,795.78754,803.0403,789.7436,797.3993,694.65204
1694304674.5459998,794.17584,801.02563,788.5348,795.78754,652.3443
1694304674.586,797.3993,800.2198,793.7729,800.6227,846.55676
1694304674.588,799.81683,803.44324,794.57874,800.6227,786.1172
1694304674.589,790.54944,804.2491,794.57874,801.4286,692.6374
1694304674.5900002,791.75824,796.99634,799.41394,803.8461,677.326
1694304674.592,799.81683,796.5934,796.1905,806.6667,894.10254
1694304674.593,798.60803,799.011,790.14655,800.6227,973.8828
1694304674.5939999,795.38464,798.60803,790.14655,793.7729,820.3663
1694304674.595,786.52014,794.9817,794.17584,795.78754,778.46155
1694304674.595,782.8938,790.9524,789.34064,797.3993,948.0952
1694304674.596,786.9231,789.34064,787.326,794.57874,849.7802
1694304674.597,794.57874,791.75824,789.34064,797.8022,762.3443
1694304674.597,803.0403,796.5934,793.36993,792.1612,840.9158
1694304674.656,799.011,798.20514,799.81683,790.54944,815.12823
1694304674.6569998,801.02563,799.41394,794.17584,795.38464,692.6374
1694304674.6579998,809.4872,799.81683,795.78754,797.8022,682.96704
1694304674.6590002,815.12823,800.6227,803.0403,804.2491,774.0293
1694304674.664,814.3223,798.20514,799.81683,813.5165,815.12823
1694304674.665,803.0403,795.78754,793.36993,801.8315,783.2967
1694304674.666,801.4286,799.81683,793.7729,800.2198,842.9304
1694304674.666,809.0842,799.41394,797.8022,811.50183,1147.1428
1694304674.667,813.1135,799.81683,801.8315,806.26373,1033.9194
1694304674.668,807.47253,801.02563,798.60803,807.47253,759.12085
1694304674.668,799.41394,800.6227,796.5934,807.0696,753.8828
1694304674.669,796.1905,802.6374,799.011,799.011,708.3516
1694304674.6950002,795.38464,798.20514,797.3993,791.3553,705.9341
1694304674.696,803.0403,795.78754,795.78754,784.90845,655.16486
1694304674.697,807.0696,795.38464,795.38464,792.96704,832.4542
1694304674.697,801.02563,792.1612,789.7436,794.17584,883.6264
1694304674.698,794.17584,785.7143,791.3553,787.72894,663.6264
1694304674.698,796.99634,780.87915,796.5934,791.3553,678.93774
1694304674.6990001,803.0403,783.2967,799.011,797.3993,940.0366
1694304674.6990001,806.26373,786.1172,799.81683,804.65204,1029.4872
1694304674.7,803.44324,788.5348,801.02563,799.41394,753.0769
1694304674.701,799.41394,788.1319,796.5934,797.3993,695.4579
1694304674.701,805.4579,789.34064,795.38464,810.293,762.3443
1694304674.7020001,807.8755,791.3553,798.20514,808.68134,767.5824
1694304674.755,803.8461,790.9524,798.20514,801.4286,724.4689
1694304674.756,799.81683,788.93774,798.20514,800.2198,727.28937
1694304674.757,799.41394,792.96704,796.5934,790.54944,709.9634
1694304674.7580001,801.4286,789.7436,792.5641,793.36993,665.2381
1694304674.759,808.2784,788.1319,789.34064,802.23444,645.89746
1694304674.759,812.3077,791.75824,792.96704,805.4579,842.9304
1694304674.764,801.8315,792.1612,796.99634,807.0696,1062.9304
1694304674.766,795.78754,792.5641,795.78754,804.2491,815.9341
1694304674.766,799.011,790.54944,797.8022,795.78754,606.0073
1694304674.767,799.81683,788.5348,799.81683,794.57874,797.8022
1694304674.768,804.65204,788.5348,797.3993,800.2198,901.75824
1694304674.769,804.65204,788.93774,796.5934,796.99634,821.5751
1694304674.82,801.8315,791.3553,795.38464,792.1612,684.9817
1694304674.8209999,799.011,786.9231,797.3993,797.3993,746.2271
1694304674.8209999,813.5165,785.7143,801.4286,817.1429,942.8571
1694304674.822,813.1135,795.38464,793.36993,814.7253,772.8205
1694304674.823,799.011,800.6227,790.14655,801.4286,706.337
1694304674.824,807.0696,801.8315,792.5641,807.0696,802.6374
1694304674.825,815.9341,800.2198,787.72894,812.3077,828.022
1694304674.825,817.5458,790.9524,792.5641,814.3223,781.28204
1694304674.826,809.4872,784.10254,795.78754,811.0989,710.3663
1694304674.8270001,803.0403,783.69965,792.1612,808.2784,900.54944
1694304674.8270001,798.20514,786.52014,788.1319,804.65204,928.3516
1694304674.828,799.81683,789.34064,791.75824,804.65204,618.0952
1694304674.835,805.8608,787.72894,799.81683,813.1135,714.7985
1694304674.835,803.8461,786.9231,796.1905,804.2491,909.81683
1694304674.836,802.23444,789.34064,790.9524,801.02563,822.381
1694304674.837,801.02563,787.326,792.5641,809.0842,724.0659
1694304674.837,801.4286,791.3553,794.9817,807.0696,730.10986
1694304674.838,808.68134,799.011,795.38464,806.26373,840.5128
1694304674.838,807.47253,799.41394,794.9817,814.3223,818.3516
1694304674.839,807.47253,799.81683,792.96704,815.9341,734.5421
1694304674.8430002,805.05493,797.8022,794.57874,808.68134,819.15753
1694304674.844,802.23444,792.1612,794.9817,805.05493,937.619
1694304674.844,808.2784,794.9817,795.38464,799.41394,749.45056
1694304674.845,817.5458,801.02563,797.8022,801.4286,612.8571
1694304674.88,819.9634,799.81683,798.20514,816.337,820.3663
1694304674.881,813.91943,797.8022,799.011,817.9487,912.6374
1694304674.882,803.0403,798.60803,797.8022,807.0696,674.90845
1694304674.884,800.6227,797.3993,798.60803,801.02563,627.76556
1694304674.885,810.293,798.20514,800.2198,802.23444,789.34064
1694304674.885,817.5458,800.2198,799.011,806.6667,864.68866
1694304674.8860002,808.2784,800.6227,796.99634,802.6374,809.89014
1694304674.887,792.96704,799.011,796.1905,791.75824,680.54944
1694304674.888,792.1612,794.9817,796.99634,790.14655,856.2271
1694304674.8899999,794.57874,795.38464,792.96704,798.60803,1003.69965
1694304674.891,799.011,797.8022,794.57874,805.05493,726.4835
1694304674.892,799.011,795.78754,799.011,810.293,694.65204
1694304674.944,788.5348,792.5641,795.38464,798.60803,687.3993
1694304674.945,791.3553,792.96704,794.57874,790.14655,619.304
1694304674.9459999,801.4286,793.36993,798.60803,797.8022,651.53845
1694304674.947,803.8461,793.36993,797.3993,806.6667,709.5604
1694304674.947,798.60803,790.9524,802.6374,815.9341,756.30035
1694304674.948,793.36993,790.54944,802.6374,813.1135,801.02563
1694304674.949,796.5934,794.57874,796.1905,811.0989,782.49084
1694304674.949,802.23444,794.57874,796.5934,807.8755,849.7802
1694304674.95,805.8608,793.36993,797.3993,806.6667,1145.5311
1694304674.951,801.4286,792.96704,794.17584,803.0403,1007.326
1694304674.9550002,800.6227,796.99634,792.96704,790.54944,678.93774
1694304674.956,805.8608,793.36993,795.78754,792.1612,784.5055
1694304674.997,809.89014,792.96704,793.36993,796.99634,829.6337
1694304674.999,810.293,796.99634,793.36993,794.9817,737.3626
1694304674.999,801.8315,797.3993,798.20514,799.81683,718.4249
1694304675.0,798.20514,801.02563,800.2198,805.05493,773.22345
1694304675.001,803.0403,801.02563,795.38464,805.4579,751.06226
1694304675.0019999,805.05493,795.78754,793.7729,803.0403,702.71063
1694304675.0019999,809.89014,797.8022,793.36993,805.05493,764.35895
1694304675.003,805.4579,792.5641,793.7729,807.47253,993.22345
1694304675.004,796.1905,787.72894,796.99634,806.26373,1042.381
1694304675.004,800.6227,792.96704,798.20514,796.99634,688.20514
1694304675.0049999,802.23444,793.36993,796.5934,790.54944,629.7802
1694304675.006,804.65204,793.36993,796.5934,796.1905,771.2088
1694304675.016,811.9048,794.9817,794.57874,800.2198,770.40295
1694304675.017,809.89014,798.20514,796.99634,801.8315,685.38464
1694304675.018,798.20514,801.8315,800.2198,797.3993,654.35895
1694304675.019,796.5934,802.23444,795.38464,795.78754,701.9048
1694304675.019,802.23444,801.02563,790.54944,789.34064,745.0183
1694304675.02,801.02563,799.41394,790.54944,786.52014,785.7143
1694304675.021,792.96704,794.9817,790.9524,796.1905,900.54944
1694304675.021,784.90845,792.1612,790.9524,800.6227,1005.7143
1694304675.022,784.10254,794.9817,790.9524,795.78754,853.00366
1694304675.023,799.81683,799.41394,794.17584,794.57874,742.1978
1694304675.0249999,814.7253,805.05493,797.3993,802.23444,823.5897
1694304675.0259998,820.7692,805.4579,795.38464,812.71063,805.05493
1694304675.0860002,803.44324,794.57874,807.0696,805.8608,731.31866
1694304675.0870001,781.28204,784.90845,811.50183,786.9231,635.42126
1694304675.088,794.9817,781.28204,802.6374,804.65204,858.24176
1694304675.089,799.81683,787.72894,799.41394,808.2784,1058.9011
1694304675.09,789.7436,795.78754,796.99634,785.7143,780.87915
1694304675.091,783.2967,794.9817,793.7729,782.0879,663.6264
1694304675.092,789.7436,800.6227,791.3553,793.7729,906.99634
1694304675.093,805.4579,802.23444,791.75824,798.60803,973.47986
1694304675.094,807.0696,796.1905,792.96704,784.5055,694.65204
1694304675.095,797.3993,792.96704,790.9524,780.07324,696.26373
1694304675.096,797.8022,792.96704,788.93774,792.1612,721.2454
1694304675.096,805.4579,795.38464,792.5641,790.9524,673.2967
1694304675.136,811.0989,797.8022,799.011,791.3553,678.93774
1694304675.1369998,810.293,801.4286,800.2198,807.8755,775.2381
1694304675.1379998,801.8315,795.78754,794.17584,806.6667,836.8865
1694304675.1379998,794.17584,791.75824,790.14655,797.3993,720.0366
1694304675.1390002,796.99634,795.38464,793.36993,792.1612,600.7692
1694304675.14,807.47253,795.78754,799.011,790.9524,811.0989
1694304675.141,806.26373,790.9524,798.20514,790.14655,1025.4579
1694304675.141,799.011,791.3553,789.7436,792.1612,848.97437
1694304675.1420002,788.1319,796.5934,785.31134,792.5641,661.6117
1694304675.1430001,792.96704,799.81683,790.14655,797.3993,723.2601
1694304675.1430001,802.23444,800.2198,794.57874,802.6374,830.4396
1694304675.144,806.6667,799.41394,796.5934,797.3993,813.5165
1694304675.146,805.4579,799.41394,799.81683,801.02563,803.44324
1694304675.147,796.1905,794.17584,802.23444,807.47253,893.2967
1694304675.152,792.1612,788.1319,802.23444,809.89014,985.16486
1694304675.1529999,796.5934,790.9524,800.6227,811.0989,765.9707
1694304675.1539998,804.65204,794.57874,799.41394,793.36993,743.00366
1694304675.1539998,804.2491,791.75824,801.02563,796.99634,1044.3956
1694304675.155,797.8022,789.34064,802.23444,814.3223,1046.0073
1694304675.155,795.38464,793.7729,801.02563,804.2491,640.65936
1694304675.156,798.60803,794.57874,799.81683,800.2198,572.96704
1694304675.1569998,803.44324,793.7729,798.20514,809.0842,722.8571
1694304675.1580002,802.6374,792.1612,805.05493,814.7253,769.59705
1694304675.1590002,802.23444,791.3553,804.2491,804.2491,693.8461
1694304675.192,802.23444,792.1612,798.60803,797.8022,655.16486
1694304675.1929998,802.6374,793.36993,798.60803,800.6227,704.7253
1694304675.1939998,805.05493,794.17584,796.99634,805.4579,715.6044
1694304675.1950002,809.0842,793.7729,794.57874,810.293,722.4542
1694304675.196,803.8461,794.57874,796.5934,803.8461,751.06226
1694304675.197,796.5934,792.5641,796.5934,792.5641,771.2088
1694304675.197,800.2198,795.78754,797.3993,795.78754,738.1685
1694304675.1980002,802.23444,799.81683,801.8315,796.1905,729.304
1694304675.1980002,806.26373,796.1905,799.81683,801.4286,800.6227
1694304675.1990001,801.02563,792.1612,799.011,811.9048,1063.7362
1694304675.1990001,796.5934,793.36993,798.60803,802.6374,929.15753
1694304675.2,796.99634,792.96704,797.3993,796.99634,644.2857
1694304675.223,806.26373,796.99634,801.4286,812.3077,875.56775
1694304675.224,816.337,797.8022,803.44324,819.9634,926.337
1694304675.225,806.6667,793.7729,800.6227,809.89014,716.8132
1694304675.2259998,799.81683,794.17584,796.99634,800.2198,662.4176
1694304675.23,799.41394,791.3553,798.20514,796.99634,682.1612
1694304675.231,794.17584,789.7436,797.8022,801.4286,755.4945
1694304675.232,787.326,789.34064,796.99634,803.0403,817.1429
1694304675.232,788.1319,787.326,797.8022,796.5934,739.3773
1694304675.233,786.52014,789.7436,797.8022,793.36993,854.61536
1694304675.234,790.54944,790.54944,796.5934,799.41394,950.5128
1694304675.2350001,794.57874,791.3553,796.99634,803.8461,749.85345
1694304675.236,790.14655,792.1612,800.6227,805.8608,733.73627
1694304675.295,788.93774,792.5641,795.78754,800.6227,793.36993
1694304675.2979999,792.1612,796.1905,793.7729,796.5934,725.6777
1694304675.299,799.41394,797.3993,794.57874,791.3553,612.8571
1694304675.3,804.65204,796.5934,794.17584,794.9817,672.8938
1694304675.3009999,802.23444,796.1905,793.36993,806.26373,751.8681
1694304675.3009999,803.44324,795.78754,792.1612,805.8608,805.05493
1694304675.302,810.696,803.0403,790.9524,806.26373,818.7546
1694304675.302,801.02563,801.8315,791.3553,799.41394,784.90845
1694304675.303,775.2381,787.72894,803.0403,788.5348,955.34796
1694304675.304,786.9231,783.69965,811.9048,802.6374,869.12085
1694304675.304,812.3077,785.31134,811.50183,811.50183,721.2454
1694304675.3049998,808.2784,787.72894,800.2198,807.8755,919.4872
1694304675.353,796.1905,788.93774,795.38464,798.60803,923.5165
1694304675.3539999,796.5934,791.3553,796.1905,796.99634,736.55676
1694304675.355,799.81683,798.20514,793.36993,799.41394,684.17584
1694304675.356,794.9817,799.41394,792.1612,796.1905,840.5128
1694304675.356,790.14655,800.2198,790.54944,800.2198,929.15753
1694304675.3569999,788.5348,799.011,793.7729,802.6374,776.8498
1694304675.362,785.7143,798.20514,798.60803,809.89014,746.2271
1694304675.362,796.1905,799.41394,800.6227,820.3663,915.05493
1694304675.3630002,802.23444,796.5934,794.9817,813.91943,914.65204
1694304675.364,796.1905,796.99634,787.326,806.6667,730.9158
1694304675.364,793.36993,801.4286,784.5055,794.17584,639.85345
1694304675.365,791.3553,799.011,787.72894,786.1172,820.3663
1694304675.423,799.011,797.3993,792.96704,780.07324,906.1905
1694304675.425,805.4579,802.23444,788.93774,780.4762,702.3077
1694304675.425,790.54944,800.2198,785.7143,788.93774,753.47986
1694304675.4259999,781.28204,799.41394,788.93774,784.10254,806.6667
1694304675.427,801.02563,806.26373,787.72894,793.36993,729.304
1694304675.427,805.4579,800.2198,789.34064,802.6374,806.26373
1694304675.428,785.31134,792.5641,796.1905,783.69965,919.89014
1694304675.428,790.14655,789.7436,796.5934,793.36993,1167.6923
1694304675.429,797.8022,786.1172,798.20514,807.8755,994.43225
1694304675.43,795.78754,792.5641,793.7729,791.3553,638.24176
1694304675.431,798.20514,794.17584,789.7436,795.38464,725.2747
1694304675.432,797.8022,793.36993,791.75824,799.41394,782.8938
1694304675.459,797.8022,794.9817,792.1612,797.8022,727.28937
1694304675.46,796.99634,796.99634,791.3553,799.011,666.04395
1694304675.461,800.6227,801.4286,789.7436,803.8461,798.20514
1694304675.4620001,801.02563,802.6374,797.8022,806.6667,906.1905
1694304675.4620001,797.8022,796.1905,798.20514,792.5641,788.1319
1694304675.463,801.02563,790.54944,788.93774,792.96704,738.1685
1694304675.463,796.5934,793.7729,786.1172,799.011,1028.6813
1694304675.464,790.54944,794.57874,789.34064,803.0403,1116.5201
1694304675.468,795.38464,794.17584,790.54944,800.6227,736.9597
1694304675.4689999,812.3077,801.4286,790.54944,793.7729,690.6227
1694304675.47,818.7546,800.6227,792.96704,792.96704,813.91943
1694304675.47,800.2198,794.17584,792.96704,788.1319,736.55676
1694304675.4780002,791.75824,789.7436,791.75824,782.49084,588.68134
1694304675.479,802.23444,794.17584,793.36993,788.1319,662.01465
1694304675.48,807.47253,800.6227,793.36993,788.1319,720.4396
1694304675.481,810.293,800.6227,793.7729,793.36993,691.4286
1694304675.481,810.696,796.5934,796.99634,799.41394,667.6557
1694304675.4819999,804.2491,795.38464,793.7729,795.78754,690.6227
1694304675.4819999,805.4579,795.78754,794.17584,804.65204,763.5531
1694304675.483,812.71063,793.7729,796.99634,819.5604,748.6447
1694304675.483,814.3223,796.5934,797.3993,813.1135,715.6044
1694304675.484,811.50183,797.8022,802.23444,809.89014,812.3077
1694304675.484,803.44324,793.36993,797.8022,818.3516,1082.2711
1694304675.485,801.4286,791.3553,793.7729,811.0989,994.83514
1694304675.507,809.89014,795.38464,793.7729,805.4579,724.0659
1694304675.507,805.8608,791.75824,793.36993,813.1135,848.5714
1694304675.508,807.8755,786.52014,799.41394,823.1868,925.12823
1694304675.5089998,805.8608,792.1612,796.1905,814.3223,689.011
1694304675.5100002,795.38464,799.41394,786.9231,794.17584,638.6447
1694304675.5100002,801.02563,801.4286,786.9231,794.57874,792.96704
1694304675.5110002,795.78754,794.57874,794.57874,794.9817,882.01465
1694304675.5110002,793.7729,790.14655,799.011,789.7436,776.4469
1694304675.512,794.17584,795.38464,798.60803,791.3553,622.9304
1694304675.512,792.5641,796.5934,796.1905,798.20514,811.50183
1694304675.516,799.81683,794.17584,792.1612,798.20514,955.7509
1694304675.516,803.0403,799.41394,792.96704,789.7436,754.68866
1694304675.543,801.8315,805.05493,796.5934,790.14655,713.9927
1694304675.544,796.5934,798.20514,795.38464,797.3993,810.293
1694304675.544,790.9524,791.3553,792.96704,790.14655,761.9414
1694304675.5449998,793.7729,792.96704,792.1612,790.14655,697.8755
1694304675.5449998,797.8022,794.57874,795.38464,801.8315,763.95605
1694304675.5459998,798.20514,794.17584,799.81683,810.696,830.0366
1694304675.5459998,796.5934,794.57874,801.8315,812.3077,844.5421
1694304675.5470002,797.3993,793.36993,803.0403,806.26373,728.9011
1694304675.5470002,804.65204,790.9524,801.4286,812.71063,786.9231
1694304675.548,809.89014,788.93774,800.2198,819.5604,1039.5604
1694304675.548,800.2198,787.72894,805.05493,804.2491,904.17584
1694304675.549,790.54944,790.54944,802.23444,794.57874,691.8315
1694304675.6339998,791.75824,792.1612,797.8022,799.81683,804.2491
1694304675.635,795.38464,793.7729,797.3993,807.47253,1006.52014
1694304675.636,798.20514,794.57874,799.41394,811.0989,814.3223
1694304675.6369998,803.0403,793.7729,805.05493,811.0989,695.05493
1694304675.6369998,800.2198,794.9817,800.6227,801.02563,765.9707
1694304675.638,790.9524,796.5934,793.7729,792.5641,751.4652
1694304675.6390002,801.02563,797.3993,794.17584,791.3553,726.8865
1694304675.6390002,811.50183,801.02563,799.011,800.2198,711.1722
1694304675.64,813.5165,804.65204,799.81683,811.50183,926.337
1694304675.641,806.26373,804.2491,797.8022,794.17584,1001.28204
1694304675.642,803.0403,804.2491,797.8022,783.2967,672.0879
1694304675.6430001,804.65204,801.8315,796.5934,790.14655,644.2857
1694304675.6790001,805.8608,799.011,790.14655,793.7729,725.6777
1694304675.68,813.91943,800.6227,788.93774,799.011,734.94507
1694304675.681,810.696,804.65204,792.1612,796.5934,720.4396
1694304675.681,802.23444,805.4579,794.9817,793.7729,716.8132
1694304675.682,802.23444,801.8315,790.54944,797.8022,747.8388
1694304675.682,799.81683,795.78754,785.31134,794.9817,814.7253
1694304675.683,794.57874,794.9817,787.326,789.34064,808.68134
1694304675.684,793.36993,793.7729,790.14655,791.3553,813.1135
1694304675.684,791.75824,794.17584,792.1612,796.5934,1040.7693
1694304675.685,792.96704,799.011,790.54944,792.5641,865.89746
1694304675.686,801.02563,799.81683,790.9524,791.3553,630.18317
1694304675.687,804.2491,801.02563,796.1905,811.9048,846.9597
1694304675.717,797.3993,803.0403,797.3993,807.0696,925.9341
1694304675.7180002,794.17584,803.8461,791.3553,789.7436,730.9158
1694304675.719,795.78754,800.2198,790.9524,793.7729,649.12085
1694304675.72,798.20514,796.5934,786.52014,801.4286,790.9524
1694304675.721,803.0403,795.78754,786.52014,806.6667,891.685
1694304675.722,796.5934,793.36993,790.14655,799.81683,856.63007
1694304675.723,785.7143,791.75824,790.9524,785.31134,732.52747
1694304675.724,789.34064,796.1905,790.9524,780.07324,716.4103
1694304675.726,803.8461,800.2198,793.36993,787.326,744.21246
1694304675.727,814.7253,799.81683,792.5641,792.96704,727.28937
1694304675.7289999,807.47253,800.6227,790.9524,797.8022,726.8865
1694304675.731,794.17584,801.4286,793.36993,809.0842,923.1135
1694304675.76,793.36993,802.23444,793.36993,803.44324,999.2674
1694304675.761,799.011,805.4579,790.54944,795.78754,695.4579
1694304675.764,805.4579,804.65204,789.34064,799.81683,672.8938
1694304675.7649999,806.6667,803.44324,791.3553,807.0696,759.92676
1694304675.766,798.60803,802.23444,790.14655,806.26373,696.6667
1694304675.766,794.9817,800.2198,789.34064,791.3553,631.39197
1694304675.766,799.81683,803.44324,788.5348,796.1905,817.5458
1694304675.767,802.23444,806.6667,790.9524,811.50183,1031.5018
1694304675.767,810.293,804.65204,796.5934,822.381,908.60803
1694304675.768,809.0842,803.8461,798.20514,819.9634,729.304
1694304675.768,801.4286,802.6374,796.1905,802.23444,747.8388
1694304675.769,811.0989,805.05493,794.57874,803.8461,858.24176
1694304675.798,819.15753,806.26373,792.5641,813.5165,803.44324
1694304675.799,815.5311,803.8461,792.5641,817.5458,712.7839
1694304675.8,807.0696,802.6374,793.36993,814.3223,882.8205
1694304675.8,800.6227,800.2198,794.57874,801.4286,889.67035
1694304675.8009999,805.8608,801.02563,788.1319,792.1612,657.5824
1694304675.8009999,826.4103,807.8755,787.326,802.23444,686.5934
1694304675.8019998,820.3663,799.011,797.3993,803.8461,973.8828
1694304675.8019998,787.72894,791.75824,800.6227,792.5641,1091.5385
1694304675.803,792.96704,795.78754,801.4286,799.011,722.8571
1694304675.803,815.12823,792.1612,806.26373,816.7399,594.3223
1694304675.804,813.91943,798.60803,800.2198,815.9341,706.7399
1694304675.804,809.0842,805.05493,790.54944,804.2491,776.8498
1694304675.865,804.65204,803.8461,791.75824,807.47253,774.83514
1694304675.866,801.02563,800.6227,791.3553,809.4872,712.381
1694304675.867,800.6227,800.2198,794.57874,799.81683,699.89014
1694304675.868,808.68134,802.23444,798.20514,805.4579,714.7985
1694304675.873,814.3223,803.44324,794.17584,818.7546,705.12823
1694304675.8739998,812.71063,801.4286,793.7729,824.3956,811.9048
1694304675.8739998,803.8461,796.99634,792.5641,817.1429,970.2564
1694304675.875,797.8022,796.5934,794.9817,800.2198,790.14655
1694304675.875,799.41394,797.3993,795.38464,798.20514,651.9414
1694304675.876,796.1905,796.1905,786.1172,798.60803,752.674
1694304675.876,798.20514,793.7729,782.49084,798.20514,811.9048
1694304675.8769999,794.9817,794.9817,787.72894,802.6374,801.4286
1694304675.901,785.31134,792.5641,785.7143,796.1905,724.87177
1694304675.9020002,785.31134,787.326,785.7143,795.78754,822.7839
1694304675.9020002,792.96704,785.7143,790.9524,811.50183,991.6117
1694304675.903,800.2198,786.9231,790.54944,803.8461,874.35895
1694304675.903,798.60803,791.3553,789.34064,794.17584,740.58606
1694304675.904,798.20514,794.9817,792.5641,799.41394,926.7399
1694304675.905,802.6374,798.20514,794.17584,802.6374,1090.7325
1694304675.905,802.6374,797.8022,793.36993,803.0403,805.8608
1694304675.906,801.02563,794.57874,793.7729,808.68134,725.6777
1694304675.906,803.44324,799.011,795.38464,815.12823,796.1905
1694304675.907,800.2198,801.4286,795.38464,804.65204,733.3333
1694304675.907,796.99634,799.41394,796.1905,796.5934,624.94507
1694304675.951,804.2491,797.8022,798.60803,809.4872,692.23444
1694304675.952,803.8461,795.78754,795.38464,814.7253,858.6447
1694304675.9529998,808.2784,794.9817,790.9524,811.0989,828.4249
1694304675.9539998,809.89014,798.20514,789.34064,803.44324,664.0293
1694304675.9550002,801.8315,799.41394,789.7436,796.99634,698.2784
1694304675.956,799.41394,801.4286,790.9524,809.0842,836.08057
1694304675.962,805.05493,800.2198,789.7436,810.696,834.0659
1694304675.962,805.4579,796.99634,789.34064,803.8461,780.87915
1694304675.963,797.3993,796.99634,790.9524,801.02563,762.3443
1694304675.964,797.8022,800.2198,794.17584,804.2491,1014.9817
1694304675.965,796.5934,796.1905,792.5641,803.0403,966.63007
1694304675.966,798.60803,794.17584,791.3553,799.41394,734.1392
1694304676.015,798.60803,798.20514,796.1905,796.99634,897.326
1694304676.017,792.1612,796.5934,794.9817,794.9817,900.54944
1694304676.017,795.38464,797.3993,792.96704,798.60803,652.3443
1694304676.018,799.41394,801.02563,791.3553,795.78754,676.52014
1694304676.019,809.0842,803.8461,786.52014,800.6227,772.4176
1694304676.02,815.5311,803.44324,785.31134,812.71063,776.4469
1694304676.021,804.2491,799.41394,792.5641,800.2198,745.42126
1694304676.021,794.9817,797.3993,794.9817,787.326,648.315
1694304676.022,800.6227,796.5934,795.38464,807.8755,883.6264
1694304676.023,812.71063,801.4286,798.20514,828.022,1102.4176
1694304676.023,815.12823,804.2491,793.7729,821.1722,844.5421
1694304676.024,806.26373,802.23444,792.96704,811.50183,713.1868
1694304676.056,809.0842,801.8315,793.7729,808.2784,689.011
1694304676.057,813.1135,798.60803,795.38464,805.4579,649.92676
1694304676.0579998,809.4872,796.99634,794.57874,812.71063,672.0879
1694304676.0579998,806.26373,796.99634,799.81683,814.3223,728.9011
1694304676.059,805.05493,800.2198,805.4579,803.8461,703.1135
1694304676.06,808.2784,805.05493,798.20514,795.78754,672.49084
1694304676.0609999,809.0842,802.23444,795.38464,794.17584,689.41394
1694304676.062,806.26373,801.02563,792.1612,801.02563,739.3773
1694304676.066,805.8608,799.41394,793.7729,817.5458,1016.99634
1694304676.0670002,801.02563,797.8022,793.36993,817.9487,942.4542
1694304676.0670002,799.011,799.41394,790.9524,800.2198,642.674
1694304676.068,806.26373,799.81683,792.5641,801.02563,809.89014
1694304676.093,804.2491,796.99634,792.1612,802.6374,975.89746
1694304676.094,804.65204,799.011,795.38464,798.20514,807.47253
1694304676.095,809.0842,802.6374,800.2198,804.65204,726.8865
1694304676.097,807.47253,802.23444,798.60803,807.8755,803.44324
1694304676.0979998,806.26373,801.8315,794.9817,803.44324,832.4542
1694304676.0979998,807.0696,799.41394,791.3553,797.8022,774.83514
1694304676.099,811.50183,800.2198,789.34064,796.99634,816.7399
1694304676.1,813.5165,800.6227,796.5934,808.2784,972.674
1694304676.1,794.17584,794.17584,802.6374,795.78754,966.63007
1694304676.1020002,791.3553,790.9524,800.6227,791.3553,661.6117
1694304676.1030002,811.50183,786.9231,802.23444,809.89014,686.99634
1694304676.1030002,809.89014,791.3553,797.3993,807.8755,752.27106
1694304676.16,808.2784,798.20514,790.9524,809.89014,744.21246
1694304676.161,801.8315,796.99634,793.7729,799.81683,674.10254
1694304676.162,803.0403,795.38464,796.99634,788.1319,653.5531
1694304676.162,809.4872,793.36993,794.17584,797.3993,817.1429
1694304676.163,806.26373,792.1612,795.78754,806.26373,839.304
1694304676.164,804.2491,792.96704,796.1905,809.0842,785.7143
1694304676.164,806.6667,792.96704,792.96704,801.4286,820.3663
1694304676.165,811.9048,793.36993,794.17584,792.1612,817.5458
1694304676.1660001,810.696,798.20514,796.5934,795.78754,722.8571
1694304676.1660001,806.26373,798.20514,798.20514,796.1905,698.68134
1694304676.1699998,803.0403,794.17584,792.96704,801.8315,836.8865
1694304676.171,797.3993,794.17584,790.9524,805.8608,1108.4615
1694304676.1939998,801.02563,802.6374,792.1612,789.34064,915.4579
1694304676.1950002,808.68134,803.8461,796.1905,804.2491,691.8315
1694304676.196,811.50183,799.81683,798.20514,814.3223,875.9707
1694304676.197,806.6667,796.5934,798.60803,801.4286,953.73627
1694304676.197,792.96704,794.57874,799.41394,790.14655,758.315
1694304676.1980002,791.75824,794.9817,796.5934,780.4762,632.1978
1694304676.1990001,801.8315,793.36993,796.5934,794.9817,922.3077
1694304676.1990001,801.02563,797.8022,794.57874,803.0403,1101.2087
1694304676.2,801.02563,800.2198,790.54944,800.2198,821.978
1694304676.201,801.4286,797.8022,790.54944,804.2491,662.4176
1694304676.201,793.36993,794.57874,789.34064,793.36993,673.2967
1694304676.202,795.38464,794.17584,790.54944,786.9231,687.8022
1694304676.2489998,805.8608,795.78754,795.78754,794.57874,679.7436
1694304676.2499998,803.44324,795.38464,792.5641,804.65204,759.12085
1694304676.2510002,796.1905,800.2198,787.326,809.4872,781.28204
1694304676.252,789.34064,801.8315,794.9817,799.011,685.38464
1694304676.253,797.8022,799.41394,797.8022,798.60803,636.2271
1694304676.2540002,803.0403,797.8022,791.75824,810.293,768.7912
1694304676.255,803.44324,797.3993,792.96704,810.293,991.6117
1694304676.256,803.8461,793.7729,794.57874,804.2491,922.71063
1694304676.257,794.17584,792.1612,793.7729,789.7436,682.5641
1694304676.258,801.4286,795.78754,794.9817,787.72894,724.87177
1694304676.259,812.3077,796.99634,801.8315,806.6667,894.5055
1694304676.259,811.0989,798.60803,802.6374,813.5165,813.5165
1694304676.316,808.2784,799.41394,800.2198,810.293,710.3663
1694304676.317,805.05493,801.8315,803.0403,807.0696,799.011
1694304676.318,802.6374,800.2198,802.23444,807.47253,983.95605
1694304676.319,809.4872,798.60803,800.2198,797.3993,809.4872
1694304676.32,810.696,798.20514,797.3993,796.99634,674.10254
1694304676.32,800.2198,796.1905,798.20514,805.4579,797.8022
1694304676.3209999,795.78754,793.7729,799.41394,805.4579,802.6374
1694304676.3219998,798.60803,792.96704,796.1905,802.23444,643.0769
1694304676.323,799.81683,793.7729,797.8022,803.8461,645.09155
1694304676.324,803.0403,798.20514,799.41394,815.5311,956.55676
1694304676.325,804.2491,802.6374,796.1905,811.0989,1052.4542
1694304676.3260002,801.8315,805.05493,792.96704,784.5055,705.12823
1694304676.36,802.23444,806.6667,794.9817,781.685,628.1685
1694304676.3609998,804.2491,803.44324,797.3993,797.3993,733.73627
1694304676.362,801.8315,800.2198,792.5641,798.60803,764.7619
1694304676.3630002,794.9817,798.60803,788.93774,795.78754,780.87915
1694304676.3630002,797.3993,798.20514,789.7436,787.326,808.2784
1694304676.364,802.23444,799.41394,789.34064,781.685,803.44324
1694304676.364,800.2198,800.6227,788.1319,788.93774,747.8388
1694304676.365,808.2784,804.2491,790.9524,797.8022,695.05493
1694304676.365,814.3223,803.8461,797.3993,806.26373,786.9231
1694304676.3660002,807.8755,802.6374,797.8022,807.47253,971.8681
1694304676.367,805.4579,809.4872,792.96704,804.2491,788.1319
1694304676.367,811.9048,808.2784,795.78754,800.2198,629.3773
1694304676.368,815.5311,803.0403,797.8022,801.8315,908.20514
1694304676.369,810.696,799.011,797.3993,814.3223,1133.4432
1694304676.373,803.8461,800.2198,797.3993,804.65204,838.49817
1694304676.373,801.8315,800.6227,794.57874,793.36993,635.42126
1694304676.374,799.011,798.20514,796.1905,796.99634,683.7729
1694304676.374,804.2491,800.6227,801.4286,805.8608,777.25275
1694304676.375,805.05493,799.011,802.6374,808.2784,814.7253
1694304676.376,797.3993,794.9817,799.81683,801.02563,713.5897
1694304676.3769999,798.20514,795.38464,796.1905,805.4579,868.315
1694304676.3769999,801.4286,795.78754,795.78754,809.89014,938.4249
1694304676.3779998,806.6667,793.7729,797.8022,804.2491,715.2015
1694304676.3779998,810.696,794.57874,797.8022,812.3077,750.2564
1694304676.443,802.6374,795.78754,794.17584,812.3077,774.83514
1694304676.445,798.20514,796.99634,793.7729,791.3553,711.1722
1694304676.445,805.8608,798.60803,795.78754,778.46155,701.9048
1694304676.446,809.89014,798.20514,794.17584,792.1612,781.685
1694304676.447,807.0696,795.78754,792.5641,809.0842,901.3553
1694304676.447,796.1905,791.3553,793.36993,794.57874,812.3077
1694304676.448,794.17584,793.36993,790.14655,781.28204,653.95605
1694304676.448,796.5934,794.17584,788.5348,789.7436,703.1135
1694304676.449,798.60803,790.54944,790.54944,804.65204,961.79486
1694304676.4499998,803.0403,791.75824,791.75824,813.5165,901.3553
1694304676.451,801.8315,797.3993,796.5934,808.68134,706.7399
1694304676.452,799.81683,798.60803,797.3993,806.26373,797.3993
1694304676.48,802.23444,797.3993,796.1905,807.47253,822.381
1694304676.481,800.2198,794.9817,793.36993,799.81683,708.3516
1694304676.4819999,801.4286,793.36993,793.7729,798.60803,696.26373
1694304676.483,805.4579,796.99634,796.1905,804.2491,887.6557
1694304676.488,798.60803,801.8315,797.3993,801.4286,923.5165
1694304676.488,798.60803,801.8315,799.81683,795.78754,731.7216
1694304676.4889998,804.65204,795.78754,798.20514,793.7729,723.2601
1694304676.4889998,806.6667,796.5934,796.99634,801.4286,913.44324
1694304676.4899998,803.8461,798.60803,797.3993,815.12823,1073.8096
1694304676.4899998,796.1905,797.3993,798.60803,808.2784,750.2564
1694304676.4910002,796.1905,795.78754,794.17584,795.78754,568.5348
1694304676.492,797.8022,795.38464,792.96704,797.8022,677.72894
1694304676.533,798.20514,799.41394,793.36993,799.81683,735.7509
1694304676.5340002,798.20514,801.4286,790.54944,789.7436,728.0952
1694304676.535,793.7729,801.02563,794.57874,793.7729,696.6667
1694304676.535,786.52014,797.3993,794.17584,788.5348,684.17584
1694304676.536,782.0879,796.99634,789.34064,779.2674,698.68134
1694304676.537,788.93774,803.44324,787.72894,794.17584,726.4835
1694304676.5379999,795.38464,801.4286,789.7436,810.293,822.7839
1694304676.5379999,791.3553,796.1905,790.54944,817.9487,1164.0659
1694304676.539,788.5348,796.99634,790.14655,803.8461,1031.0989
1694304676.54,794.57874,796.5934,794.9817,794.57874,666.8498
1694304676.54,796.1905,795.78754,798.60803,800.6227,745.0183
1694304676.541,796.5934,797.8022,797.8022,807.8755,844.5421
1694304676.58,796.1905,799.81683,795.38464,809.89014,777.25275
1694304676.5809999,796.99634,802.23444,794.9817,795.38464,656.3736
1694304676.582,808.2784,802.23444,799.011,812.71063,835.6777
1694304676.5830002,806.26373,795.78754,805.8608,819.15753,932.7839
1694304676.586,794.57874,790.54944,807.0696,801.4286,772.4176
1694304676.5870001,792.1612,786.52014,805.05493,792.96704,764.35895
1694304676.593,793.7729,786.9231,807.8755,801.4286,924.3223
1694304676.5939999,788.93774,792.5641,804.2491,803.8461,940.4396
1694304676.595,786.1172,794.57874,795.38464,788.93774,689.41394
1694304676.596,796.99634,799.011,791.75824,799.011,686.99634
1694304676.597,792.1612,803.0403,793.36993,806.26373,909.011
1694304676.597,790.14655,803.44324,793.36993,793.7729,846.9597
1694304676.6339998,795.78754,799.81683,790.54944,790.14655,641.8681
1694304676.635,793.7729,795.78754,791.75824,796.99634,691.4286
1694304676.636,790.54944,791.75824,791.75824,796.5934,751.8681
1694304676.6369998,788.93774,789.34064,792.5641,794.57874,767.5824
1694304676.6369998,786.52014,790.54944,792.96704,788.1319,678.93774
1694304676.638,790.14655,792.1612,790.14655,788.5348,769.19415
1694304676.638,802.6374,794.9817,789.34064,794.57874,990.80585
1694304676.6390002,809.0842,796.1905,789.7436,799.011,848.1685
1694304676.64,802.23444,792.96704,791.75824,797.3993,713.1868
1694304676.64,797.8022,794.57874,790.54944,789.34064,774.83514
1694304676.641,796.1905,789.7436,785.7143,786.1172,799.011
1694304676.641,796.5934,789.34064,786.9231,790.54944,757.50916
1694304676.6430001,799.81683,798.20514,786.1172,793.36993,725.6777
1694304676.644,799.41394,801.4286,784.10254,794.57874,907.8022
1694304676.644,796.1905,805.05493,787.72894,794.57874,1006.52014
1694304676.645,797.8022,807.47253,789.7436,788.5348,713.1868
1694304676.645,801.4286,800.2198,788.1319,788.1319,611.6484
1694304676.6460001,804.65204,793.36993,784.90845,790.14655,820.7692
1694304676.647,796.99634,789.7436,785.7143,790.54944,932.7839
1694304676.647,786.9231,787.72894,786.9231,791.75824,799.81683
1694304676.651,790.9524,790.14655,785.7143,799.81683,607.2161
1694304676.652,807.0696,796.5934,790.9524,812.3077,831.2454
1694304676.6529999,811.50183,799.81683,791.75824,808.2784,1012.1612
1694304676.6529999,806.26373,794.57874,789.7436,793.36993,755.4945
1694304676.7059999,799.41394,792.5641,791.3553,784.90845,713.1868
1694304676.707,800.2198,794.17584,788.1319,792.1612,717.2161
1694304676.708,804.2491,796.5934,787.326,791.3553,703.5165
1694304676.7089999,804.2491,799.011,790.54944,783.2967,686.99634
1694304676.71,805.8608,799.011,794.9817,793.7729,783.2967
1694304676.71,801.8315,799.41394,796.1905,796.99634,969.45056
1694304676.711,794.17584,799.41394,796.1905,790.54944,842.1245
1694304676.712,799.011,794.17584,795.38464,784.5055,643.0769
1694304676.712,799.41394,786.52014,791.75824,794.9817,773.22345
1694304676.7129998,795.38464,790.14655,792.1612,811.0989,950.5128
1694304676.714,797.3993,796.5934,792.1612,800.6227,818.7546
1694304676.714,807.8755,802.6374,786.52014,799.81683,674.5055
1694304676.7619998,811.50183,796.99634,794.17584,807.8755,768.7912
1694304676.763,793.7729,786.1172,804.2491,794.17584,891.28204
1694304676.763,795.78754,786.1172,803.8461,798.20514,780.4762
1694304676.764,807.0696,783.2967,804.2491,817.5458,724.4689
1694304676.7649999,798.20514,789.34064,797.3993,808.68134,717.2161
1694304676.766,791.3553,792.1612,797.3993,794.17584,764.35895
1694304676.766,791.75824,788.1319,797.3993,788.93774,797.8022
1694304676.767,794.57874,789.34064,792.1612,789.7436,773.6264
1694304676.768,799.011,789.34064,795.78754,802.6374,971.8681
1694304676.768,790.14655,790.9524,796.99634,809.89014,1057.2894
1694304676.773,790.9524,793.7729,796.1905,805.8608,744.21246
1694304676.773,803.8461,797.8022,803.44324,815.12823,716.8132
1694304676.817,806.26373,797.3993,805.8608,816.7399,826.8132
1694304676.8179998,798.20514,794.17584,799.011,805.05493,800.2198
1694304676.819,792.1612,798.20514,795.78754,801.02563,699.0842
1694304676.82,800.6227,799.41394,797.8022,799.41394,658.3883
1694304676.82,804.2491,796.1905,801.02563,808.2784,756.7033
1694304676.8209999,803.8461,799.011,802.6374,815.5311,888.46155
1694304676.822,803.0403,799.41394,803.0403,809.0842,889.2674
1694304676.822,797.8022,795.78754,802.6374,797.8022,732.1245
1694304676.823,798.60803,793.36993,800.2198,794.9817,1019.81683
1694304676.824,797.8022,795.38464,798.60803,797.3993,1049.2307
1694304676.824,807.0696,797.3993,795.78754,802.6374,680.14655
1694304676.825,812.3077,794.9817,796.5934,807.8755,867.1062
1694304676.8270001,802.23444,797.8022,793.7729,800.2198,928.3516
1694304676.828,803.44324,797.3993,794.9817,796.5934,620.5128
1694304676.829,808.68134,796.5934,796.5934,798.20514,594.3223
1694304676.8300002,806.6667,796.5934,795.38464,798.60803,723.2601
1694304676.8300002,801.4286,795.38464,793.36993,794.17584,803.0403
1694304676.831,803.0403,798.20514,793.7729,794.57874,811.9048
1694304676.832,796.99634,798.60803,790.9524,790.54944,705.5311
1694304676.832,796.99634,796.5934,790.9524,798.60803,880.40295
1694304676.833,809.89014,795.78754,796.1905,808.2784,1049.6337
1694304676.8339999,811.50183,796.99634,796.99634,801.8315,794.9817
1694304676.8339999,802.6374,796.1905,793.7729,799.011,720.84247
1694304676.835,797.8022,792.1612,797.8022,801.8315,757.9121
1694304676.885,802.23444,790.9524,798.20514,803.44324,714.7985
1694304676.8860002,807.8755,794.17584,793.7729,798.20514,690.6227
1694304676.887,805.4579,796.5934,794.17584,799.41394,769.59705
1694304676.888,804.65204,795.38464,793.36993,800.6227,809.0842
1694304676.889,802.23444,795.78754,794.9817,793.36993,662.01465
1694304676.8899999,805.4579,801.02563,796.1905,789.34064,574.9817
1694304676.891,812.3077,803.44324,795.78754,803.0403,718.022
1694304676.892,807.0696,804.65204,797.3993,818.7546,973.8828
1694304676.893,797.3993,800.6227,796.1905,806.26373,852.6007
1694304676.894,796.5934,795.78754,793.7729,785.31134,638.24176
1694304676.894,807.47253,799.81683,792.1612,786.1172,676.9231
1694304676.895,809.89014,799.41394,789.34064,797.8022,733.3333
1694304676.921,799.41394,792.5641,791.75824,798.60803,777.25275
1694304676.922,790.54944,787.326,788.93774,792.5641,765.16486
1694304676.923,792.1612,789.7436,787.72894,794.17584,841.7216
1694304676.924,799.011,792.1612,788.5348,797.3993,929.5604
1694304676.924,802.6374,792.96704,788.1319,801.02563,764.7619
1694304676.926,806.26373,793.36993,788.93774,798.60803,714.3956
1694304676.927,803.0403,790.9524,786.9231,793.7729,977.9121
1694304676.928,796.5934,790.54944,788.5348,801.8315,1029.0842
1694304676.929,798.60803,792.96704,789.7436,796.1905,725.6777
1694304676.9299998,804.65204,792.5641,790.14655,794.17584,695.8608
1694304676.931,807.0696,792.1612,793.7729,799.81683,804.2491
1694304676.932,807.0696,794.17584,794.9817,801.4286,823.5897
1694304676.9699998,805.05493,795.38464,792.5641,806.6667,697.0696
1694304676.971,801.02563,791.75824,794.57874,804.65204,622.1245
1694304676.976,800.2198,785.7143,793.7729,796.5934,649.92676
1694304676.977,803.44324,788.5348,790.14655,796.5934,702.3077
1694304676.978,805.05493,792.5641,791.3553,802.23444,766.3736
1694304676.978,794.17584,790.54944,794.17584,791.75824,858.24176
1694304676.979,789.7436,789.7436,794.57874,796.1905,1100.403
1694304676.98,805.4579,798.60803,788.5348,804.2491,1009.7436
1694304676.98,815.5311,797.3993,788.93774,794.9817,678.5348
1694304676.981,805.05493,787.72894,801.4286,796.1905,737.76556
1694304676.982,789.7436,790.54944,801.4286,780.07324,767.5824
1694304676.982,788.5348,788.5348,799.011,778.0586,730.9158
1694304677.007,808.2784,786.1172,799.81683,796.99634,698.2784
1694304677.008,815.5311,788.93774,798.60803,805.05493,855.82416
1694304677.0089998,811.0989,791.3553,798.20514,807.47253,1018.20514
1694304677.0089998,803.8461,795.78754,792.1612,807.0696,824.3956
1694304677.01,796.5934,796.1905,792.5641,798.20514,713.5897
1694304677.0110002,806.6667,791.3553,797.3993,798.60803,845.7509
1694304677.0110002,809.4872,787.326,795.78754,809.0842,900.9524
1694304677.012,796.5934,788.5348,790.14655,796.5934,853.00366
1694304677.013,793.36993,791.75824,790.9524,783.2967,774.0293
1694304677.013,796.5934,791.3553,798.20514,796.5934,845.7509
1694304677.0140002,803.8461,792.5641,797.3993,801.02563,902.96704
1694304677.0140002,810.696,796.1905,794.9817,794.17584,687.3993
1694304677.069,810.696,796.99634,800.2198,806.6667,709.15753
1694304677.0700002,805.8608,793.7729,799.81683,810.696,798.60803
1694304677.071,797.8022,791.3553,797.8022,802.6374,738.5714
1694304677.071,800.2198,789.7436,794.17584,798.20514,647.1062
1694304677.076,805.05493,791.75824,792.5641,801.8315,759.92676
1694304677.077,802.6374,794.9817,792.96704,803.0403,892.0879
1694304677.077,799.011,797.8022,790.54944,793.7729,829.2308
1694304677.078,801.4286,796.99634,793.36993,794.17584,709.15753
1694304677.078,801.02563,792.5641,790.9524,791.3553,641.06226
1694304677.079,805.8608,797.3993,794.17584,810.293,1004.5055
1694304677.08,811.50183,799.81683,799.81683,811.50183,1043.1868
1694304677.0809999,807.0696,792.1612,799.41394,795.78754,702.71063
1694304677.104,799.81683,788.1319,794.17584,793.7729,813.91943
1694304677.105,801.02563,788.93774,790.54944,791.75824,819.9634
1694304677.106,807.8755,791.3553,794.57874,795.78754,661.6117
1694304677.107,807.47253,792.5641,796.99634,805.05493,712.381
1694304677.108,807.8755,792.1612,804.2491,813.1135,770.40295
1694304677.109,804.2491,792.96704,804.2491,808.2784,783.2967
1694304677.109,801.4286,792.5641,796.1905,792.1612,738.5714
1694304677.111,804.2491,794.57874,794.17584,781.685,664.43225
1694304677.112,807.0696,796.5934,794.17584,802.23444,882.4176
1694304677.113,804.2491,794.9817,794.9817,807.0696,1034.7252
1694304677.1139998,795.38464,794.9817,794.9817,784.90845,738.97437
1694304677.1139998,798.20514,793.36993,795.78754,790.14655,642.27106
1694304677.147,806.26373,790.54944,791.3553,796.1905,786.52014
1694304677.149,807.47253,791.75824,793.36993,796.1905,782.49084
1694304677.15,805.4579,794.17584,799.41394,803.44324,749.45056
1694304677.15,799.011,796.5934,796.1905,799.81683,756.30035
1694304677.151,795.78754,797.3993,791.75824,792.5641,722.0513
1694304677.152,806.6667,803.0403,794.9817,795.78754,830.0366
1694304677.156,807.47253,805.4579,798.60803,803.8461,861.06226
1694304677.1569998,800.2198,799.41394,797.8022,809.0842,839.304
1694304677.1569998,797.8022,801.4286,795.78754,807.47253,1024.249
1694304677.1580002,799.81683,803.44324,796.99634,787.72894,844.5421
1694304677.1590002,807.0696,803.0403,796.1905,779.67035,617.6923
1694304677.1590002,797.8022,800.6227,794.17584,791.3553,821.1722
1694304677.2499998,790.9524,796.5934,791.75824,787.326,924.3223
1694304677.252,796.1905,798.60803,788.93774,789.34064,785.7143
1694304677.253,796.1905,801.4286,795.78754,787.326,687.3993
1694304677.2540002,796.99634,796.5934,801.8315,790.9524,850.989
1694304677.2540002,799.011,792.1612,794.57874,816.337,1041.5751
1694304677.255,796.5934,790.14655,790.54944,808.68134,888.86444
1694304677.256,790.9524,790.54944,790.54944,791.3553,776.4469
1694304677.256,791.75824,793.36993,792.1612,794.17584,855.82416
1694304677.257,790.9524,792.5641,793.36993,792.5641,902.96704
1694304677.258,799.011,796.99634,791.3553,792.1612,713.5897
1694304677.258,805.4579,792.96704,787.326,802.6374,724.87177
1694304677.259,808.2784,790.9524,785.7143,809.4872,776.8498
1694304677.2700002,805.4579,794.57874,792.1612,801.8315,702.71063
1694304677.272,799.81683,795.38464,793.7729,794.17584,668.46155
1694304677.273,809.0842,796.5934,794.9817,803.8461,748.24176
1694304677.273,812.71063,794.17584,792.96704,811.50183,804.2491
1694304677.274,809.0842,792.96704,788.5348,814.7253,799.011
1694304677.275,806.26373,791.3553,788.1319,806.6667,755.89746
1694304677.276,807.8755,791.75824,790.14655,807.0696,756.30035
1694304677.277,810.696,791.3553,797.3993,811.0989,1001.28204
1694304677.2819998,813.5165,790.54944,796.1905,804.65204,912.23444
1694304677.2819998,817.9487,790.14655,792.1612,802.6374,682.1612
1694304677.283,812.3077,789.7436,794.9817,796.99634,789.7436
1694304677.283,809.89014,793.7729,798.60803,803.0403,997.6557
1694304677.3070002,818.7546,794.9817,797.8022,807.0696,836.4835
1694304677.308,818.7546,794.17584,797.3993,808.68134,697.47253
1694304677.309,812.3077,794.17584,797.3993,821.1722,916.6667
1694304677.3100002,803.44324,794.57874,792.1612,815.9341,947.6923
1694304677.311,801.4286,793.7729,790.9524,797.3993,717.2161
1694304677.311,807.8755,790.54944,792.1612,792.5641,695.4579
1694304677.313,806.26373,789.34064,791.75824,802.23444,919.4872
1694304677.314,802.23444,787.326,792.96704,815.9341,1040.3663
1694304677.314,796.5934,788.1319,792.1612,802.23444,774.43225
1694304677.315,796.5934,789.34064,798.20514,792.96704,596.337
1694304677.316,805.05493,792.5641,797.8022,805.8608,671.28204
1694304677.317,809.4872,793.36993,792.5641,811.9048,715.6044
1694304677.367,806.26373,792.1612,796.5934,820.7692,642.674
1694304677.368,799.81683,795.38464,799.011,815.5311,635.42126
1694304677.369,794.57874,793.7729,794.57874,799.81683,637.03296
1694304677.369,789.34064,792.5641,797.8022,800.6227,677.72894
1694304677.37,793.7729,787.72894,796.99634,809.4872,696.6667
1694304677.37,806.26373,788.1319,795.78754,816.7399,858.6447
1694304677.371,805.4579,794.9817,800.2198,806.6667,1009.34064
1694304677.372,798.20514,796.1905,796.99634,790.9524,743.8095
1694304677.372,803.44324,794.17584,796.99634,794.17584,580.2198
1694304677.373,809.4872,795.38464,798.60803,807.0696,743.8095
1694304677.375,804.2491,800.2198,802.6374,807.0696,901.75824
1694304677.376,796.1905,798.60803,804.65204,807.0696,899.7436
1694304677.408,796.5934,794.17584,797.8022,794.17584,732.52747
1694304677.408,803.0403,792.1612,793.36993,790.14655,755.89746
1694304677.409,803.8461,793.36993,792.5641,808.68134,965.0183
1694304677.409,802.23444,794.9817,791.3553,811.0989,782.0879
1694304677.409,802.23444,792.1612,792.96704,811.50183,673.69965
1694304677.4099998,799.41394,792.96704,795.38464,808.2784,762.74725
1694304677.4099998,790.54944,794.57874,792.5641,799.41394,754.68866
1694304677.411,791.3553,794.17584,790.9524,799.81683,716.8132
1694304677.411,796.99634,794.17584,789.7436,795.38464,672.0879
1694304677.412,789.7436,795.38464,793.7729,796.99634,843.3333
1694304677.412,784.5055,799.011,794.9817,799.41394,907.3993
1694304677.4129999,792.5641,799.81683,788.93774,795.38464,687.8022
1694304677.46,800.6227,801.4286,790.14655,797.3993,747.03296
1694304677.46,801.4286,803.0403,792.1612,807.0696,882.01465
1694304677.461,799.81683,804.65204,790.14655,806.26373,832.4542
1694304677.461,797.3993,804.2491,793.7729,794.9817,695.05493
1694304677.4620001,791.75824,797.8022,791.75824,790.14655,716.0073
1694304677.4620001,795.38464,802.6374,786.9231,791.75824,985.9707
1694304677.463,800.2198,806.26373,787.72894,788.93774,1000.07324
1694304677.463,799.41394,798.20514,784.5055,782.0879,781.685
1694304677.464,795.78754,798.60803,785.31134,784.5055,760.7326
1694304677.464,798.20514,803.8461,788.1319,787.72894,821.5751
1694304677.465,802.6374,802.6374,786.1172,789.7436,686.99634
1694304677.465,806.26373,805.05493,788.1319,793.36993,705.12823
1694304677.515,808.68134,807.8755,791.75824,795.78754,896.52014
1694304677.516,801.02563,808.68134,790.9524,794.17584,874.7619
1694304677.517,797.3993,807.47253,791.3553,792.5641,676.52014
1694304677.5180001,800.2198,804.65204,789.7436,787.72894,682.96704
1694304677.5180001,806.6667,806.26373,790.54944,787.326,922.3077
1694304677.519,806.26373,807.0696,796.99634,797.8022,990.80585
1694304677.519,801.02563,805.05493,796.99634,795.78754,788.93774
1694304677.52,799.81683,805.4579,794.57874,793.36993,654.35895
1694304677.52,803.0403,804.65204,797.8022,802.23444,878.3883
1694304677.521,808.2784,804.2491,798.20514,807.8755,1073.8096
1694304677.521,800.2198,801.02563,796.99634,799.81683,800.6227
1694304677.5219998,788.1319,801.02563,794.57874,798.20514,701.0989
1694304677.576,792.96704,804.2491,790.54944,799.81683,699.89014
1694304677.577,795.38464,799.011,789.7436,799.41394,728.49817
1694304677.5779998,794.9817,800.6227,792.1612,800.6227,759.92676
1694304677.579,797.8022,805.4579,793.7729,812.71063,778.0586
1694304677.579,792.5641,799.81683,795.38464,808.68134,777.25275
1694304677.58,794.57874,795.38464,798.60803,798.20514,736.1539
1694304677.5809999,802.23444,798.20514,800.2198,800.2198,716.8132
1694304677.582,806.26373,798.60803,796.5934,797.8022,787.72894
1694304677.582,805.4579,799.81683,797.3993,813.5165,1113.6996
1694304677.5830002,802.23444,803.8461,797.8022,817.9487,1050.8425
1694304677.5830002,795.38464,801.4286,795.78754,796.5934,657.1795
1694304677.584,795.38464,798.60803,797.3993,802.23444,742.1978
1694304677.64,803.8461,795.78754,796.5934,798.60803,836.08057
1694304677.642,800.6227,792.96704,793.7729,784.5055,699.89014
1694304677.648,796.1905,789.34064,792.1612,789.34064,697.8755
1694304677.649,791.3553,788.5348,793.7729,786.9231,751.4652
1694304677.6499999,790.14655,791.3553,792.5641,787.72894,739.3773
1694304677.651,791.3553,791.75824,792.1612,804.2491,772.4176
1694304677.652,795.38464,794.57874,791.3553,807.8755,740.18317
1694304677.6529999,797.3993,793.7729,788.5348,802.23444,893.69965
1694304677.654,789.34064,792.96704,792.1612,802.6374,1037.5458
1694304677.654,787.72894,794.57874,796.1905,791.3553,770.80585
1694304677.655,793.36993,793.7729,796.5934,793.7729,697.8755
1694304677.656,799.81683,795.38464,798.20514,811.50183,815.9341
1694304677.668,802.23444,798.60803,800.2198,813.91943,808.68134
1694304677.669,797.3993,798.20514,793.7729,803.8461,700.293
1694304677.67,796.99634,794.17584,794.17584,798.60803,664.83514
1694304677.671,800.2198,794.17584,796.99634,800.6227,709.9634
1694304677.672,813.5165,801.02563,789.34064,813.1135,749.45056
1694304677.6729999,808.68134,798.20514,786.1172,811.50183,740.989
1694304677.6729999,785.7143,793.7729,791.3553,780.87915,852.6007
1694304677.6739998,792.96704,794.17584,793.7729,786.9231,1004.10254
1694304677.6739998,804.2491,794.57874,792.5641,799.41394,841.31866
1694304677.675,799.011,799.011,791.75824,782.0879,718.022
1694304677.676,786.52014,799.011,785.7143,782.8938,786.9231
1694304677.676,786.52014,801.02563,790.9524,792.5641,757.50916
1694304677.703,799.011,807.0696,798.20514,785.31134,696.26373
1694304677.704,799.41394,805.8608,797.8022,789.34064,711.1722
1694304677.705,794.9817,801.4286,795.38464,796.1905,867.9121
1694304677.705,793.36993,801.4286,792.96704,796.5934,946.08057
1694304677.7089999,793.7729,804.65204,794.9817,792.96704,794.9817
1694304677.71,793.7729,805.4579,793.36993,786.9231,717.2161
1694304677.711,801.02563,804.65204,792.1612,798.20514,899.7436
1694304677.711,809.0842,805.4579,798.20514,815.9341,1176.1538
1694304677.712,805.05493,803.0403,801.4286,809.89014,922.3077
1694304677.714,796.5934,800.2198,796.1905,804.2491,657.98535
1694304677.7150002,791.75824,798.20514,794.17584,805.4579,645.4945
1694304677.716,800.2198,800.2198,798.20514,801.02563,682.5641
1694304677.7459998,806.6667,802.6374,802.23444,805.8608,667.25275
1694304677.747,809.89014,801.02563,803.0403,810.696,689.41394
1694304677.748,800.6227,801.4286,805.05493,805.05493,799.011
1694304677.748,793.36993,798.60803,806.26373,795.78754,748.6447
1694304677.7489998,799.81683,794.9817,801.4286,799.41394,658.7912
1694304677.7489998,804.2491,794.57874,795.78754,797.8022,728.0952
1694304677.7500002,805.05493,799.81683,799.81683,811.0989,1077.8389
1694304677.7500002,798.60803,802.6374,801.02563,817.5458,1043.1868
1694304677.7510002,795.78754,801.4286,796.1905,794.17584,634.61536
1694304677.7510002,801.02563,798.60803,791.75824,788.5348,635.0183
1694304677.752,804.2491,796.1905,790.9524,796.99634,717.2161
1694304677.752,807.0696,799.011,793.36993,807.0696,788.5348
1694304677.7859998,803.0403,803.0403,798.20514,805.4579,768.7912
1694304677.7870002,796.99634,802.6374,802.6374,800.6227,778.0586
1694304677.788,798.20514,800.6227,800.6227,797.3993,857.4359
1694304677.788,800.6227,801.02563,795.38464,788.1319,766.77655
1694304677.789,799.011,796.99634,794.57874,797.8022,776.04395
1694304677.7900002,795.78754,795.38464,795.38464,807.0696,927.1429
1694304677.793,790.14655,798.20514,792.96704,801.4286,909.81683
1694304677.794,791.3553,800.6227,791.3553,803.44324,764.7619
1694304677.795,798.60803,800.6227,794.57874,807.8755,655.56775
1694304677.795,799.011,796.5934,794.9817,810.696,861.8681
1694304677.796,795.78754,797.3993,792.96704,807.0696,1024.652
1694304677.796,789.7436,798.20514,795.38464,792.1612,761.13556
1694304677.835,800.6227,801.02563,794.17584,787.326,651.9414
1694304677.836,816.7399,803.0403,792.1612,792.5641,659.59705
1694304677.837,799.41394,791.3553,802.6374,785.7143,733.3333
1694304677.838,788.5348,782.49084,808.2784,795.38464,736.9597
1694304677.838,802.23444,779.67035,807.47253,814.3223,740.18317
1694304677.839,805.8608,780.87915,803.8461,807.8755,787.72894
1694304677.84,813.1135,790.54944,802.6374,809.89014,801.8315
1694304677.8409998,816.337,792.96704,801.4286,813.1135,805.8608
1694304677.8409998,809.89014,793.36993,796.99634,807.47253,820.3663
1694304677.8419998,799.81683,795.78754,794.9817,801.8315,815.5311
1694304677.8430002,799.011,794.17584,794.17584,805.4579,705.12823
1694304677.8430002,802.23444,790.9524,790.9524,808.68134,694.65204
1694304677.879,804.65204,792.1612,787.72894,809.89014,852.1978
1694304677.88,807.8755,794.9817,794.9817,821.5751,1191.0623
1694304677.881,804.2491,796.5934,796.5934,813.1135,1102.8206
1694304677.881,797.8022,797.3993,791.3553,798.20514,741.79486
1694304677.882,796.5934,795.78754,792.1612,799.81683,752.27106
1694304677.8830001,802.23444,798.20514,792.96704,809.0842,876.3736
1694304677.8830001,804.2491,799.81683,788.5348,801.02563,926.337
1694304677.884,803.44324,796.1905,789.34064,787.326,773.6264
1694304677.888,802.6374,794.57874,794.17584,798.60803,836.4835
1694304677.888,806.26373,797.8022,790.9524,804.65204,945.6777
1694304677.889,811.50183,802.6374,790.9524,797.8022,773.6264
1694304677.8899999,808.68134,801.4286,793.36993,796.1905,743.4066
1694304677.947,798.60803,795.78754,794.57874,799.81683,788.5348
1694304677.948,794.17584,798.60803,795.78754,800.2198,728.9011
1694304677.948,800.6227,802.23444,795.78754,796.5934,637.8388
1694304677.949,810.293,803.8461,794.57874,805.05493,686.99634
1694304677.95,808.68134,801.4286,793.7729,808.68134,774.43225
1694304677.951,799.81683,797.8022,791.3553,797.3993,845.7509
1694304677.952,798.20514,800.6227,792.5641,797.3993,852.1978
1694304677.952,797.3993,798.60803,793.36993,805.4579,791.75824
1694304677.9529998,796.1905,793.7729,790.9524,813.5165,997.25275
1694304677.9539998,797.3993,795.78754,794.17584,810.293,980.7326
1694304677.9550002,794.57874,798.20514,792.96704,803.8461,695.4579
1694304677.9550002,789.34064,797.3993,792.96704,804.2491,834.4689
1694304677.984,792.1612,798.20514,796.1905,805.05493,920.293
1694304677.985,802.6374,799.011,799.011,809.0842,756.30035
1694304677.9859998,805.4579,796.99634,798.20514,804.2491,721.2454
1694304677.9859998,797.8022,793.7729,790.9524,801.4286,881.2088
1694304677.987,793.36993,792.5641,792.1612,799.011,885.2381
1694304677.988,796.99634,794.57874,791.75824,792.96704,671.685
1694304677.9889998,796.5934,793.7729,791.3553,796.99634,742.6007
1694304677.9889998,794.17584,793.7729,791.75824,800.2198,955.34796
1694304677.99,798.20514,795.78754,792.1612,810.696,1016.99634
1694304677.9910002,791.75824,796.5934,796.5934,799.41394,747.03296
1694304677.996,786.52014,794.9817,794.17584,785.31134,613.663
1694304677.996,790.9524,792.5641,792.1612,782.0879,640.65936
1694304678.0049999,801.4286,796.5934,791.3553,785.31134,697.47253
1694304678.006,801.4286,796.1905,790.14655,797.8022,732.1245
1694304678.006,790.14655,792.5641,792.5641,788.93774,692.6374
1694304678.007,793.36993,795.38464,794.9817,780.07324,645.4945
1694304678.007,798.60803,796.1905,792.96704,782.8938,647.50916
1694304678.008,805.05493,793.7729,790.14655,793.7729,743.00366
1694304678.0089998,809.89014,793.7729,795.78754,807.0696,846.1539
1694304678.0089998,805.8608,796.5934,798.20514,818.7546,1066.5568
1694304678.01,824.3956,806.6667,792.96704,825.2015,949.304
1694304678.0110002,825.6044,803.0403,803.44324,808.2784,618.49817
1694304678.0110002,799.81683,790.14655,815.12823,786.9231,688.60803
1694304678.012,797.3993,786.52014,811.50183,802.6374,801.02563
1694304678.035,805.8608,786.52014,810.696,822.7839,792.96704
1694304678.036,805.05493,785.31134,809.0842,819.15753,658.7912
1694304678.037,801.8315,783.69965,800.6227,809.0842,736.55676
1694304678.037,803.44324,788.5348,797.3993,811.9048,873.95605
1694304678.038,805.8608,792.5641,804.2491,813.5165,778.46155
1694304678.039,803.44324,790.9524,804.65204,799.81683,726.4835
1694304678.0419998,801.02563,788.93774,802.23444,806.26373,957.3626
1694304678.043,801.4286,790.54944,800.2198,824.3956,1055.6776
1694304678.044,807.8755,795.38464,802.6374,817.5458,777.6557
1694304678.044,810.696,796.5934,803.0403,812.3077,718.8278
1694304678.0449998,804.65204,798.60803,801.02563,819.15753,834.87177
1694304678.0460002,797.8022,794.9817,802.6374,815.9341,783.69965
1694304678.1020002,790.9524,789.7436,802.6374,805.4579,671.28204
1694304678.1030002,797.8022,791.3553,803.0403,805.05493,730.5128
1694304678.104,799.81683,792.1612,799.81683,809.89014,809.89014
1694304678.104,796.5934,794.17584,794.9817,812.3077,813.91943
1694304678.105,794.17584,792.1612,792.5641,801.4286,738.1685
1694304678.105,794.17584,790.54944,792.5641,796.5934,766.77655
1694304678.106,798.20514,791.3553,795.38464,803.44324,1019.011
1694304678.106,800.6227,790.54944,795.38464,798.60803,937.619
1694304678.107,796.99634,788.93774,791.75824,790.54944,766.3736
1694304678.107,788.1319,789.7436,790.9524,792.96704,826.4103
1694304678.108,790.14655,790.54944,795.38464,796.1905,833.663
1694304678.108,800.6227,791.3553,795.78754,793.36993,793.7729
1694304678.129,805.8608,793.7729,793.36993,797.3993,735.7509
1694304678.1299999,804.65204,790.54944,792.1612,800.6227,818.3516
1694304678.131,796.99634,793.7729,791.3553,802.23444,940.4396
1694304678.131,799.011,797.3993,792.1612,796.1905,693.44324
1694304678.132,803.44324,796.5934,796.1905,804.2491,569.7436
1694304678.133,801.8315,798.20514,797.8022,816.7399,795.78754
1694304678.133,809.0842,794.57874,796.5934,816.7399,880.0
1694304678.134,798.60803,792.5641,800.6227,807.0696,772.4176
1694304678.134,793.36993,795.38464,800.6227,799.81683,655.16486
1694304678.135,800.6227,793.7729,796.99634,803.0403,846.55676
1694304678.135,805.4579,793.7729,796.5934,810.293,956.9597
1694304678.136,809.0842,794.57874,792.96704,809.0842,732.52747
1694304678.1980002,801.4286,795.38464,793.7729,802.23444,686.99634
1694304678.1990001,799.81683,798.60803,801.4286,803.8461,720.0366
1694304678.203,805.4579,798.20514,805.4579,798.60803,746.63007
1694304678.204,809.0842,799.41394,804.2491,792.96704,722.4542
1694304678.204,813.1135,799.41394,801.02563,790.9524,790.9524
1694304678.205,811.0989,799.011,799.011,789.7436,811.0989
1694304678.206,801.02563,797.3993,796.1905,792.1612,692.6374
1694304678.207,802.23444,796.99634,794.9817,800.2198,649.12085
1694304678.208,812.3077,799.81683,794.9817,802.23444,786.1172
1694304678.2089999,810.696,799.41394,792.5641,800.2198,995.64105
1694304678.2089999,801.8315,799.81683,798.20514,807.8755,872.3443
1694304678.2099998,790.14655,800.2198,798.60803,797.3993,676.1172
1694304678.233,795.38464,796.99634,791.3553,796.1905,788.5348
1694304678.234,807.0696,796.1905,792.5641,804.65204,912.23444
1694304678.2350001,803.0403,795.78754,794.57874,797.8022,812.71063
1694304678.2350001,798.60803,792.96704,793.7729,799.011,728.9011
1694304678.236,796.1905,792.96704,794.17584,803.0403,785.31134
1694304678.237,797.8022,793.36993,794.17584,792.96704,825.2015
1694304678.237,800.6227,789.7436,789.34064,785.7143,811.9048
1694304678.2380002,797.8022,788.5348,790.9524,788.5348,735.7509
1694304678.239,794.17584,789.7436,792.96704,802.6374,904.57874
1694304678.239,786.52014,789.34064,790.9524,801.02563,1024.249
1694304678.24,786.9231,791.75824,796.5934,797.3993,694.2491
1694304678.24,809.0842,793.7729,803.44324,817.1429,671.28204
1694304678.2710001,821.978,796.5934,801.02563,817.9487,799.011
1694304678.272,803.0403,800.6227,791.75824,793.36993,820.3663
1694304678.272,786.52014,804.65204,785.31134,782.0879,746.63007
1694304678.273,791.75824,808.68134,787.72894,788.5348,695.4579
1694304678.277,789.7436,805.05493,788.93774,776.4469,743.4066
1694304678.278,784.5055,799.81683,791.3553,769.59705,793.36993
1694304678.278,789.34064,795.38464,793.36993,781.28204,763.95605
1694304678.279,784.90845,795.78754,792.5641,783.2967,687.3993
1694304678.279,777.6557,795.78754,790.9524,786.1172,966.2271
1694304678.28,785.31134,797.8022,787.72894,792.1612,986.77655
1694304678.281,795.38464,797.3993,788.1319,789.34064,698.68134
1694304678.281,799.81683,790.54944,790.54944,783.69965,793.7729
1694304678.339,796.5934,791.75824,790.14655,785.31134,803.8461
1694304678.3409998,787.72894,792.5641,790.14655,785.31134,659.19415
1694304678.3420002,794.17584,788.93774,790.14655,794.17584,626.9597
1694304678.3430002,806.6667,790.14655,797.3993,812.71063,771.6117
1694304678.344,803.0403,789.7436,795.38464,808.68134,838.49817
1694304678.344,794.17584,789.34064,791.3553,788.93774,761.9414
