timestamp,RAW_TP9,RAW_AF7,RAW_AF8,RAW_TP10,AUX_RIGHT
1694132043.7129998,772.01465,803.8461,795.38464,781.685,637.4359
1694132043.7150002,769.59705,801.8315,796.5934,805.05493,763.5531
1694132043.721,770.0,807.8755,795.38464,809.89014,813.1135
1694132043.722,772.01465,807.0696,796.1905,783.2967,695.4579
1694132043.723,779.2674,794.17584,796.99634,776.8498,779.2674
1694132043.724,776.04395,795.78754,791.3553,792.1612,935.6044
1694132043.725,763.5531,810.696,785.7143,800.6227,784.10254
1694132043.726,761.9414,812.71063,787.72894,796.5934,778.0586
1694132043.727,767.5824,809.0842,786.1172,777.6557,833.2601
1694132043.728,775.64105,799.81683,784.5055,772.01465,1048.8279
1694132043.7289999,773.6264,813.91943,782.49084,774.0293,944.87177
1694132043.7299998,767.1795,826.4103,779.2674,778.46155,640.65936
1694132043.773,770.0,815.5311,779.67035,787.72894,715.6044
1694132043.7740002,774.0293,818.3516,780.87915,778.0586,716.4103
1694132043.775,782.49084,818.7546,782.8938,763.5531,610.0366
1694132043.776,780.87915,813.91943,784.5055,767.5824,572.5641
1694132043.777,774.43225,813.1135,786.1172,793.36993,725.6777
1694132043.777,775.2381,812.71063,786.9231,805.8608,877.1795
1694132043.7779999,780.4762,815.5311,786.52014,791.75824,876.77655
1694132043.7779999,785.31134,817.5458,788.1319,769.59705,684.17584
1694132043.779,790.54944,807.47253,790.54944,782.49084,867.9121
1694132043.779,790.14655,812.71063,793.36993,810.293,1149.9634
1694132043.779,782.8938,831.2454,795.38464,812.71063,880.80585
1694132043.78,780.4762,823.9927,796.1905,805.05493,765.16486
1694132043.781,780.4762,817.5458,797.3993,782.8938,743.00366
1694132043.782,776.8498,812.71063,794.17584,774.83514,691.4286
1694132043.783,771.6117,809.0842,792.1612,793.36993,691.4286
1694132043.783,769.19415,809.0842,792.96704,811.9048,761.9414
1694132043.7859998,765.9707,803.0403,789.34064,799.41394,796.5934
1694132043.7870002,771.6117,807.8755,787.72894,778.86444,725.6777
1694132043.7870002,769.59705,813.91943,787.326,776.4469,732.52747
1694132043.788,762.74725,808.2784,787.72894,794.9817,885.2381
1694132043.788,761.13556,799.011,782.8938,819.5604,1214.0293
1694132043.789,755.89746,809.89014,779.2674,808.2784,1163.663
1694132043.789,770.80585,818.7546,786.9231,778.0586,743.4066
1694132043.7900002,782.49084,807.47253,791.75824,780.4762,750.2564
1694132043.836,774.83514,811.0989,792.5641,799.81683,842.1245
1694132043.837,770.80585,817.9487,792.96704,808.2784,759.5238
1694132043.837,774.0293,812.71063,792.5641,808.68134,728.49817
1694132043.838,776.4469,809.89014,791.75824,786.52014,708.7546
1694132043.839,774.43225,811.0989,789.7436,772.4176,683.7729
1694132043.839,777.6557,807.0696,787.72894,788.5348,758.71796
1694132043.84,778.46155,811.50183,790.54944,809.89014,741.79486
1694132043.84,778.86444,806.26373,791.75824,811.50183,889.67035
1694132043.8409998,788.5348,811.9048,792.1612,788.93774,927.9487
1694132043.8419998,791.3553,829.2308,797.3993,774.43225,610.0366
1694132043.8419998,789.34064,819.9634,800.2198,794.57874,611.6484
1694132043.8430002,781.28204,812.71063,800.6227,820.7692,797.3993
1694132043.8739998,772.01465,814.3223,798.60803,814.7253,830.84247
1694132043.875,774.43225,814.3223,800.2198,794.9817,745.42126
1694132043.875,778.0586,813.1135,801.8315,786.9231,709.5604
1694132043.876,780.87915,815.9341,799.41394,795.78754,759.5238
1694132043.876,779.2674,818.7546,797.3993,812.3077,821.5751
1694132043.8769999,774.83514,814.3223,797.3993,812.71063,858.24176
1694132043.879,780.07324,807.0696,800.6227,798.60803,1018.20514
1694132043.88,780.87915,809.0842,803.8461,784.10254,1050.0366
1694132043.88,768.7912,819.5604,801.4286,786.9231,791.75824
1694132043.881,765.56775,819.9634,797.8022,806.26373,675.7143
1694132043.882,774.0293,808.2784,799.81683,817.9487,837.28937
1694132043.8830001,771.6117,802.6374,797.8022,808.2784,1059.7069
1694132043.927,765.16486,817.1429,791.75824,778.46155,786.52014
1694132043.928,774.83514,817.9487,795.78754,783.69965,610.0366
1694132043.928,771.2088,809.89014,803.8461,810.293,736.9597
1694132043.929,756.7033,808.68134,804.65204,813.1135,756.7033
1694132043.929,761.53845,806.6667,804.65204,795.78754,739.3773
1694132043.9299998,767.1795,807.47253,805.4579,778.0586,707.9487
1694132043.931,765.9707,800.6227,803.8461,785.7143,896.52014
1694132043.931,759.92676,803.0403,801.4286,805.8608,1081.8682
1694132043.932,755.89746,820.3663,805.8608,811.9048,801.4286
1694132043.9329998,764.35895,814.7253,807.0696,806.26373,682.96704
1694132043.9329998,777.25275,809.89014,804.2491,788.5348,698.2784
1694132043.934,778.86444,814.7253,802.23444,778.86444,651.53845
1694132043.959,778.0586,814.3223,801.02563,796.99634,647.1062
1694132043.959,786.9231,809.0842,805.05493,815.5311,697.47253
1694132043.96,794.57874,808.68134,805.8608,805.8608,732.52747
1694132043.961,799.011,813.1135,805.4579,784.90845,701.9048
1694132043.961,809.4872,813.5165,807.47253,782.0879,653.5531
1694132043.962,813.1135,811.50183,805.8608,799.81683,771.2088
1694132043.963,811.9048,801.4286,805.05493,821.5751,1230.1465
1694132043.963,814.3223,811.9048,809.0842,812.3077,1195.4945
1694132043.966,815.12823,815.12823,808.68134,782.8938,741.39197
1694132043.967,820.7692,798.20514,804.65204,776.8498,732.1245
1694132043.968,828.8278,804.2491,806.26373,795.38464,923.91943
1694132043.968,825.6044,818.7546,809.0842,813.91943,836.08057
1694132044.0110002,827.2161,814.7253,808.68134,813.1135,720.84247
1694132044.012,834.87177,806.6667,804.65204,790.14655,706.7399
1694132044.012,838.0952,807.8755,803.8461,778.86444,663.6264
1694132044.013,838.9011,810.293,805.8608,791.3553,624.1392
1694132044.0140002,834.0659,800.6227,804.65204,808.2784,654.35895
1694132044.0140002,825.6044,794.9817,802.6374,807.8755,802.23444
1694132044.015,824.7985,802.6374,802.6374,788.1319,861.4652
1694132044.016,832.4542,808.2784,806.26373,772.01465,757.1062
1694132044.017,829.2308,806.26373,809.89014,777.25275,657.98535
1694132044.018,821.1722,794.57874,809.89014,801.4286,954.94507
1694132044.018,818.7546,802.23444,809.4872,807.8755,1112.4908
1694132044.019,822.381,815.9341,814.3223,786.1172,737.3626
1694132044.0419998,832.4542,804.65204,813.5165,765.56775,647.50916
1694132044.043,830.4396,799.41394,808.68134,772.8205,755.4945
1694132044.043,820.7692,807.47253,807.8755,800.2198,782.8938
1694132044.044,810.696,804.2491,803.44324,805.4579,765.56775
1694132044.044,813.1135,794.17584,803.0403,790.54944,831.6484
1694132044.044,826.0073,798.60803,802.23444,781.28204,1007.72894
1694132044.0449998,825.2015,806.6667,797.3993,779.67035,932.7839
1694132044.0449998,817.9487,805.8608,796.1905,791.75824,750.65936
1694132044.0449998,816.7399,800.2198,791.75824,803.0403,789.34064
1694132044.0449998,818.7546,800.6227,790.54944,795.38464,959.7802
1694132044.048,815.12823,811.50183,792.1612,772.01465,757.9121
1694132044.049,813.1135,808.2784,789.34064,772.8205,599.5604
1694132044.08,815.5311,803.8461,793.36993,799.81683,861.06226
1694132044.0809999,815.5311,807.8755,799.81683,811.50183,913.44324
1694132044.0819998,819.15753,808.68134,798.20514,799.41394,702.3077
1694132044.0819998,826.0073,807.47253,796.5934,782.0879,676.52014
1694132044.0830002,830.84247,807.8755,801.02563,784.10254,714.7985
1694132044.0830002,825.2015,802.6374,800.6227,799.81683,759.5238
1694132044.084,815.5311,799.011,793.36993,809.89014,836.08057
1694132044.084,816.337,807.8755,794.57874,803.44324,759.92676
1694132044.084,818.3516,802.23444,797.8022,793.36993,867.50916
1694132044.085,815.12823,805.05493,799.81683,790.9524,937.2161
1694132044.085,803.8461,816.7399,799.011,793.7729,706.337
1694132044.085,803.0403,807.47253,797.3993,808.68134,728.49817
1694132044.108,809.89014,804.2491,798.60803,803.44324,771.2088
1694132044.109,813.1135,807.47253,796.99634,778.46155,738.1685
1694132044.109,811.0989,803.44324,794.17584,770.40295,704.3223
1694132044.109,804.65204,794.57874,788.93774,782.49084,759.12085
1694132044.109,803.44324,797.3993,787.72894,803.44324,916.6667
1694132044.1100001,804.65204,805.8608,794.57874,806.26373,932.7839
1694132044.1100001,800.6227,803.0403,797.8022,784.5055,764.7619
1694132044.1100001,794.9817,795.38464,791.75824,770.0,682.1612
1694132044.111,788.1319,788.93774,793.7729,792.96704,1025.0549
1694132044.111,777.6557,798.60803,795.78754,811.0989,1008.93774
1694132044.112,777.25275,805.05493,794.17584,798.60803,725.2747
1694132044.112,787.326,794.57874,796.1905,782.0879,773.22345
1694132044.168,796.1905,801.02563,797.3993,778.46155,676.52014
1694132044.169,802.6374,808.68134,800.6227,792.1612,638.6447
1694132044.1699998,796.1905,801.4286,798.20514,805.4579,739.7802
1694132044.171,790.54944,799.41394,794.17584,805.4579,833.2601
1694132044.171,797.3993,798.60803,794.9817,788.1319,827.2161
1694132044.172,800.6227,800.6227,793.36993,774.43225,744.21246
1694132044.172,798.60803,809.0842,788.93774,777.6557,719.2308
1694132044.172,794.17584,806.6667,790.54944,799.81683,1029.4872
1694132044.1729999,786.1172,809.89014,791.75824,806.26373,1172.9304
1694132044.1729999,789.7436,816.7399,792.96704,779.2674,790.54944
1694132044.1729999,794.17584,812.71063,796.5934,767.98535,633.00366
1694132044.174,792.1612,813.1135,797.3993,786.52014,679.34064
1694132044.201,794.57874,813.5165,800.6227,808.68134,724.4689
1694132044.201,796.1905,816.7399,805.05493,814.3223,779.2674
1694132044.202,797.3993,811.0989,807.0696,799.41394,772.4176
1694132044.202,799.011,807.8755,803.44324,779.2674,682.96704
1694132044.202,799.011,813.5165,801.4286,783.69965,637.03296
1694132044.203,796.1905,809.4872,803.0403,803.44324,763.1502
1694132044.203,794.17584,807.0696,805.4579,815.12823,898.93774
1694132044.203,796.99634,797.3993,804.2491,809.0842,1148.7546
1694132044.204,795.38464,802.6374,798.60803,781.28204,1103.2234
1694132044.204,795.78754,816.337,797.8022,771.2088,693.0403
1694132044.204,797.8022,805.05493,799.011,797.8022,748.6447
1694132044.205,796.5934,803.8461,802.23444,811.50183,870.7326
1694132044.275,798.20514,808.68134,804.2491,792.96704,710.7692
1694132044.276,803.44324,803.8461,803.8461,774.43225,627.3626
1694132044.279,815.12823,805.05493,804.65204,779.2674,662.8205
1694132044.28,816.337,805.4579,807.0696,796.1905,720.84247
1694132044.281,807.0696,803.0403,805.8608,804.65204,734.94507
1694132044.2819998,807.8755,806.26373,800.2198,795.38464,758.315
1694132044.2819998,813.1135,801.4286,801.8315,783.69965,1040.3663
1694132044.283,812.3077,805.05493,801.02563,777.6557,1042.381
1694132044.284,812.3077,813.91943,803.0403,790.14655,701.0989
1694132044.284,813.5165,808.68134,811.50183,809.89014,703.91943
1694132044.2849998,816.7399,808.68134,812.71063,808.2784,792.96704
1694132044.2849998,822.381,813.5165,806.6667,791.3553,781.28204
1694132044.329,822.381,812.71063,799.81683,782.0879,614.4689
1694132044.33,822.381,812.3077,802.23444,801.8315,637.4359
1694132044.331,823.5897,813.91943,807.8755,822.381,833.663
1694132044.332,823.1868,815.9341,807.0696,815.5311,783.2967
1694132044.332,830.0366,816.7399,809.0842,793.7729,673.69965
1694132044.333,832.4542,812.3077,810.696,780.4762,700.293
1694132044.334,828.4249,807.0696,811.50183,803.8461,1149.1575
1694132044.334,824.3956,813.5165,812.71063,821.5751,1172.9304
1694132044.335,823.5897,820.7692,810.696,814.3223,688.60803
1694132044.336,829.2308,809.89014,806.6667,797.8022,765.9707
1694132044.336,831.2454,810.696,809.0842,784.90845,832.4542
1694132044.337,824.7985,825.6044,810.696,797.8022,662.4176
1694132044.4190001,822.7839,820.3663,808.2784,815.9341,674.10254
1694132044.42,821.1722,812.71063,807.0696,818.7546,804.65204
1694132044.42,821.1722,813.1135,811.0989,800.2198,803.8461
1694132044.421,822.381,815.9341,815.5311,786.1172,621.7216
1694132044.425,815.9341,810.293,810.696,796.5934,580.2198
1694132044.4259999,812.71063,799.41394,809.89014,820.3663,867.9121
1694132044.427,808.2784,803.44324,810.696,828.022,1014.57874
1694132044.427,805.05493,812.3077,808.2784,809.4872,799.41394
1694132044.428,810.696,811.0989,806.26373,787.72894,634.21246
1694132044.429,812.3077,803.0403,805.4579,798.60803,788.1319
1694132044.429,805.05493,813.1135,804.65204,820.7692,906.5934
1694132044.43,801.4286,823.1868,800.6227,816.337,749.45056
1694132044.431,801.8315,815.12823,799.81683,802.6374,703.91943
1694132044.432,798.20514,812.71063,796.99634,782.0879,701.9048
1694132044.4329998,796.1905,811.0989,799.81683,778.0586,697.0696
1694132044.4329998,795.38464,810.293,806.6667,803.44324,707.5458
1694132044.4339998,791.75824,806.26373,809.0842,817.1429,883.6264
1694132044.4350002,792.1612,802.23444,806.26373,800.6227,1006.1172
1694132044.436,786.1172,806.6667,803.8461,775.64105,844.94507
1694132044.436,784.90845,804.2491,807.0696,768.7912,731.31866
1694132044.437,785.31134,801.8315,808.68134,790.54944,800.2198
1694132044.437,780.07324,809.89014,807.0696,808.68134,870.7326
1694132044.4380002,780.4762,816.7399,800.6227,795.38464,760.32965
1694132044.4390001,783.69965,815.9341,798.20514,772.01465,655.16486
1694132044.4659998,788.93774,802.23444,801.4286,775.2381,790.14655
1694132044.467,784.10254,798.20514,803.44324,799.41394,1062.9304
1694132044.468,776.04395,809.89014,804.2491,807.8755,909.81683
1694132044.4689999,778.46155,809.4872,805.05493,801.02563,742.6007
1694132044.4689999,778.86444,803.8461,805.4579,783.2967,710.7692
1694132044.47,778.86444,800.2198,803.0403,778.86444,679.34064
1694132044.474,778.86444,801.02563,805.05493,795.78754,772.8205
1694132044.4750001,775.2381,803.44324,803.8461,807.8755,766.3736
1694132044.4750001,780.07324,796.5934,802.6374,811.0989,922.3077
1694132044.476,790.54944,801.02563,801.02563,795.78754,1056.8865
1694132044.477,792.1612,811.9048,796.99634,770.80585,722.4542
1694132044.477,786.1172,804.2491,796.99634,779.2674,643.8828
1694132044.5059998,782.49084,807.47253,800.2198,809.4872,789.7436
1694132044.507,783.69965,810.293,803.0403,814.3223,792.96704
1694132044.508,782.8938,806.6667,801.4286,783.69965,713.5897
1694132044.508,786.9231,805.8608,800.2198,770.80585,669.67035
1694132044.5089998,787.326,808.68134,801.02563,790.14655,730.10986
1694132044.5089998,780.07324,811.9048,801.02563,812.3077,790.14655
1694132044.5100002,772.01465,803.8461,797.3993,811.9048,816.7399
1694132044.5110002,772.4176,794.57874,799.011,787.72894,804.65204
1694132044.5110002,780.87915,790.9524,804.65204,783.2967,1067.7656
1694132044.512,777.6557,801.4286,804.65204,787.72894,1070.1831
1694132044.513,772.01465,812.71063,803.8461,794.17584,759.12085
1694132044.514,780.87915,805.4579,799.81683,806.26373,860.2564
1694132044.5649998,790.14655,804.65204,795.78754,787.326,838.49817
1694132044.5670002,788.93774,808.68134,791.3553,765.9707,668.86444
1694132044.568,790.9524,810.293,789.7436,779.67035,668.46155
1694132044.568,797.3993,806.6667,793.7729,808.2784,820.3663
1694132044.569,794.57874,809.4872,792.5641,813.1135,867.50916
1694132044.57,794.17584,812.71063,791.3553,791.3553,810.696
1694132044.571,802.23444,811.0989,790.54944,773.22345,749.0476
1694132044.572,806.26373,807.8755,788.5348,789.7436,868.315
1694132044.576,796.99634,811.9048,788.5348,811.0989,1002.8938
1694132044.577,787.72894,823.5897,789.7436,813.91943,795.78754
1694132044.577,790.9524,815.12823,792.5641,801.4286,761.9414
1694132044.5779998,796.1905,805.4579,796.1905,779.2674,809.0842
1694132044.605,792.5641,812.3077,800.6227,781.28204,772.8205
1694132044.6060002,789.7436,816.7399,802.23444,800.6227,709.9634
1694132044.607,788.5348,809.89014,800.6227,814.7253,745.82416
1694132044.608,789.7436,806.6667,799.41394,807.8755,818.3516
1694132044.609,793.36993,809.0842,799.81683,783.69965,771.6117
1694132044.61,794.57874,809.89014,800.6227,778.46155,701.50183
1694132044.61,801.02563,809.89014,804.2491,799.011,749.45056
1694132044.611,804.2491,801.8315,805.05493,817.1429,1157.619
1694132044.612,799.81683,810.696,799.81683,799.81683,1091.5385
1694132044.612,798.60803,819.5604,797.8022,769.19415,630.989
1694132044.613,796.1905,812.71063,795.38464,764.7619,596.337
1694132044.613,790.14655,813.5165,794.57874,785.7143,660.80585
1694132044.6899998,788.93774,815.12823,801.4286,803.44324,678.93774
1694132044.691,794.17584,808.68134,797.3993,797.3993,670.4762
1694132044.692,801.4286,803.8461,794.17584,782.49084,800.6227
1694132044.6929998,803.0403,810.293,796.99634,772.8205,794.57874
1694132044.6940002,795.38464,805.4579,794.9817,781.28204,644.68866
1694132044.6940002,786.52014,799.81683,796.99634,801.02563,747.03296
1694132044.6950002,783.2967,795.78754,796.1905,805.8608,1023.44324
1694132044.696,785.7143,796.1905,792.96704,790.14655,1091.1355
1694132044.696,784.90845,811.50183,790.14655,767.98535,747.8388
1694132044.697,783.2967,805.4579,786.52014,780.87915,652.3443
1694132044.701,784.90845,804.2491,790.9524,802.6374,751.4652
1694132044.7020001,780.87915,813.91943,794.17584,796.99634,770.40295
1694132044.733,778.86444,810.696,794.57874,774.0293,701.0989
1694132044.7340002,785.31134,805.8608,796.5934,764.35895,666.04395
1694132044.7350001,783.2967,807.0696,798.20514,780.4762,720.0366
1694132044.7350001,781.28204,809.4872,801.02563,802.23444,763.1502
1694132044.736,780.07324,803.8461,799.011,800.6227,765.56775
1694132044.736,780.07324,799.011,794.17584,775.64105,782.8938
1694132044.736,787.326,803.0403,795.78754,762.74725,755.89746
1694132044.737,784.90845,806.6667,796.5934,777.6557,694.65204
1694132044.737,775.2381,807.0696,795.78754,800.2198,754.2857
1694132044.737,772.8205,802.23444,800.6227,806.26373,830.0366
1694132044.738,777.6557,790.9524,796.99634,797.8022,1129.8169
1694132044.738,778.46155,803.0403,793.7729,779.2674,1070.1831
1694132044.743,774.43225,813.5165,799.81683,774.83514,681.75824
1694132044.744,771.2088,807.8755,801.8315,801.02563,734.5421
1694132044.744,771.2088,809.4872,800.2198,805.8608,842.52747
1694132044.745,769.59705,805.8608,800.2198,779.67035,765.9707
1694132044.745,774.0293,801.02563,797.3993,762.74725,691.8315
1694132044.7459998,778.46155,796.99634,796.1905,772.8205,760.32965
1694132044.7459998,777.25275,802.6374,799.41394,800.6227,857.03296
1694132044.747,779.67035,807.8755,802.23444,811.0989,832.4542
1694132044.747,784.5055,807.47253,804.2491,798.60803,698.68134
1694132044.747,794.17584,801.8315,802.23444,788.5348,834.87177
1694132044.748,792.1612,806.6667,798.20514,784.90845,962.1978
1694132044.748,783.2967,817.5458,799.011,794.57874,729.707
1694132044.836,780.87915,814.3223,799.81683,807.8755,736.9597
1694132044.837,783.69965,816.7399,800.2198,794.9817,786.52014
1694132044.837,795.38464,821.978,801.8315,773.22345,703.1135
1694132044.838,796.1905,818.7546,805.05493,774.0293,599.5604
1694132044.839,789.7436,807.47253,803.0403,799.81683,720.4396
1694132044.839,784.90845,804.2491,799.81683,816.7399,965.42126
1694132044.84,781.685,806.6667,799.41394,801.8315,877.98535
1694132044.84,787.326,804.65204,797.8022,780.87915,751.8681
1694132044.8409998,796.99634,803.0403,796.99634,782.0879,772.01465
1694132044.8419998,799.011,796.5934,801.02563,809.0842,1077.4359
1694132044.8430002,792.96704,811.50183,803.44324,816.7399,1033.5165
1694132044.8430002,796.5934,824.3956,802.6374,801.4286,698.68134
1694132044.855,796.5934,807.47253,796.99634,785.7143,769.59705
1694132044.856,796.99634,806.6667,794.9817,779.2674,750.65936
1694132044.8569999,799.81683,817.9487,800.2198,796.99634,615.6777
1694132044.8579998,791.75824,809.4872,801.02563,819.15753,676.1172
1694132044.859,782.49084,803.44324,798.60803,810.696,803.8461
1694132044.86,783.2967,804.2491,797.3993,786.52014,830.0366
1694132044.86,786.52014,805.4579,796.99634,776.4469,742.1978
1694132044.8609998,782.8938,803.0403,794.57874,781.685,640.65936
1694132044.8620002,778.86444,795.38464,794.17584,800.2198,900.54944
1694132044.8620002,780.87915,802.23444,794.9817,798.60803,1020.2198
1694132044.8630002,784.10254,810.696,794.17584,775.64105,690.2198
1694132044.864,792.5641,804.65204,795.38464,771.6117,591.0989
1694132044.888,793.36993,803.8461,797.3993,786.52014,698.2784
1694132044.889,784.5055,809.89014,793.7729,801.02563,771.2088
1694132044.893,782.0879,815.12823,794.17584,805.8608,709.5604
1694132044.894,783.69965,810.293,795.78754,790.14655,711.1722
1694132044.894,781.685,802.6374,795.38464,775.64105,774.0293
1694132044.895,780.07324,810.293,799.011,783.69965,764.35895
1694132044.896,772.01465,812.3077,797.8022,798.60803,774.0293
1694132044.896,771.2088,804.65204,794.57874,806.26373,869.12085
1694132044.8969998,782.49084,794.57874,793.36993,801.02563,1155.2014
1694132044.8969998,788.5348,806.26373,794.57874,777.25275,1002.8938
1694132044.8979998,789.7436,817.1429,795.38464,771.6117,626.9597
1694132044.8990002,784.5055,801.4286,794.17584,790.9524,725.2747
1694132044.926,779.2674,798.60803,792.1612,805.05493,776.8498
1694132044.927,786.9231,805.4579,793.7729,798.20514,699.89014
1694132044.928,798.20514,806.6667,797.8022,776.04395,669.67035
1694132044.928,800.2198,804.65204,797.3993,775.64105,731.7216
1694132044.929,792.96704,803.8461,792.96704,805.4579,815.12823
1694132044.931,785.7143,802.23444,791.3553,817.9487,894.10254
1694132044.932,786.9231,803.8461,792.5641,793.36993,807.0696
1694132044.932,791.75824,799.81683,795.38464,778.46155,849.3773
1694132044.9329998,787.72894,802.23444,796.5934,780.87915,972.674
1694132044.934,779.67035,812.3077,793.36993,789.34064,762.74725
1694132044.9350002,787.72894,807.0696,796.5934,803.44324,695.05493
1694132044.936,792.96704,800.6227,794.17584,799.81683,844.94507
1694132044.961,790.9524,804.65204,788.93774,777.6557,801.4286
1694132044.962,788.93774,807.0696,790.9524,773.22345,636.63007
1694132044.963,782.0879,801.8315,790.54944,786.9231,717.2161
1694132044.963,779.67035,800.6227,792.96704,797.8022,796.5934
1694132044.967,782.49084,801.02563,792.96704,790.54944,755.89746
1694132044.968,782.0879,795.78754,787.72894,766.77655,689.81683
1694132044.968,782.49084,795.38464,787.326,759.92676,718.022
1694132044.9689999,781.28204,790.9524,789.7436,793.7729,1178.9744
1694132044.9699998,770.0,800.6227,788.5348,814.7253,1262.381
1694132044.9699998,770.80585,813.91943,790.54944,799.41394,753.8828
1694132044.971,783.69965,807.8755,794.9817,786.52014,704.3223
1694132044.972,790.9524,809.89014,798.60803,785.7143,757.50916
1694132045.027,793.36993,817.5458,803.44324,799.41394,688.20514
1694132045.028,787.326,814.7253,800.6227,811.0989,736.1539
1694132045.028,785.7143,812.71063,799.41394,810.293,810.696
1694132045.029,788.5348,814.3223,801.8315,790.14655,723.663
1694132045.029,788.1319,814.7253,802.6374,777.6557,601.978
1694132045.0300002,784.10254,811.9048,805.8608,797.3993,660.40295
1694132045.0300002,778.0586,805.4579,805.05493,829.2308,995.64105
1694132045.0310001,778.0586,810.696,802.6374,827.619,1082.2711
1694132045.0310001,777.25275,819.15753,802.6374,795.78754,755.09155
1694132045.032,776.8498,813.1135,798.60803,783.69965,643.8828
1694132045.032,773.6264,813.5165,798.60803,794.9817,753.0769
1694132045.033,765.16486,817.5458,801.4286,811.50183,838.9011
1694132045.0860002,759.12085,817.5458,799.011,813.5165,792.5641
1694132045.0870001,765.16486,813.1135,799.81683,796.99634,767.1795
1694132045.0870001,769.59705,814.3223,800.6227,777.6557,722.0513
1694132045.088,764.35895,815.5311,799.81683,780.87915,701.50183
1694132045.088,763.1502,808.2784,801.8315,798.60803,763.5531
1694132045.089,763.1502,804.65204,802.23444,809.0842,927.5458
1694132045.093,768.3883,804.65204,803.44324,800.6227,1157.619
1694132045.093,774.0293,812.3077,806.26373,783.2967,940.84247
1694132045.094,768.3883,814.3223,805.8608,781.28204,628.1685
1694132045.094,765.16486,801.8315,803.44324,806.6667,802.6374
1694132045.095,769.59705,805.05493,803.44324,827.2161,993.22345
1694132045.095,772.8205,817.9487,802.23444,806.6667,849.7802
1694132045.1260002,778.46155,817.5458,803.8461,783.69965,640.65936
1694132045.127,777.6557,810.696,804.65204,789.34064,695.05493
1694132045.127,769.19415,811.50183,800.2198,809.89014,844.5421
1694132045.128,761.53845,820.3663,799.011,818.3516,754.68866
1694132045.129,762.3443,813.5165,797.3993,806.6667,697.47253
1694132045.129,761.9414,807.47253,795.38464,785.31134,761.13556
1694132045.1299999,757.50916,807.47253,794.57874,784.5055,792.1612
1694132045.1299999,753.8828,807.8755,794.9817,804.2491,716.4103
1694132045.131,751.06226,807.0696,791.75824,814.3223,696.26373
1694132045.132,754.2857,799.81683,789.34064,804.65204,949.304
1694132045.132,760.7326,803.8461,791.3553,782.8938,935.6044
1694132045.133,760.32965,810.696,796.99634,772.4176,643.8828
1694132045.176,756.30035,803.8461,799.81683,792.5641,673.69965
1694132045.177,755.89746,804.65204,801.02563,813.91943,806.6667
1694132045.177,759.92676,809.89014,801.4286,808.2784,806.6667
1694132045.178,759.92676,806.26373,799.81683,780.4762,685.78754
1694132045.1790001,760.7326,800.2198,799.41394,773.22345,683.7729
1694132045.18,762.3443,791.3553,799.41394,805.8608,1112.0879
1694132045.18,756.30035,800.2198,801.4286,823.1868,1184.2124
1694132045.181,755.89746,811.9048,800.6227,805.8608,759.92676
1694132045.1859999,764.35895,798.60803,799.81683,789.34064,759.92676
1694132045.187,759.12085,793.7729,795.78754,780.4762,894.90845
1694132045.187,750.65936,803.44324,795.38464,792.5641,738.1685
1694132045.188,743.4066,800.6227,798.20514,809.0842,682.96704
1694132045.2540002,739.7802,795.38464,799.011,806.6667,752.674
1694132045.255,749.85345,799.41394,801.02563,791.3553,712.381
1694132045.256,759.5238,805.4579,799.81683,776.4469,611.2454
1694132045.257,761.53845,803.44324,799.81683,789.7436,601.5751
1694132045.258,757.9121,800.2198,802.23444,814.7253,751.4652
1694132045.259,755.09155,799.011,798.60803,813.5165,841.31866
1694132045.26,761.13556,800.2198,794.9817,792.5641,792.1612
1694132045.261,767.1795,801.4286,792.96704,775.64105,740.989
1694132045.262,767.98535,791.75824,791.75824,790.54944,902.96704
1694132045.263,763.5531,791.75824,795.38464,822.381,1104.4323
1694132045.264,757.1062,811.50183,797.3993,815.9341,841.7216
1694132045.264,761.13556,809.0842,796.99634,787.326,658.7912
1694132045.296,764.35895,803.44324,796.5934,770.0,675.7143
1694132045.297,761.53845,803.8461,795.38464,778.86444,671.685
1694132045.2979999,757.1062,801.02563,794.9817,797.8022,682.96704
1694132045.299,756.7033,800.6227,796.99634,802.6374,761.13556
1694132045.299,757.50916,800.2198,796.1905,789.34064,786.52014
1694132045.3,761.13556,801.8315,799.81683,773.6264,649.5238
1694132045.3009999,765.56775,802.23444,801.02563,780.07324,614.4689
1694132045.302,766.3736,799.011,797.3993,799.011,768.7912
1694132045.303,768.3883,788.93774,800.2198,822.7839,1117.326
1694132045.303,771.2088,799.81683,800.6227,812.3077,1126.5934
1694132045.308,772.4176,815.5311,799.011,777.25275,700.293
1694132045.308,777.25275,809.89014,799.81683,780.4762,588.2784
1694132045.316,780.4762,816.337,801.02563,803.0403,673.2967
1694132045.317,779.67035,822.7839,801.02563,816.337,706.7399
1694132045.318,786.52014,816.337,797.8022,811.0989,703.1135
1694132045.319,795.78754,814.3223,790.9524,788.93774,678.1319
1694132045.32,799.41394,814.7253,791.75824,785.31134,651.9414
1694132045.3209999,796.1905,808.2784,790.9524,804.2491,785.7143
1694132045.3209999,790.14655,807.47253,792.96704,816.7399,835.6777
1694132045.3219998,780.4762,797.8022,796.5934,807.8755,964.21246
1694132045.323,781.685,801.02563,799.41394,790.54944,995.64105
1694132045.324,784.90845,814.3223,802.23444,785.7143,628.97437
1694132045.324,778.86444,806.6667,800.2198,798.20514,648.71796
1694132045.3270001,776.4469,809.0842,797.8022,813.91943,853.8095
1694132045.359,775.64105,810.293,795.38464,803.8461,830.0366
1694132045.36,778.86444,804.2491,794.17584,777.6557,701.50183
1694132045.3609998,786.52014,799.81683,793.36993,772.01465,678.5348
1694132045.362,788.1319,796.99634,790.54944,791.3553,736.55676
1694132045.3630002,785.7143,800.2198,790.14655,813.91943,812.71063
1694132045.3630002,794.57874,805.8608,792.96704,813.1135,790.54944
1694132045.364,805.4579,806.6667,794.9817,799.011,794.57874
1694132045.365,813.5165,800.6227,796.1905,797.3993,1066.1538
1694132045.365,811.0989,812.71063,794.17584,801.4286,1044.7986
1694132045.3660002,809.0842,819.9634,792.1612,813.5165,751.4652
1694132045.367,821.1722,808.68134,789.7436,819.15753,772.8205
1694132045.367,827.619,805.4579,789.7436,796.99634,750.2564
1694132045.427,825.6044,803.8461,788.1319,780.4762,665.64105
1694132045.428,827.2161,809.0842,786.52014,791.3553,674.90845
1694132045.429,821.5751,804.65204,789.34064,817.1429,873.1502
1694132045.43,808.68134,799.81683,787.72894,814.3223,932.7839
1694132045.431,802.23444,805.4579,785.7143,787.326,714.3956
1694132045.431,805.4579,799.011,787.72894,776.04395,634.61536
1694132045.432,802.23444,792.96704,790.9524,793.36993,944.4689
1694132045.432,790.14655,799.81683,792.5641,807.8755,1143.1135
1694132045.4329998,788.93774,808.2784,792.1612,798.20514,846.55676
1694132045.4339998,795.38464,802.6374,792.1612,784.5055,719.6337
1694132045.4339998,798.20514,804.65204,791.75824,770.80585,738.1685
1694132045.4350002,800.2198,808.2784,793.36993,776.04395,755.09155
1694132045.476,798.60803,811.50183,798.60803,802.6374,714.7985
1694132045.4780002,802.23444,806.26373,799.41394,821.978,779.67035
1694132045.479,811.9048,802.6374,798.20514,809.89014,800.2198
1694132045.48,821.5751,806.6667,800.6227,790.54944,734.5421
1694132045.481,822.381,805.8608,801.8315,795.78754,709.9634
1694132045.4819999,817.1429,805.8608,797.3993,815.5311,801.4286
1694132045.483,819.9634,801.02563,795.38464,832.8571,1140.2931
1694132045.484,819.5604,811.50183,793.36993,817.1429,1147.5458
1694132045.484,819.9634,825.2015,788.93774,784.5055,720.0366
1694132045.485,821.1722,809.89014,787.326,778.0586,746.2271
1694132045.486,809.4872,807.0696,790.14655,797.3993,905.38464
1694132045.487,789.34064,814.3223,789.7436,802.6374,780.4762
1694132045.527,783.69965,805.8608,790.14655,787.72894,700.696
1694132045.528,787.326,802.23444,794.57874,771.2088,682.96704
1694132045.532,783.2967,801.02563,794.9817,768.7912,651.13556
1694132045.533,771.2088,798.20514,792.96704,787.72894,662.01465
1694132045.533,764.35895,795.78754,793.7729,798.20514,715.2015
1694132045.5340002,768.3883,794.9817,789.34064,789.7436,811.9048
1694132045.5340002,771.6117,799.011,786.1172,773.22345,850.18317
1694132045.5340002,776.8498,806.26373,792.5641,769.19415,785.31134
1694132045.535,780.4762,813.1135,796.99634,793.7729,684.57874
1694132045.535,784.5055,804.2491,797.3993,822.7839,935.6044
1694132045.536,786.9231,801.02563,797.3993,821.978,1090.7325
1694132045.536,786.9231,809.89014,796.1905,793.7729,745.82416
1694132045.5830002,791.75824,801.4286,794.57874,782.49084,658.3883
1694132045.585,788.1319,803.44324,794.17584,798.20514,731.31866
1694132045.586,784.10254,815.5311,793.36993,818.3516,792.5641
1694132045.5870001,786.52014,813.5165,791.3553,816.337,758.71796
1694132045.588,791.3553,801.02563,788.93774,794.9817,769.19415
1694132045.589,792.96704,798.60803,782.8938,781.685,875.16486
1694132045.5900002,792.96704,808.68134,786.52014,797.3993,812.3077
1694132045.5900002,784.10254,818.7546,789.34064,813.1135,735.7509
1694132045.591,772.01465,815.5311,780.87915,803.0403,853.00366
1694132045.592,778.0586,815.5311,784.90845,790.14655,992.01465
1694132045.592,787.326,825.6044,791.75824,776.04395,772.01465
1694132045.593,791.3553,825.2015,796.1905,788.5348,633.4066
1694132045.655,795.78754,814.7253,802.6374,824.7985,842.1245
1694132045.656,793.7729,811.0989,808.68134,838.9011,1021.4286
1694132045.6569998,792.1612,823.9927,815.9341,809.0842,800.6227
1694132045.6579998,796.5934,819.15753,817.5458,785.31134,662.4176
1694132045.6620002,790.9524,810.293,818.7546,798.60803,722.0513
1694132045.6620002,785.7143,808.68134,819.5604,819.5604,812.3077
1694132045.663,786.52014,815.12823,818.3516,823.9927,815.5311
1694132045.664,791.75824,816.7399,817.1429,805.4579,726.4835
1694132045.664,799.81683,815.12823,820.7692,795.38464,833.2601
1694132045.665,797.3993,821.5751,821.978,802.23444,868.71796
1694132045.666,790.54944,821.978,820.7692,814.3223,739.3773
1694132045.666,787.72894,815.5311,821.1722,819.5604,810.696
1694132045.668,785.7143,810.696,819.5604,804.2491,912.23444
1694132045.669,784.10254,812.71063,822.381,781.685,796.5934
1694132045.669,778.86444,818.7546,823.9927,772.01465,591.50183
1694132045.67,772.8205,808.68134,824.3956,791.3553,695.8608
1694132045.671,772.4176,803.0403,824.7985,809.4872,867.9121
1694132045.671,775.64105,805.8608,823.5897,791.3553,794.17584
1694132045.672,775.2381,804.65204,819.15753,764.35895,686.5934
1694132045.672,780.4762,803.44324,817.9487,765.56775,712.7839
1694132045.6729999,785.7143,796.5934,819.15753,803.8461,1064.1392
1694132045.675,782.0879,805.4579,821.5751,820.3663,1137.8755
1694132045.675,781.685,813.5165,820.7692,798.20514,771.2088
1694132045.676,791.3553,805.8608,815.12823,779.67035,677.72894
1694132045.703,794.17584,809.89014,817.5458,783.69965,661.2088
1694132045.704,790.9524,813.91943,820.3663,808.2784,701.0989
1694132045.705,790.14655,813.1135,819.5604,821.5751,738.97437
1694132045.705,789.7436,814.7253,819.9634,814.7253,801.02563
1694132045.7059999,794.17584,815.5311,818.3516,796.1905,801.8315
1694132045.7059999,794.17584,811.9048,817.1429,787.326,724.87177
1694132045.71,791.75824,814.7253,817.5458,805.8608,658.3883
1694132045.711,793.7729,811.0989,818.3516,831.2454,845.34796
1694132045.711,787.72894,810.696,816.337,824.3956,1010.14655
1694132045.712,785.7143,822.381,815.12823,789.34064,718.022
1694132045.712,792.5641,812.71063,812.3077,777.6557,603.9927
1694132045.712,787.326,809.0842,809.89014,796.99634,670.4762
1694132045.7129998,778.46155,812.3077,806.26373,811.50183,774.0293
1694132045.714,778.46155,806.6667,805.05493,805.8608,783.2967
1694132045.714,780.4762,802.6374,807.8755,791.3553,763.5531
1694132045.7150002,778.46155,801.8315,808.68134,781.685,741.39197
1694132045.7150002,773.22345,803.0403,804.2491,789.34064,781.685
1694132045.716,770.0,804.65204,802.23444,811.0989,847.3626
1694132045.716,768.3883,800.6227,807.0696,813.91943,859.0476
1694132045.717,772.01465,786.1172,805.8608,799.011,1148.3517
1694132045.717,774.0293,795.78754,802.6374,778.86444,1173.7362
1694132045.7180002,773.22345,813.91943,804.2491,776.04395,772.4176
1694132045.7180002,778.86444,804.65204,805.8608,793.36993,725.2747
1694132045.719,782.8938,800.2198,803.44324,800.2198,817.5458
1694132045.8049998,785.7143,803.44324,802.23444,783.69965,714.7985
1694132045.8060002,790.14655,802.6374,803.0403,766.3736,608.4249
1694132045.8070002,791.75824,797.8022,798.60803,775.64105,738.1685
1694132045.808,787.326,804.65204,793.36993,791.3553,845.7509
1694132045.808,782.49084,806.6667,792.5641,792.1612,794.57874
1694132045.809,778.0586,799.41394,792.5641,780.07324,729.304
1694132045.81,777.6557,794.17584,798.20514,772.8205,923.5165
1694132045.81,780.4762,802.23444,803.0403,780.4762,1001.28204
1694132045.815,781.685,821.5751,803.8461,792.5641,740.989
1694132045.815,777.6557,813.1135,805.4579,807.0696,716.4103
1694132045.816,773.22345,803.0403,806.6667,805.4579,763.95605
1694132045.816,778.86444,811.9048,813.91943,792.1612,693.44324
1694132045.839,781.685,817.1429,813.91943,792.5641,614.87177
1694132045.84,777.6557,812.3077,812.71063,812.71063,706.337
1694132045.8409998,778.46155,814.7253,811.0989,822.7839,806.26373
1694132045.8419998,783.2967,815.5311,809.4872,807.8755,793.7729
1694132045.8430002,790.9524,809.4872,808.2784,788.93774,676.52014
1694132045.844,796.99634,806.26373,805.4579,786.52014,651.13556
1694132045.845,793.36993,796.99634,806.6667,813.1135,1076.227
1694132045.8460002,789.34064,805.05493,807.0696,824.3956,1143.1135
1694132045.8460002,790.54944,815.5311,805.05493,804.65204,709.9634
1694132045.8470001,793.7729,803.0403,804.2491,792.5641,769.19415
1694132045.848,797.8022,800.6227,800.2198,791.3553,944.4689
1694132045.848,797.8022,814.3223,802.23444,804.2491,805.05493
1694132045.884,797.3993,812.3077,804.2491,819.5604,736.9597
1694132045.885,804.2491,809.0842,807.0696,817.1429,815.12823
1694132045.8860002,802.23444,809.4872,807.8755,792.1612,768.3883
1694132045.887,790.9524,805.4579,804.65204,774.83514,626.9597
1694132045.889,781.685,802.23444,802.6374,787.72894,642.27106
1694132045.889,776.04395,799.011,802.23444,807.8755,840.9158
1694132045.8899999,777.6557,800.2198,802.23444,806.6667,901.75824
1694132045.891,788.1319,807.0696,805.05493,790.14655,748.24176
1694132045.891,791.75824,805.4579,808.68134,780.4762,620.5128
1694132045.892,791.3553,798.20514,808.68134,801.8315,846.9597
1694132045.896,788.93774,806.6667,806.26373,816.7399,966.2271
1694132045.8969998,778.0586,809.89014,802.6374,799.011,749.0476
1694132045.923,778.0586,799.011,800.2198,775.64105,753.47986
1694132045.924,782.49084,799.41394,800.2198,765.16486,764.35895
1694132045.925,780.87915,802.23444,800.2198,778.0586,713.5897
1694132045.925,777.6557,798.60803,797.3993,800.6227,676.9231
1694132045.926,771.2088,792.5641,800.2198,810.293,755.09155
1694132045.926,767.1795,789.7436,800.6227,788.1319,871.13556
1694132045.927,761.53845,796.1905,798.60803,767.5824,807.0696
1694132045.928,753.8828,801.8315,799.81683,776.4469,686.99634
1694132045.928,754.2857,801.4286,798.60803,801.8315,722.8571
1694132045.929,749.85345,796.99634,794.17584,812.71063,1040.3663
1694132045.929,743.8095,806.6667,795.78754,786.52014,904.17584
1694132045.9299998,746.2271,808.2784,799.011,762.3443,564.10254
1694132045.964,743.8095,803.0403,797.8022,772.8205,644.2857
1694132045.965,739.7802,803.8461,795.38464,797.3993,755.4945
1694132045.966,740.989,801.02563,796.1905,806.26373,788.1319
1694132045.967,743.4066,798.60803,794.9817,784.10254,744.21246
1694132045.968,748.24176,799.81683,794.17584,772.4176,751.06226
1694132045.9689999,745.0183,800.2198,797.3993,782.0879,763.95605
1694132045.9699998,735.34796,801.8315,801.02563,798.20514,708.7546
1694132045.971,733.73627,807.47253,801.02563,807.47253,684.57874
1694132045.971,734.5421,801.8315,799.41394,800.2198,869.12085
1694132045.972,737.76556,807.0696,799.011,788.93774,936.4103
1694132045.973,735.7509,817.5458,800.2198,781.685,664.43225
1694132045.9740002,736.55676,808.68134,800.2198,800.6227,724.87177
1694132046.022,740.18317,805.8608,800.2198,820.7692,822.381
1694132046.023,736.1539,808.2784,795.38464,805.8608,785.31134
1694132046.024,740.989,812.3077,793.7729,786.9231,649.5238
1694132046.0249999,745.82416,810.293,799.81683,786.1172,630.58606
1694132046.027,736.9597,806.26373,800.6227,798.20514,750.2564
1694132046.029,732.52747,810.696,800.2198,811.50183,817.1429
1694132046.029,736.55676,807.0696,804.65204,799.41394,765.9707
1694132046.0300002,742.6007,804.65204,806.26373,781.685,754.68866
1694132046.0310001,745.0183,801.8315,803.8461,789.7436,1097.5824
1694132046.032,736.55676,808.2784,805.4579,815.12823,1138.2784
1694132046.032,734.94507,816.337,809.0842,819.5604,804.65204
1694132046.033,743.00366,807.0696,809.0842,810.293,758.315
1694132046.077,746.63007,805.4579,805.05493,792.1612,748.6447
1694132046.078,746.2271,811.0989,801.8315,784.10254,677.326
1694132046.078,747.03296,809.89014,804.65204,805.05493,723.663
1694132046.079,747.03296,807.0696,807.47253,820.3663,777.6557
1694132046.079,747.03296,810.696,811.0989,819.5604,786.52014
1694132046.08,749.0476,811.9048,813.5165,801.02563,794.17584
1694132046.08,748.24176,813.1135,809.89014,782.49084,686.1905
1694132046.0809999,749.85345,808.68134,808.68134,799.81683,889.2674
1694132046.0809999,747.8388,812.3077,809.0842,825.2015,1208.3883
1694132046.0819998,743.4066,824.7985,812.71063,818.3516,890.87915
1694132046.0819998,755.09155,819.5604,818.3516,795.78754,641.4652
1694132046.0830002,760.32965,813.5165,815.12823,779.67035,712.381
1694132046.105,757.1062,817.9487,813.91943,790.9524,754.68866
1694132046.107,754.2857,820.3663,817.1429,816.7399,748.24176
1694132046.112,754.68866,815.12823,815.5311,821.5751,766.3736
1694132046.113,757.50916,813.91943,809.4872,797.8022,796.5934
1694132046.113,760.7326,824.3956,809.0842,786.9231,729.707
1694132046.1139998,758.315,826.0073,815.12823,797.3993,708.3516
1694132046.115,751.06226,820.7692,813.5165,812.3077,857.03296
1694132046.116,755.89746,808.68134,811.50183,832.4542,1193.0769
1694132046.116,761.9414,819.5604,811.50183,815.9341,1129.011
1694132046.1169999,764.35895,832.8571,812.3077,786.9231,666.4469
1694132046.1169999,760.7326,815.12823,813.1135,797.3993,669.67035
1694132046.118,747.8388,810.696,805.4579,815.9341,776.4469
1694132046.185,743.8095,815.5311,803.44324,816.337,696.26373
1694132046.1859999,751.06226,812.3077,802.6374,799.011,689.41394
1694132046.187,760.32965,809.89014,801.8315,788.1319,741.39197
1694132046.188,756.7033,811.9048,803.44324,793.7729,738.5714
1694132046.189,750.65936,813.5165,805.05493,806.6667,721.6484
1694132046.19,751.4652,812.71063,805.4579,815.5311,789.34064
1694132046.191,755.89746,802.6374,802.23444,810.696,994.0293
1694132046.192,758.71796,803.8461,802.23444,792.96704,969.45056
1694132046.1929998,753.47986,817.5458,803.0403,781.685,660.40295
1694132046.1929998,751.8681,807.8755,801.4286,799.011,672.8938
1694132046.1939998,751.06226,804.2491,800.2198,808.68134,738.1685
1694132046.1950002,747.4359,807.47253,797.8022,789.34064,724.4689
1694132046.225,747.03296,803.0403,798.20514,769.19415,640.2564
1694132046.225,752.674,798.60803,802.23444,775.2381,677.326
1694132046.2259998,750.65936,802.6374,803.0403,799.41394,842.1245
1694132046.227,749.85345,807.0696,802.6374,814.3223,826.8132
1694132046.23,758.71796,802.6374,800.6227,810.293,776.4469
1694132046.231,765.9707,799.011,797.3993,785.7143,771.6117
1694132046.232,772.8205,792.96704,797.3993,784.10254,1031.0989
1694132046.232,768.3883,806.6667,799.41394,806.26373,1137.0696
1694132046.233,760.32965,821.5751,797.8022,809.89014,802.6374
1694132046.234,762.74725,813.5165,796.1905,803.44324,776.4469
1694132046.234,766.77655,807.8755,796.5934,784.10254,768.7912
1694132046.2350001,766.77655,808.2784,797.8022,773.22345,651.13556
1694132046.276,763.1502,812.3077,801.4286,790.9524,653.1502
1694132046.277,756.30035,807.0696,803.0403,809.89014,716.0073
1694132046.278,760.7326,803.44324,804.2491,813.5165,732.1245
1694132046.279,769.59705,805.4579,802.6374,797.3993,676.9231
1694132046.279,769.59705,806.26373,796.99634,781.685,631.39197
1694132046.28,770.80585,800.2198,799.011,801.8315,927.5458
1694132046.281,770.0,799.011,797.8022,823.5897,1190.2565
1694132046.281,765.56775,811.50183,793.7729,811.9048,880.80585
1694132046.2819998,767.98535,804.2491,799.011,794.17584,639.45056
1694132046.283,772.4176,803.8461,803.0403,786.1172,626.55676
1694132046.284,768.7912,806.26373,797.8022,790.54944,701.9048
1694132046.284,757.50916,797.8022,790.9524,799.41394,723.2601
1694132046.3209999,755.4945,790.54944,790.54944,801.02563,703.91943
1694132046.3219998,763.5531,788.5348,794.57874,786.1172,769.19415
1694132046.3219998,760.7326,793.7729,793.7729,767.5824,751.06226
1694132046.323,761.13556,788.93774,790.54944,777.6557,684.9817
1694132046.324,761.13556,783.2967,790.54944,794.57874,725.6777
1694132046.324,757.9121,777.25275,794.17584,806.26373,1163.2601
1694132046.328,755.09155,780.07324,792.96704,791.75824,1180.586
1694132046.328,761.13556,790.9524,795.38464,764.35895,722.4542
1694132046.329,762.74725,783.69965,793.7729,773.22345,716.0073
1694132046.33,754.68866,780.07324,788.93774,799.81683,946.08057
1694132046.33,747.03296,789.34064,789.7436,805.4579,865.09155
1694132046.331,749.45056,787.326,794.57874,788.1319,653.1502
1694132046.359,761.13556,785.31134,795.38464,776.4469,638.24176
1694132046.36,760.7326,790.14655,791.3553,779.2674,625.7509
1694132046.3609998,757.9121,792.5641,795.78754,798.60803,639.85345
1694132046.362,766.77655,789.34064,798.60803,814.7253,708.7546
1694132046.362,773.22345,788.1319,796.1905,807.0696,783.2967
1694132046.3630002,774.83514,788.1319,799.41394,789.34064,771.2088
1694132046.364,769.59705,786.1172,796.99634,786.9231,786.9231
1694132046.364,758.71796,786.52014,791.75824,799.41394,813.1135
1694132046.365,755.89746,785.31134,796.99634,812.3077,938.4249
1694132046.365,762.3443,793.7729,798.60803,802.6374,944.4689
1694132046.3660002,767.1795,798.20514,792.5641,774.83514,702.71063
1694132046.3660002,767.5824,792.1612,789.7436,767.5824,608.4249
1694132046.4099998,770.0,786.52014,792.1612,802.23444,897.326
1694132046.412,772.8205,794.9817,798.20514,826.0073,1006.52014
1694132046.4129999,777.25275,805.4579,794.17584,803.0403,738.1685
1694132046.414,784.10254,797.3993,789.7436,777.6557,717.2161
1694132046.416,787.72894,794.17584,792.5641,773.22345,781.685
1694132046.4169998,781.685,794.57874,790.54944,787.326,811.9048
1694132046.4190001,777.25275,786.9231,790.14655,803.44324,831.6484
1694132046.42,781.685,781.685,791.75824,798.20514,797.8022
1694132046.4259999,795.38464,776.04395,791.75824,790.54944,1039.9634
1694132046.427,800.2198,786.9231,794.17584,786.9231,985.16486
1694132046.427,794.9817,802.6374,794.9817,791.3553,674.90845
1694132046.428,796.1905,793.7729,793.7729,808.2784,827.619
1694132046.4899998,801.8315,792.1612,795.78754,805.4579,828.8278
1694132046.4910002,807.0696,800.6227,794.17584,782.49084,685.78754
1694132046.493,807.8755,800.6227,791.3553,764.35895,619.707
1694132046.493,804.65204,795.78754,790.54944,782.8938,788.5348
1694132046.4940002,793.7729,799.011,791.3553,802.23444,872.3443
1694132046.4950001,794.17584,805.4579,793.7729,802.6374,749.0476
1694132046.4950001,801.8315,805.05493,797.3993,787.72894,685.78754
1694132046.496,803.44324,796.1905,796.99634,774.0293,835.6777
1694132046.497,806.26373,801.8315,803.0403,793.7729,962.6007
1694132046.497,806.26373,812.3077,809.0842,818.3516,775.64105
1694132046.498,804.65204,801.4286,808.2784,825.2015,773.22345
1694132046.498,811.50183,801.02563,804.2491,804.2491,763.95605
1694132046.5,815.5311,805.8608,802.6374,784.5055,697.8755
1694132046.501,811.9048,805.4579,804.65204,788.93774,606.8132
1694132046.502,810.293,803.8461,802.6374,806.26373,705.5311
1694132046.503,803.8461,805.4579,803.8461,820.3663,882.01465
1694132046.504,806.26373,813.91943,804.2491,803.8461,840.9158
1694132046.5049999,812.71063,814.3223,804.65204,780.87915,755.4945
1694132046.5059998,811.50183,809.4872,807.0696,781.685,694.2491
1694132046.507,808.68134,801.8315,809.4872,813.5165,1108.4615
1694132046.507,803.8461,809.89014,810.696,826.8132,1244.652
1694132046.508,800.6227,824.3956,810.696,799.81683,808.68134
1694132046.512,807.0696,816.7399,810.696,780.4762,712.7839
1694132046.513,815.9341,816.7399,811.50183,787.72894,705.12823
1694132046.541,813.1135,818.7546,808.68134,801.4286,671.685
1694132046.542,809.4872,815.9341,807.47253,807.47253,734.1392
1694132046.543,817.5458,819.9634,811.50183,800.2198,817.5458
1694132046.544,820.3663,821.978,809.89014,778.86444,738.97437
1694132046.544,815.12823,819.5604,807.47253,774.43225,662.01465
1694132046.5449998,811.9048,821.978,809.89014,794.17584,765.16486
1694132046.5449998,811.0989,814.3223,810.696,813.91943,1093.956
1694132046.5459998,815.9341,817.5458,809.0842,809.0842,1230.9524
1694132046.5470002,820.3663,831.6484,808.2784,778.86444,824.7985
1694132046.548,823.1868,822.381,810.696,776.8498,637.4359
1694132046.548,816.7399,812.71063,811.0989,803.44324,726.4835
1694132046.548,801.4286,814.3223,807.47253,816.337,768.7912
1694132046.5809999,800.2198,816.337,807.0696,805.8608,706.337
1694132046.582,807.47253,813.5165,806.6667,789.34064,634.21246
1694132046.5830002,811.50183,811.9048,801.8315,783.69965,678.93774
1694132046.584,807.47253,814.3223,799.011,792.5641,697.8755
1694132046.584,805.4579,813.91943,802.6374,811.0989,715.6044
1694132046.585,810.696,810.696,801.02563,811.50183,802.6374
1694132046.585,814.7253,811.50183,798.20514,784.5055,795.78754
1694132046.586,814.7253,814.3223,799.41394,774.83514,719.2308
1694132046.586,800.2198,819.15753,795.38464,784.90845,702.71063
1694132046.5870001,792.5641,816.337,794.9817,800.6227,764.35895
1694132046.588,792.96704,799.011,793.7729,806.26373,1095.1648
1694132046.588,796.99634,805.8608,790.54944,784.5055,1073.0037
1694132046.649,802.6374,816.337,791.3553,766.77655,648.71796
1694132046.651,802.6374,815.12823,794.17584,781.685,608.8278
1694132046.651,798.60803,817.1429,797.8022,802.23444,735.7509
1694132046.652,796.99634,817.9487,797.3993,803.0403,726.8865
1694132046.652,799.41394,813.5165,794.9817,783.2967,666.4469
1694132046.6529999,797.3993,806.6667,790.9524,765.56775,700.293
1694132046.6529999,790.54944,805.8608,784.5055,776.8498,747.4359
1694132046.654,786.9231,810.293,785.7143,795.78754,756.7033
1694132046.654,790.54944,810.293,789.7436,801.4286,730.5128
1694132046.655,795.78754,801.8315,789.7436,789.34064,925.12823
1694132046.656,799.41394,808.68134,794.57874,774.83514,942.4542
1694132046.656,797.8022,820.3663,794.9817,776.4469,707.1429
1694132046.684,795.78754,813.5165,796.1905,803.0403,747.4359
1694132046.685,796.5934,811.50183,799.81683,814.7253,852.6007
1694132046.685,795.78754,816.7399,796.1905,791.3553,815.12823
1694132046.686,798.20514,814.7253,795.78754,773.6264,668.0586
1694132046.687,798.20514,808.68134,797.8022,774.0293,690.2198
1694132046.687,796.1905,811.50183,797.3993,795.38464,957.3626
1694132046.688,793.36993,820.3663,795.78754,806.6667,944.0659
1694132046.688,794.9817,824.3956,798.20514,791.3553,722.8571
1694132046.689,799.011,816.7399,801.4286,776.8498,680.9524
1694132046.689,796.1905,805.05493,802.23444,785.7143,861.06226
1694132046.6899998,787.326,810.696,802.23444,803.0403,809.0842
1694132046.6899998,786.52014,812.71063,799.81683,813.1135,692.6374
1694132046.744,786.1172,805.4579,796.99634,804.2491,753.8828
1694132046.745,786.9231,807.0696,797.3993,785.31134,732.1245
1694132046.7489998,793.36993,815.5311,796.1905,778.46155,646.7033
1694132046.7500002,790.9524,812.71063,788.93774,791.75824,649.92676
1694132046.7510002,792.96704,803.44324,786.52014,813.5165,870.32965
1694132046.7510002,799.41394,803.8461,789.34064,805.05493,937.619
1694132046.752,800.6227,813.1135,789.34064,781.28204,775.64105
1694132046.752,804.65204,817.1429,789.7436,780.07324,632.6007
1694132046.753,803.8461,805.4579,795.38464,805.8608,840.10986
1694132046.753,796.99634,806.26373,799.011,817.1429,1051.6483
1694132046.754,791.3553,813.91943,796.99634,794.57874,780.87915
1694132046.755,792.1612,803.44324,791.3553,772.01465,640.2564
1694132046.795,794.9817,804.2491,792.1612,767.1795,648.71796
1694132046.796,786.9231,805.8608,792.1612,779.2674,702.71063
1694132046.797,788.93774,803.8461,790.9524,798.20514,703.5165
1694132046.797,796.5934,803.8461,791.3553,796.99634,753.8828
1694132046.798,797.3993,803.0403,794.17584,779.67035,865.4945
1694132046.799,794.17584,801.8315,794.17584,775.2381,794.17584
1694132046.8,785.31134,797.8022,792.1612,786.9231,706.7399
1694132046.8009999,785.31134,800.6227,792.5641,804.65204,810.696
1694132046.8019998,793.36993,800.6227,794.17584,818.3516,1158.8279
1694132046.803,796.1905,808.68134,792.96704,796.5934,1101.6117
1694132046.804,796.1905,816.7399,792.1612,768.3883,673.69965
1694132046.8049998,792.96704,806.26373,790.9524,780.87915,664.43225
1694132046.811,790.14655,804.65204,788.93774,799.41394,740.989
1694132046.813,789.7436,809.4872,792.96704,806.26373,702.71063
1694132046.8140001,797.3993,812.3077,797.3993,792.1612,678.1319
1694132046.816,802.23444,807.0696,797.3993,772.4176,676.1172
1694132046.82,801.8315,807.0696,797.8022,786.1172,701.9048
1694132046.8209999,801.4286,809.0842,796.5934,809.89014,767.1795
1694132046.822,796.5934,809.89014,795.38464,808.2784,808.2784
1694132046.822,796.5934,807.47253,796.1905,796.1905,946.4835
1694132046.823,793.7729,808.2784,797.3993,788.1319,1028.6813
1694132046.824,790.54944,823.1868,799.81683,788.93774,763.5531
1694132046.824,796.5934,820.3663,804.65204,810.696,681.3553
1694132046.825,797.8022,815.12823,805.4579,821.5751,773.6264
1694132046.878,806.6667,823.9927,806.6667,812.3077,747.4359
1694132046.879,810.696,822.7839,805.4579,792.96704,661.6117
1694132046.88,802.23444,807.0696,799.81683,782.49084,651.53845
1694132046.88,796.5934,803.8461,797.3993,794.17584,741.39197
1694132046.881,793.7729,811.9048,794.57874,801.4286,808.68134
1694132046.882,794.57874,809.89014,797.3993,788.93774,816.7399
1694132046.8830001,800.6227,809.0842,802.23444,776.04395,796.5934
1694132046.884,800.2198,804.2491,798.60803,788.5348,1031.5018
1694132046.884,795.38464,810.293,796.1905,803.44324,1091.1355
1694132046.885,795.38464,823.9927,800.2198,805.4579,807.47253
1694132046.885,798.60803,814.7253,797.8022,800.2198,784.5055
1694132046.8860002,797.3993,808.68134,791.75824,784.5055,770.80585
1694132046.931,795.78754,818.3516,794.57874,780.87915,624.1392
1694132046.932,795.78754,813.91943,794.9817,799.41394,655.16486
1694132046.9329998,788.1319,801.02563,790.9524,810.696,788.93774
1694132046.934,787.72894,803.8461,793.7729,799.81683,794.9817
1694132046.9350002,796.99634,809.89014,797.8022,779.2674,693.0403
1694132046.9350002,801.02563,807.0696,800.2198,779.67035,689.011
1694132046.941,796.5934,799.011,801.02563,809.89014,1009.34064
1694132046.9420002,794.9817,805.4579,801.8315,832.0513,1167.2894
1694132046.9420002,794.57874,820.7692,804.65204,812.3077,792.5641
1694132046.943,792.5641,814.7253,799.011,778.46155,625.7509
1694132046.944,792.96704,811.9048,794.17584,767.98535,649.92676
1694132046.945,793.7729,813.5165,796.1905,784.5055,706.7399
1694132046.973,794.57874,817.9487,797.8022,799.81683,738.97437
1694132046.9740002,793.7729,819.15753,799.011,797.3993,736.55676
1694132046.9750001,794.9817,815.12823,794.9817,781.28204,747.4359
1694132046.9750001,795.38464,818.3516,791.75824,771.2088,679.7436
1694132046.976,792.5641,814.7253,791.3553,784.90845,664.0293
1694132046.976,788.5348,812.71063,794.17584,804.2491,770.0
1694132046.977,788.1319,806.6667,796.1905,814.7253,1164.8718
1694132046.977,786.52014,809.4872,795.78754,781.685,1134.652
1694132046.978,790.14655,821.5751,801.02563,755.4945,648.315
1694132046.978,790.54944,813.5165,804.65204,781.685,710.3663
1694132046.979,781.685,807.0696,803.0403,803.0403,804.2491
1694132046.979,781.685,816.337,803.0403,800.6227,736.9597
1694132047.0140002,790.14655,820.3663,801.8315,785.7143,738.5714
1694132047.015,794.9817,810.696,800.6227,775.64105,759.12085
1694132047.016,793.7729,809.89014,802.23444,781.28204,748.6447
1694132047.017,790.14655,816.337,802.23444,806.6667,735.34796
1694132047.018,790.9524,812.3077,803.44324,821.5751,789.7436
1694132047.018,792.5641,801.8315,801.8315,804.2491,880.40295
1694132047.019,791.75824,802.6374,798.60803,784.90845,829.6337
1694132047.02,784.5055,809.0842,792.1612,784.10254,726.4835
1694132047.0249999,782.0879,809.4872,794.9817,804.65204,689.81683
1694132047.0249999,784.10254,802.6374,803.44324,821.5751,924.7253
1694132047.0259998,782.49084,808.68134,805.05493,807.8755,1118.1318
1694132047.0259998,786.9231,819.9634,805.05493,779.67035,765.9707
1694132047.055,788.1319,812.3077,803.8461,780.4762,668.86444
1694132047.056,784.90845,809.4872,799.81683,803.0403,781.28204
1694132047.057,783.69965,815.12823,795.38464,814.7253,761.9414
1694132047.0579998,791.75824,812.3077,799.011,804.65204,712.381
1694132047.059,801.4286,804.2491,798.20514,784.10254,743.4066
1694132047.06,800.2198,806.6667,796.5934,786.52014,878.7912
1694132047.06,794.17584,816.337,797.8022,810.293,848.1685
1694132047.0609999,794.57874,816.7399,796.5934,818.3516,855.82416
1694132047.0609999,795.38464,808.2784,797.3993,805.8608,894.10254
1694132047.062,798.60803,802.6374,800.2198,795.38464,1054.4689
1694132047.062,799.81683,816.7399,801.8315,786.1172,952.1245
1694132047.063,796.1905,819.15753,803.44324,797.3993,637.8388
1694132047.095,789.7436,803.8461,803.8461,816.337,724.0659
1694132047.096,789.7436,804.65204,800.6227,800.6227,752.674
1694132047.097,794.9817,809.4872,797.3993,774.43225,649.12085
1694132047.097,800.2198,811.0989,798.60803,775.2381,641.06226
1694132047.0979998,802.6374,808.2784,800.6227,799.81683,733.73627
1694132047.0979998,800.6227,805.05493,799.81683,816.7399,795.78754
1694132047.099,804.2491,809.4872,804.2491,811.9048,822.7839
1694132047.099,814.3223,812.71063,808.68134,794.9817,735.7509
1694132047.1,819.5604,803.8461,810.293,791.75824,819.9634
1694132047.1,813.91943,805.05493,809.4872,803.44324,1038.3517
1694132047.104,805.05493,817.9487,807.47253,811.50183,796.99634
1694132047.105,809.89014,811.9048,807.8755,814.3223,675.7143
1694132047.1569998,817.9487,808.68134,807.8755,791.75824,677.326
1694132047.1580002,817.9487,814.3223,806.6667,776.4469,626.9597
1694132047.1590002,816.337,815.12823,805.8608,799.011,606.8132
1694132047.16,816.7399,814.3223,805.4579,819.9634,717.2161
1694132047.16,816.7399,812.71063,801.4286,817.1429,840.9158
1694132047.161,821.5751,813.5165,802.23444,800.2198,838.0952
1694132047.161,824.3956,818.7546,805.05493,791.75824,769.59705
1694132047.162,818.7546,819.9634,802.23444,804.2491,716.0073
1694132047.163,819.9634,811.0989,803.44324,835.6777,1036.337
1694132047.163,814.7253,813.91943,800.6227,835.2747,1124.5787
1694132047.164,815.5311,815.9341,801.8315,804.2491,724.0659
1694132047.165,825.2015,800.6227,803.0403,791.3553,680.54944
1694132047.201,819.15753,803.8461,797.3993,803.8461,763.5531
1694132047.203,808.2784,813.1135,795.78754,822.381,693.0403
1694132047.204,805.05493,809.4872,796.5934,823.9927,723.2601
1694132047.204,807.47253,809.4872,795.78754,800.6227,757.9121
1694132047.205,810.293,810.293,792.1612,773.22345,695.05493
1694132047.206,808.68134,805.8608,790.54944,774.83514,669.67035
1694132047.207,797.8022,805.05493,791.75824,793.7729,759.5238
1694132047.207,794.9817,797.3993,791.3553,804.65204,979.5238
1694132047.208,794.9817,797.3993,789.34064,787.72894,1032.3077
1694132047.2089999,791.75824,807.47253,784.90845,760.32965,716.8132
1694132047.2099998,796.5934,803.0403,784.90845,767.98535,661.6117
1694132047.2099998,795.38464,802.23444,785.31134,794.57874,747.03296
1694132047.252,792.96704,805.05493,786.52014,809.89014,818.7546
1694132047.253,794.9817,808.2784,787.326,794.9817,804.65204
1694132047.255,799.81683,803.44324,785.31134,773.22345,709.15753
1694132047.256,803.0403,800.6227,785.7143,773.6264,814.7253
1694132047.257,798.20514,802.23444,784.5055,786.52014,848.1685
1694132047.258,790.9524,801.8315,786.9231,802.6374,786.52014
1694132047.259,789.34064,799.81683,788.1319,791.75824,857.4359
1694132047.26,797.3993,789.7436,786.9231,776.4469,1112.4908
1694132047.261,797.8022,802.23444,783.2967,779.67035,1052.0513
1694132047.261,791.75824,812.3077,780.07324,785.7143,703.1135
1694132047.262,796.99634,807.8755,787.326,800.2198,712.381
1694132047.263,802.23444,811.9048,790.9524,796.99634,766.3736
1694132047.32,802.6374,814.3223,790.14655,776.04395,700.293
1694132047.3209999,809.89014,817.9487,793.36993,769.59705,676.52014
1694132047.3219998,811.0989,810.696,793.7729,787.72894,757.1062
1694132047.324,806.6667,805.4579,794.57874,806.6667,808.2784
1694132047.325,807.8755,809.89014,795.78754,802.6374,775.64105
1694132047.3260002,811.50183,804.65204,793.36993,780.4762,715.6044
1694132047.3260002,813.5165,793.36993,791.75824,772.4176,959.7802
1694132047.3270001,813.5165,798.20514,794.9817,792.96704,1164.0659
1694132047.328,811.0989,812.71063,796.99634,808.2784,844.1392
1694132047.329,806.6667,807.47253,793.7729,801.8315,672.49084
1694132047.329,804.65204,807.47253,795.38464,782.0879,672.0879
1694132047.33,803.0403,807.47253,793.36993,770.0,615.6777
1694132047.36,795.38464,799.81683,787.326,777.25275,637.03296
1694132047.3609998,790.9524,796.5934,788.1319,793.36993,740.18317
1694132047.3660002,790.14655,795.38464,788.5348,794.9817,819.15753
1694132047.3660002,798.60803,801.8315,790.54944,781.685,762.74725
1694132047.367,806.6667,798.20514,795.78754,774.83514,682.96704
1694132047.368,809.0842,796.1905,799.81683,790.14655,784.5055
1694132047.368,812.3077,794.17584,801.02563,815.5311,1166.4835
1694132047.369,808.68134,797.8022,798.60803,817.1429,1200.3297
1694132047.369,803.8461,807.8755,792.96704,788.1319,830.4396
1694132047.37,807.47253,804.65204,796.5934,779.2674,725.2747
1694132047.371,808.68134,802.23444,800.2198,792.96704,847.3626
1694132047.371,797.3993,803.44324,796.5934,801.4286,761.13556
1694132047.404,792.96704,797.8022,791.75824,797.8022,680.9524
1694132047.405,799.011,792.5641,786.1172,785.31134,739.7802
1694132047.4060001,805.8608,799.011,790.54944,775.64105,702.3077
1694132047.407,810.293,804.65204,794.17584,778.0586,661.6117
1694132047.408,815.12823,802.23444,797.3993,804.2491,688.20514
1694132047.408,806.26373,802.23444,809.89014,815.9341,865.4945
1694132047.409,794.9817,809.0842,809.89014,779.67035,937.2161
1694132047.4099998,800.6227,812.3077,800.6227,752.674,724.87177
1694132047.4099998,795.38464,809.89014,802.6374,760.32965,606.0073
1694132047.411,789.7436,796.99634,805.4579,787.326,890.4762
1694132047.411,787.72894,795.78754,799.41394,798.60803,1090.7325
1694132047.412,785.31134,805.4579,795.38464,776.8498,757.1062
1694132047.4129999,792.1612,803.44324,799.011,762.74725,618.49817
1694132047.414,796.1905,800.2198,796.99634,766.3736,638.24176
1694132047.414,797.3993,802.23444,796.5934,789.7436,635.42126
1694132047.415,802.23444,809.4872,799.41394,809.89014,689.41394
1694132047.4190001,805.8608,800.6227,793.7729,800.2198,784.5055
1694132047.4190001,807.47253,794.57874,792.5641,783.69965,862.27106
1694132047.42,801.4286,796.1905,795.38464,777.6557,777.6557
1694132047.42,793.7729,800.2198,799.011,788.5348,738.1685
1694132047.421,792.5641,795.78754,804.2491,810.696,805.8608
1694132047.421,796.99634,788.5348,803.0403,816.7399,1041.978
1694132047.4220002,797.8022,799.41394,798.20514,789.34064,884.0293
1694132047.423,795.38464,795.38464,796.1905,766.77655,600.7692
1694132047.471,799.011,788.5348,796.1905,784.5055,713.5897
1694132047.472,798.60803,798.20514,795.78754,810.696,1042.7839
1694132047.472,794.57874,809.89014,793.36993,796.99634,913.0403
1694132047.473,796.5934,800.6227,794.17584,770.40295,650.32965
1694132047.473,796.1905,792.96704,794.57874,766.3736,664.0293
1694132047.474,792.96704,795.78754,794.9817,780.07324,724.0659
1694132047.4750001,788.1319,800.6227,794.57874,790.54944,767.98535
1694132047.4750001,785.7143,805.8608,795.78754,787.326,700.696
1694132047.476,791.75824,796.1905,795.38464,779.67035,873.1502
1694132047.476,788.1319,792.96704,788.1319,767.5824,937.2161
1694132047.477,784.90845,803.8461,788.5348,773.6264,644.2857
1694132047.4780002,794.17584,799.81683,796.5934,800.6227,676.52014
1694132047.508,800.6227,804.2491,797.8022,806.6667,737.76556
1694132047.5089998,804.65204,806.6667,798.60803,788.1319,726.8865
1694132047.5100002,809.89014,808.68134,801.02563,776.04395,670.87915
1694132047.5100002,814.3223,812.3077,801.8315,790.14655,678.93774
1694132047.5110002,816.7399,809.4872,802.6374,809.89014,825.6044
1694132047.512,812.71063,816.337,804.2491,813.91943,890.87915
1694132047.515,811.0989,813.1135,804.65204,799.41394,856.63007
1694132047.516,818.3516,808.68134,803.0403,778.86444,794.57874
1694132047.516,823.1868,803.44324,804.65204,794.9817,1016.99634
1694132047.517,817.1429,813.1135,807.8755,829.6337,1126.5934
1694132047.517,812.3077,825.6044,808.2784,819.9634,823.5897
1694132047.5180001,810.293,817.5458,809.89014,796.99634,778.0586
1694132047.573,817.5458,821.1722,812.71063,778.46155,760.32965
1694132047.5740001,821.978,827.619,811.0989,777.6557,650.7326
1694132047.575,813.91943,820.3663,808.68134,801.8315,692.6374
1694132047.576,807.47253,809.0842,806.6667,813.5165,798.60803
1694132047.576,810.293,807.0696,805.8608,799.81683,824.7985
1694132047.577,811.9048,807.8755,805.8608,774.0293,760.7326
1694132047.577,807.8755,807.8755,803.44324,768.7912,747.03296
1694132047.5779998,813.5165,803.8461,803.0403,800.2198,931.5751
1694132047.5779998,814.7253,807.47253,801.8315,817.9487,1105.238
1694132047.579,810.293,817.9487,802.23444,799.41394,846.9597
1694132047.58,816.337,814.3223,805.4579,774.43225,678.1319
1694132047.582,818.7546,810.696,805.05493,771.6117,701.9048
1694132047.61,814.3223,812.3077,806.26373,793.36993,749.45056
1694132047.611,811.50183,813.1135,807.0696,807.47253,762.3443
1694132047.612,812.3077,809.89014,802.23444,794.17584,752.674
1694132047.614,813.91943,807.8755,796.99634,770.40295,718.022
1694132047.615,811.9048,803.44324,796.1905,765.9707,649.92676
1694132047.616,805.8608,805.05493,797.8022,787.326,692.23444
1694132047.616,807.0696,808.68134,801.02563,807.0696,834.87177
1694132047.6169999,813.1135,809.0842,800.6227,801.4286,886.4469
1694132047.621,813.91943,813.5165,798.60803,779.2674,761.9414
1694132047.621,815.5311,813.91943,799.81683,769.19415,640.2564
1694132047.6220002,814.3223,803.0403,797.3993,782.8938,679.7436
1694132047.6230001,814.3223,794.57874,797.8022,813.91943,1081.0623
1694132047.68,807.47253,807.47253,796.1905,809.0842,1119.7435
1694132047.681,803.44324,812.71063,791.75824,777.25275,690.2198
1694132047.683,809.89014,808.68134,791.3553,768.3883,603.9927
1694132047.684,807.8755,811.9048,788.5348,785.7143,639.45056
1694132047.684,806.26373,810.293,789.34064,809.0842,656.3736
1694132047.685,810.696,805.4579,792.96704,806.26373,713.9927
1694132047.686,819.15753,799.011,795.78754,796.99634,963.4066
1694132047.686,830.4396,810.293,800.6227,790.9524,1039.5604
1694132047.687,828.8278,821.978,799.41394,790.54944,723.2601
1694132047.688,823.5897,813.91943,801.02563,802.6374,732.1245
1694132047.689,820.3663,810.293,799.81683,806.6667,896.1172
1694132047.6899998,819.15753,812.3077,793.36993,789.34064,810.293
1694132047.752,826.8132,815.9341,797.8022,771.2088,644.2857
1694132047.753,827.2161,811.50183,797.8022,778.0586,643.0769
1694132047.755,815.5311,806.6667,793.36993,796.1905,719.2308
1694132047.757,817.1429,811.50183,796.5934,803.8461,745.82416
1694132047.7580001,820.7692,809.4872,798.20514,786.1172,751.06226
1694132047.759,819.5604,805.4579,794.9817,762.3443,776.4469
1694132047.761,820.3663,799.81683,797.8022,780.4762,1116.9231
1694132047.7619998,813.91943,808.68134,799.41394,811.0989,1147.9487
1694132047.763,809.0842,821.978,800.6227,811.50183,760.7326
1694132047.764,811.50183,811.9048,805.05493,800.6227,760.32965
1694132047.769,812.71063,811.9048,811.0989,782.49084,752.674
1694132047.77,809.89014,818.7546,811.0989,780.07324,641.4652
1694132047.822,804.65204,815.5311,805.8608,795.38464,683.7729
1694132047.823,799.011,807.0696,802.6374,808.2784,866.30035
1694132047.823,798.60803,806.6667,801.02563,800.2198,877.98535
1694132047.824,803.0403,813.1135,799.81683,776.8498,644.2857
1694132047.824,810.696,813.1135,801.4286,775.2381,590.696
1694132047.824,811.50183,807.8755,800.6227,798.20514,780.07324
1694132047.825,806.26373,809.4872,796.5934,811.0989,879.59705
1694132047.825,803.0403,815.9341,795.38464,793.7729,811.9048
1694132047.825,809.89014,813.91943,797.8022,776.4469,638.6447
1694132047.826,814.7253,808.2784,796.5934,782.0879,779.67035
1694132047.826,805.8608,816.7399,794.17584,798.20514,992.4176
1694132047.826,794.17584,823.1868,796.5934,802.23444,796.5934
1694132047.8270001,800.6227,818.7546,796.99634,801.02563,758.315
1694132047.8270001,807.0696,816.337,794.9817,784.10254,749.0476
1694132047.828,808.2784,814.3223,796.5934,780.87915,693.8461
1694132047.828,805.05493,812.3077,799.41394,799.41394,708.3516
1694132047.829,801.02563,807.8755,798.60803,814.3223,735.7509
1694132047.829,807.8755,797.3993,799.81683,825.2015,1147.1428
1694132047.829,814.7253,799.41394,801.4286,808.68134,1174.5421
1694132047.8300002,814.3223,808.68134,796.5934,784.5055,655.56775
1694132047.8300002,805.4579,800.2198,790.9524,796.99634,684.9817
1694132047.8300002,797.3993,795.78754,791.75824,819.5604,878.3883
1694132047.831,798.60803,806.26373,791.75824,810.293,776.4469
1694132047.831,805.05493,802.6374,791.3553,789.34064,658.3883
1694132047.859,805.8608,801.4286,790.54944,778.0586,644.68866
1694132047.86,792.5641,801.8315,788.1319,779.67035,689.011
1694132047.86,785.7143,799.81683,785.31134,791.75824,733.73627
1694132047.8609998,787.326,798.20514,784.5055,793.7729,732.9304
1694132047.8609998,793.36993,796.99634,788.93774,780.07324,765.16486
1694132047.8620002,803.44324,800.6227,794.17584,773.22345,757.50916
1694132047.8620002,800.2198,801.8315,792.1612,776.04395,709.5604
1694132047.8620002,795.78754,805.4579,786.52014,795.38464,753.8828
1694132047.8630002,799.41394,800.6227,783.2967,806.26373,959.3773
1694132047.8630002,800.2198,802.23444,786.52014,786.1172,1066.9597
1694132047.864,796.5934,816.7399,786.1172,757.1062,755.09155
1694132047.864,791.75824,810.293,785.31134,761.9414,647.9121
1694132047.865,780.4762,799.011,784.5055,786.9231,721.6484
1694132047.865,770.40295,796.1905,783.2967,795.78754,763.5531
1694132047.866,765.16486,790.14655,786.9231,782.8938,732.52747
1694132047.866,765.56775,782.49084,788.93774,764.7619,661.2088
1694132047.867,774.43225,782.8938,786.52014,772.01465,730.5128
1694132047.867,779.2674,791.3553,786.9231,800.2198,817.5458
1694132047.867,781.685,795.38464,788.93774,809.4872,886.04395
1694132047.868,786.9231,794.17584,788.5348,785.31134,864.2857
1694132047.868,796.5934,785.31134,786.52014,775.2381,1037.1428
1694132047.868,794.17584,799.41394,787.72894,790.14655,1118.1318
1694132047.869,786.1172,815.9341,789.34064,801.8315,856.63007
1694132047.869,789.7436,803.0403,792.96704,809.4872,796.1905
1694132047.948,790.54944,801.02563,798.60803,795.78754,765.56775
1694132047.949,792.1612,805.4579,797.8022,767.98535,680.14655
1694132047.9529998,790.54944,800.6227,793.36993,766.3736,679.7436
1694132047.9539998,779.2674,795.38464,793.36993,795.38464,755.89746
1694132047.9539998,767.5824,796.99634,792.1612,806.6667,825.2015
1694132047.9550002,762.74725,792.1612,785.7143,795.78754,794.57874
1694132047.9550002,767.98535,792.96704,785.7143,777.25275,684.9817
1694132047.956,776.8498,795.78754,790.14655,779.67035,848.5714
1694132047.956,774.83514,801.02563,792.96704,806.26373,1016.1905
1694132047.957,770.80585,809.4872,790.54944,812.3077,786.1172
1694132047.957,780.07324,797.8022,788.1319,803.0403,746.63007
1694132047.9580002,788.93774,793.7729,786.9231,787.326,895.31134
1694132048.004,785.31134,797.8022,785.7143,771.2088,789.34064
1694132048.006,784.90845,797.3993,786.52014,777.25275,662.01465
1694132048.007,788.5348,796.1905,787.72894,796.99634,740.989
1694132048.008,791.3553,797.8022,784.90845,797.8022,824.7985
1694132048.01,801.02563,806.26373,783.69965,777.25275,761.13556
1694132048.0110002,809.4872,808.2784,786.1172,768.3883,672.0879
1694132048.0110002,805.4579,809.89014,789.34064,787.326,723.663
1694132048.012,805.8608,804.2491,797.8022,825.2015,1064.5421
1694132048.013,812.3077,808.68134,799.41394,830.84247,1257.9487
1694132048.0140002,809.0842,823.5897,796.99634,794.57874,873.5531
1694132048.015,807.47253,817.9487,798.20514,775.64105,668.0586
1694132048.016,804.65204,810.696,800.6227,788.1319,742.1978
1694132048.075,797.8022,810.696,799.81683,801.4286,704.7253
1694132048.077,796.1905,807.0696,801.4286,795.38464,647.1062
1694132048.078,800.2198,804.65204,807.47253,787.72894,734.94507
1694132048.079,804.2491,807.0696,803.8461,776.04395,728.49817
1694132048.084,801.8315,807.47253,801.8315,780.07324,597.5458
1694132048.085,795.38464,806.26373,804.2491,804.2491,695.05493
1694132048.0860002,794.17584,801.8315,803.0403,813.1135,996.4469
1694132048.0860002,793.36993,802.23444,797.3993,794.57874,1084.6886
1694132048.0870001,796.5934,813.91943,797.3993,770.0,717.2161
1694132048.088,801.4286,810.696,803.8461,786.52014,590.696
1694132048.088,797.8022,809.4872,801.02563,809.4872,713.1868
1694132048.089,798.60803,809.89014,798.20514,810.293,767.1795
1694132048.121,803.8461,808.68134,801.8315,796.1905,706.337
1694132048.122,807.47253,807.8755,803.8461,778.46155,652.3443
1694132048.1230001,810.696,809.4872,803.44324,785.31134,700.696
1694132048.124,807.8755,813.91943,802.6374,807.47253,753.0769
1694132048.124,806.26373,812.71063,803.44324,818.3516,786.9231
1694132048.125,810.293,813.5165,805.4579,805.4579,770.40295
1694132048.125,815.5311,805.8608,801.8315,789.7436,1081.8682
1694132048.1260002,814.7253,813.91943,801.4286,790.54944,1162.8572
1694132048.127,804.2491,827.2161,805.05493,800.2198,788.1319
1694132048.127,808.68134,813.5165,803.8461,814.7253,817.5458
1694132048.128,817.5458,807.0696,800.2198,806.6667,862.674
1694132048.128,816.7399,815.12823,801.02563,782.49084,662.8205
1694132048.1369998,815.5311,812.71063,800.2198,776.8498,600.3663
1694132048.1379998,812.3077,808.68134,797.3993,792.1612,701.0989
1694132048.1390002,804.2491,808.68134,797.8022,804.2491,791.75824
1694132048.14,807.0696,805.8608,797.3993,796.99634,731.7216
1694132048.14,811.0989,805.4579,795.78754,777.6557,615.6777
1694132048.141,807.47253,803.0403,796.5934,778.0586,747.8388
1694132048.146,801.4286,804.2491,799.41394,799.41394,882.4176
1694132048.146,794.17584,807.8755,799.81683,815.5311,850.58606
1694132048.147,794.9817,807.8755,799.41394,806.6667,740.989
1694132048.147,805.4579,801.02563,801.4286,799.011,881.6117
1694132048.148,805.4579,797.8022,797.8022,795.78754,1077.8389
1694132048.148,796.5934,806.6667,792.5641,790.14655,791.3553
1694132048.174,799.41394,804.2491,794.9817,805.05493,698.2784
1694132048.175,797.3993,799.41394,792.5641,800.2198,770.40295
1694132048.176,800.6227,802.23444,789.7436,778.46155,729.304
1694132048.177,813.91943,800.2198,795.78754,776.8498,605.2015
1694132048.177,811.0989,796.5934,798.60803,794.57874,717.2161
1694132048.178,801.4286,793.36993,796.5934,815.5311,1027.0696
1694132048.178,798.20514,797.3993,794.9817,806.6667,955.7509
1694132048.1790001,799.011,801.4286,794.9817,778.46155,711.1722
1694132048.1790001,799.011,794.9817,797.3993,767.98535,643.0769
1694132048.18,796.1905,784.90845,795.38464,788.5348,1006.9231
1694132048.18,794.57874,796.5934,792.96704,803.0403,1053.2601
1694132048.181,792.5641,803.44324,794.57874,791.75824,711.1722
1694132048.224,790.9524,792.96704,791.75824,776.4469,697.8755
1694132048.225,788.1319,789.7436,787.326,760.7326,656.3736
1694132048.2259998,784.5055,791.75824,791.3553,772.8205,625.7509
1694132048.227,784.90845,795.78754,794.57874,798.20514,705.5311
1694132048.228,788.1319,795.78754,791.3553,802.6374,799.41394
1694132048.2289999,796.1905,797.3993,791.3553,786.52014,836.08057
1694132048.23,802.6374,796.99634,793.36993,770.40295,772.8205
1694132048.231,798.60803,796.5934,791.3553,774.83514,648.315
1694132048.236,800.2198,790.9524,786.1172,802.6374,861.8681
1694132048.237,804.2491,797.3993,784.90845,815.5311,1042.7839
1694132048.237,807.47253,811.50183,786.52014,793.7729,738.97437
1694132048.2380002,806.26373,801.8315,786.1172,773.22345,603.1868
1694132048.263,805.05493,798.60803,784.10254,778.86444,655.56775
1694132048.264,805.8608,805.05493,786.52014,798.20514,714.7985
1694132048.2649999,801.8315,801.8315,790.54944,803.8461,695.4579
1694132048.2649999,807.0696,795.38464,788.93774,799.41394,721.2454
1694132048.2659998,813.5165,796.5934,790.54944,784.5055,832.4542
1694132048.2659998,805.05493,802.23444,790.14655,779.2674,815.12823
1694132048.267,799.011,803.0403,786.52014,801.02563,803.0403
1694132048.267,800.2198,802.6374,786.52014,813.91943,798.60803
1694132048.268,801.02563,790.9524,786.52014,806.6667,1064.9451
1694132048.268,800.6227,797.8022,786.9231,786.1172,994.0293
1694132048.269,799.011,808.68134,786.9231,778.0586,591.50183
1694132048.269,795.38464,801.8315,790.14655,797.3993,668.46155
1694132048.303,792.1612,802.6374,792.96704,806.6667,815.9341
1694132048.304,794.57874,800.2198,790.54944,798.60803,748.6447
1694132048.3049998,797.3993,795.78754,789.34064,783.2967,643.0769
1694132048.3049998,797.8022,794.57874,789.34064,780.07324,779.67035
1694132048.3059998,793.7729,803.8461,790.9524,792.96704,879.59705
1694132048.3059998,787.326,807.47253,791.75824,810.293,842.1245
1694132048.3070002,786.9231,802.23444,786.1172,808.2784,823.9927
1694132048.3070002,792.96704,794.17584,780.4762,791.75824,909.81683
1694132048.308,795.78754,796.5934,784.90845,789.7436,977.9121
1694132048.308,792.96704,808.2784,787.326,798.20514,753.0769
1694132048.312,792.96704,800.2198,783.69965,814.3223,728.49817
1694132048.312,799.011,797.3993,784.5055,806.6667,761.9414
1694132048.358,809.4872,803.8461,788.1319,784.5055,697.0696
1694132048.358,807.8755,803.44324,788.93774,777.6557,627.76556
1694132048.359,800.2198,798.20514,787.326,790.14655,649.12085
1694132048.36,796.1905,793.7729,783.69965,807.0696,751.4652
1694132048.3609998,796.99634,796.5934,784.5055,803.8461,775.2381
1694132048.3609998,798.60803,799.81683,786.1172,784.10254,713.9927
1694132048.362,801.02563,801.8315,786.9231,772.4176,737.76556
1694132048.365,805.8608,796.5934,786.9231,796.5934,1088.7179
1694132048.3660002,803.0403,803.44324,786.9231,825.2015,1262.7839
1694132048.3660002,798.60803,817.9487,788.93774,815.9341,876.77655
1694132048.367,797.8022,809.4872,788.93774,789.34064,738.97437
1694132048.368,802.6374,803.8461,786.9231,767.98535,779.2674
1694132048.4,802.23444,807.47253,786.9231,772.4176,649.5238
1694132048.401,797.3993,808.68134,786.52014,796.99634,652.74725
1694132048.401,799.81683,804.65204,786.9231,808.68134,765.16486
1694132048.402,801.4286,809.4872,788.1319,791.3553,758.315
1694132048.403,800.6227,811.9048,785.7143,767.5824,668.86444
1694132048.403,799.81683,808.68134,785.31134,775.2381,646.7033
1694132048.404,803.44324,801.4286,788.93774,809.4872,949.304
1694132048.405,799.41394,799.011,785.7143,817.1429,1098.3883
1694132048.405,794.17584,812.71063,779.67035,789.34064,777.25275
1694132048.4060001,803.44324,810.293,782.0879,773.22345,616.4835
1694132048.4060001,805.4579,803.0403,782.8938,784.5055,716.0073
1694132048.407,796.1905,807.47253,778.86444,801.8315,777.25275
1694132048.449,798.60803,811.50183,782.8938,805.8608,735.34796
1694132048.4499998,808.2784,809.89014,787.326,796.99634,718.022
1694132048.451,812.3077,815.12823,791.3553,780.87915,630.58606
1694132048.452,813.1135,823.5897,794.57874,778.86444,595.9341
1694132048.4529998,811.0989,817.5458,795.78754,804.2491,680.9524
1694132048.4529998,809.0842,815.9341,795.38464,820.3663,757.50916
1694132048.4540002,808.68134,809.4872,792.5641,817.5458,1072.1978
1694132048.4550002,806.26373,814.3223,793.36993,796.99634,1084.6886
1694132048.4550002,805.4579,823.1868,797.3993,780.87915,649.92676
1694132048.456,805.8608,809.89014,798.60803,796.1905,694.65204
1694132048.457,801.02563,804.2491,795.78754,811.50183,812.71063
1694132048.457,802.6374,807.8755,793.7729,803.44324,729.707
1694132048.503,805.8608,809.4872,790.54944,783.2967,649.92676
1694132048.5049999,807.47253,805.8608,793.7729,787.72894,711.978
1694132048.5059998,801.8315,806.6667,796.99634,804.2491,813.1135
1694132048.5059998,791.75824,813.5165,798.20514,809.89014,775.64105
1694132048.507,796.1905,810.293,801.8315,803.0403,729.707
1694132048.508,797.8022,803.44324,800.2198,788.93774,734.5421
1694132048.5089998,794.57874,804.65204,796.1905,782.0879,790.9524
1694132048.5089998,793.7729,811.9048,796.99634,794.57874,784.10254
1694132048.5100002,791.3553,813.91943,800.2198,813.5165,689.011
1694132048.5110002,788.5348,804.65204,801.8315,815.12823,938.8278
1694132048.512,788.1319,808.2784,803.8461,797.8022,1039.5604
1694132048.513,793.7729,816.337,804.2491,780.4762,722.4542
1694132048.541,799.011,808.68134,802.6374,788.93774,718.4249
1694132048.542,793.36993,808.68134,802.6374,806.6667,846.1539
1694132048.549,794.57874,815.9341,803.44324,807.47253,832.0513
1694132048.549,803.44324,816.7399,805.05493,791.3553,683.36993
1694132048.5500002,812.3077,810.696,806.26373,782.8938,680.14655
1694132048.551,809.4872,805.05493,803.44324,796.5934,1048.022
1694132048.552,796.5934,810.293,801.4286,809.0842,1032.3077
1694132048.553,790.54944,817.1429,803.8461,804.65204,763.5531
1694132048.553,794.57874,810.696,804.65204,789.34064,753.0769
1694132048.554,799.41394,805.4579,803.44324,782.0879,823.5897
1694132048.554,797.3993,817.9487,808.2784,789.7436,703.5165
1694132048.555,792.96704,815.5311,807.8755,805.05493,655.9707
1694132048.5900002,789.7436,806.26373,803.8461,811.50183,776.04395
1694132048.591,791.3553,807.0696,805.8608,795.78754,769.19415
1694132048.591,786.1172,808.68134,803.0403,778.46155,688.20514
1694132048.592,782.49084,803.8461,805.05493,785.7143,709.5604
1694132048.593,786.52014,799.41394,809.89014,811.50183,932.381
1694132048.593,781.685,804.65204,807.8755,816.7399,966.63007
1694132048.5939999,789.7436,809.89014,807.0696,793.36993,788.93774
1694132048.5939999,801.8315,813.5165,807.47253,776.8498,649.92676
1694132048.595,803.0403,806.6667,808.68134,786.1172,809.4872
1694132048.595,799.011,805.8608,811.50183,810.696,1016.1905
1694132048.596,784.90845,817.9487,811.9048,814.7253,794.9817
1694132048.596,786.9231,813.1135,812.71063,801.4286,720.84247
1694132048.642,789.7436,807.0696,810.696,777.25275,673.69965
1694132048.6430001,786.52014,810.293,813.1135,771.6117,649.92676
1694132048.644,783.69965,806.6667,811.0989,788.1319,695.05493
1694132048.644,781.28204,801.8315,804.65204,803.8461,740.989
1694132048.649,785.7143,797.8022,802.23444,796.1905,768.7912
1694132048.649,795.78754,799.011,800.6227,776.04395,738.1685
1694132048.6499999,797.8022,804.65204,801.4286,772.4176,738.1685
1694132048.6499999,794.9817,803.44324,805.05493,792.1612,783.2967
1694132048.651,794.17584,796.99634,807.8755,825.2015,1115.3114
1694132048.652,794.57874,803.8461,806.6667,819.9634,1214.4323
1694132048.652,792.1612,814.3223,806.26373,782.49084,797.3993
1694132048.6529999,786.9231,803.0403,807.8755,776.4469,667.25275
1694132048.682,782.0879,800.6227,809.0842,798.20514,738.5714
1694132048.683,774.0293,809.0842,807.8755,807.47253,713.9927
1694132048.683,776.4469,803.8461,809.4872,797.8022,688.60803
1694132048.684,787.72894,799.41394,807.8755,776.4469,710.3663
1694132048.685,791.3553,801.4286,800.2198,769.59705,695.4579
1694132048.685,796.1905,797.3993,802.23444,788.5348,780.07324
1694132048.686,794.9817,797.3993,804.65204,805.4579,788.93774
1694132048.686,793.36993,792.96704,805.4579,802.6374,867.9121
1694132048.687,799.81683,796.5934,807.47253,788.1319,983.5531
1694132048.688,801.4286,810.696,809.89014,777.6557,704.3223
1694132048.688,799.011,806.26373,811.50183,790.9524,621.31866
1694132048.689,788.5348,799.41394,808.2784,809.4872,794.57874
1694132048.732,777.6557,803.44324,803.0403,801.02563,837.28937
1694132048.7340002,783.2967,803.8461,798.20514,778.0586,705.9341
1694132048.7350001,796.1905,798.60803,798.60803,766.3736,628.1685
1694132048.736,796.99634,796.5934,802.6374,778.86444,639.45056
1694132048.737,791.3553,795.78754,799.41394,798.20514,730.9158
1694132048.738,790.54944,792.96704,797.3993,804.65204,780.07324
1694132048.743,793.36993,788.93774,801.4286,786.52014,815.12823
1694132048.743,799.81683,794.17584,803.44324,767.98535,797.8022
1694132048.744,799.011,803.44324,802.23444,778.0586,718.8278
1694132048.745,794.57874,805.4579,803.44324,804.2491,742.1978
1694132048.747,796.1905,801.4286,804.65204,813.91943,786.52014
1694132048.7500002,805.8608,791.75824,804.65204,804.2491,1141.9048
1694132048.808,804.65204,802.6374,806.26373,787.326,1137.8755
1694132048.81,798.60803,814.3223,808.68134,785.31134,704.3223
1694132048.81,801.02563,805.4579,807.0696,804.65204,725.2747
1694132048.811,800.2198,804.2491,805.05493,809.4872,780.4762
1694132048.812,799.41394,808.68134,807.47253,793.36993,728.9011
1694132048.813,811.0989,808.2784,809.89014,775.2381,667.6557
1694132048.813,815.12823,800.2198,811.9048,784.90845,867.1062
1694132048.8140001,807.47253,801.8315,813.5165,807.47253,1029.8901
1694132048.815,797.8022,811.0989,812.3077,809.4872,774.43225
1694132048.816,799.81683,806.26373,813.1135,799.81683,676.9231
1694132048.816,808.68134,802.23444,812.3077,787.326,689.81683
1694132048.817,804.65204,803.44324,807.47253,786.1172,707.9487
1694132048.85,799.011,807.0696,807.8755,800.6227,710.7692
1694132048.851,797.8022,800.6227,809.0842,809.89014,752.674
1694132048.851,791.3553,796.5934,802.6374,796.5934,904.9817
1694132048.852,793.36993,805.4579,802.6374,778.0586,796.5934
1694132048.853,803.8461,809.89014,809.4872,786.52014,615.2747
1694132048.853,801.8315,807.47253,813.5165,811.9048,771.6117
1694132048.854,791.75824,803.44324,813.91943,822.7839,1004.5055
1694132048.855,790.54944,809.4872,815.12823,807.8755,906.5934
1694132048.86,793.7729,811.0989,813.91943,786.9231,700.696
1694132048.8609998,798.60803,806.26373,811.50183,784.90845,689.011
1694132048.8620002,800.2198,796.99634,812.3077,807.8755,1053.2601
1694132048.8630002,786.1172,806.26373,810.293,821.978,1068.9744
1694132048.895,786.52014,813.1135,804.2491,807.8755,745.42126
1694132048.896,794.9817,800.6227,801.02563,788.5348,706.337
1694132048.896,794.9817,803.44324,800.2198,783.2967,666.8498
1694132048.8969998,797.8022,809.0842,801.8315,802.6374,695.8608
1694132048.8979998,799.011,808.2784,805.8608,822.381,715.2015
1694132048.8979998,798.60803,805.05493,804.2491,817.9487,927.9487
1694132048.8990002,801.02563,808.2784,803.44324,796.5934,1060.1099
1694132048.8990002,805.4579,817.1429,804.2491,774.0293,762.3443
1694132048.9,804.65204,813.5165,802.23444,780.4762,612.8571
1694132048.9,803.8461,801.02563,805.8608,810.696,890.07324
1694132048.901,799.011,805.05493,805.4579,812.71063,1004.5055
1694132048.9020002,796.1905,813.5165,801.8315,790.54944,740.58606
1694132048.9329998,804.2491,809.89014,804.65204,784.5055,661.6117
1694132048.9350002,798.20514,808.2784,803.0403,794.57874,657.5824
1694132048.936,788.93774,811.0989,802.6374,816.337,745.42126
1694132048.937,793.7729,813.1135,804.65204,821.1722,756.30035
1694132048.938,802.6374,807.0696,803.0403,798.20514,734.5421
1694132048.938,806.6667,807.8755,806.26373,786.1172,828.8278
1694132048.9390001,804.2491,815.12823,805.4579,796.5934,801.8315
1694132048.9390001,801.02563,810.293,805.8608,810.293,757.9121
1694132048.94,799.011,805.4579,809.0842,811.0989,818.7546
1694132048.94,804.65204,805.4579,805.8608,808.2784,1085.8975
1694132048.944,807.47253,817.9487,800.2198,794.17584,982.3443
1694132048.945,797.3993,818.7546,797.8022,782.49084,668.86444
1694132048.999,792.5641,807.0696,795.78754,801.8315,789.7436
1694132049.0,796.1905,808.2784,790.54944,810.696,841.31866
1694132049.001,799.011,808.2784,786.52014,791.75824,736.55676
1694132049.001,799.41394,805.05493,788.1319,769.19415,653.5531
1694132049.0019999,801.02563,801.02563,788.1319,770.80585,642.674
1694132049.003,797.8022,800.2198,784.10254,792.5641,736.9597
1694132049.004,788.5348,799.011,781.685,801.4286,819.9634
1694132049.004,787.326,794.9817,782.0879,784.10254,755.09155
1694132049.0049999,794.57874,795.38464,785.31134,770.0,731.31866
1694132049.006,794.9817,799.81683,785.31134,773.6264,715.6044
1694132049.006,786.52014,797.3993,780.4762,784.10254,785.31134
1694132049.007,786.52014,797.8022,778.46155,789.34064,780.4762
1694132049.062,794.17584,791.3553,783.69965,790.9524,951.7216
1694132049.063,797.3993,794.9817,780.07324,781.685,1093.1501
1694132049.064,797.8022,809.4872,778.46155,769.19415,765.56775
1694132049.064,792.96704,799.81683,787.72894,788.5348,691.02563
1694132049.0649998,785.31134,790.9524,788.93774,802.23444,785.7143
1694132049.066,788.5348,795.78754,786.9231,794.9817,845.34796
1694132049.0670002,795.78754,796.5934,790.14655,782.49084,766.77655
1694132049.068,794.9817,790.54944,790.54944,774.43225,733.3333
1694132049.068,792.5641,783.2967,789.7436,801.02563,1046.8132
1694132049.069,788.5348,794.57874,788.93774,821.5751,1103.6263
1694132049.0700002,787.72894,809.0842,791.75824,795.38464,734.1392
1694132049.0700002,798.20514,804.2491,793.36993,772.4176,652.3443
1694132049.0809999,800.6227,803.44324,787.72894,766.3736,711.1722
1694132049.0819998,789.34064,807.0696,787.72894,776.04395,710.3663
1694132049.0830002,781.685,801.02563,790.14655,795.38464,660.80585
1694132049.0830002,783.2967,790.14655,788.93774,800.2198,777.25275
1694132049.084,787.72894,793.36993,788.93774,780.87915,811.9048
1694132049.085,791.3553,800.6227,791.3553,768.7912,703.1135
1694132049.085,792.5641,803.0403,792.5641,784.5055,689.011
1694132049.0860002,794.17584,799.41394,792.1612,811.50183,906.99634
1694132049.0860002,794.17584,804.2491,790.9524,811.9048,1053.663
1694132049.0870001,795.38464,815.9341,790.54944,783.69965,755.89746
1694132049.088,800.6227,807.0696,792.1612,771.2088,603.5897
1694132049.088,803.44324,809.0842,796.5934,780.87915,628.5714
1694132049.1420002,803.8461,818.3516,800.2198,805.8608,695.8608
1694132049.144,798.60803,815.5311,799.81683,811.0989,716.8132
1694132049.145,801.02563,809.0842,796.5934,793.36993,684.9817
1694132049.146,804.65204,805.4579,797.8022,780.87915,742.6007
1694132049.147,804.2491,807.0696,797.8022,787.72894,737.76556
1694132049.147,803.0403,808.68134,797.8022,806.26373,768.7912
1694132049.148,797.8022,802.23444,800.2198,813.1135,832.8571
1694132049.148,804.2491,794.9817,796.99634,806.26373,1072.6007
1694132049.149,809.4872,810.696,794.17584,794.57874,1071.7949
1694132049.15,802.6374,820.7692,794.9817,790.14655,709.9634
1694132049.15,803.8461,807.8755,794.57874,805.8608,702.71063
1694132049.151,806.6667,802.6374,791.3553,813.5165,734.1392
1694132049.2129998,798.20514,800.2198,790.14655,790.9524,662.4176
1694132049.2150002,797.3993,795.38464,792.96704,770.80585,643.47986
1694132049.2220001,805.8608,796.1905,796.1905,778.46155,703.1135
1694132049.223,801.02563,802.23444,796.1905,794.57874,744.21246
1694132049.224,799.41394,805.05493,799.011,807.0696,754.68866
1694132049.225,806.26373,807.47253,801.8315,799.41394,742.1978
1694132049.2259998,808.68134,799.41394,796.1905,781.685,892.49084
1694132049.2259998,806.6667,799.011,799.011,786.1172,1080.6593
1694132049.227,795.38464,809.4872,804.2491,795.78754,829.2308
1694132049.228,784.90845,799.41394,800.6227,802.6374,684.57874
1694132049.2289999,786.9231,793.7729,797.3993,796.99634,725.2747
1694132049.2289999,790.54944,796.99634,799.81683,774.83514,694.65204
1694132049.26,789.34064,795.78754,805.4579,766.77655,605.2015
1694132049.262,786.52014,791.3553,804.65204,779.67035,620.5128
1694132049.263,784.10254,795.78754,804.2491,795.38464,726.08057
1694132049.2649999,786.1172,802.6374,804.2491,789.34064,720.0366
1694132049.2649999,788.1319,799.81683,801.8315,773.22345,666.4469
1694132049.2659998,787.326,798.20514,802.23444,765.9707,724.0659
1694132049.267,788.1319,794.17584,803.44324,791.3553,1055.6776
1694132049.268,784.5055,796.5934,801.8315,813.91943,1108.0586
1694132049.268,780.87915,800.2198,803.0403,796.5934,782.8938
1694132049.269,788.93774,796.5934,806.26373,783.2967,768.7912
1694132049.2700002,799.41394,804.2491,806.26373,778.46155,848.97437
1694132049.2700002,799.81683,815.5311,809.4872,785.31134,775.2381
1694132049.277,792.5641,811.50183,808.68134,808.2784,689.011
1694132049.278,785.7143,801.8315,801.8315,810.293,771.6117
1694132049.278,784.90845,803.0403,802.23444,784.90845,779.67035
1694132049.279,789.34064,806.26373,804.2491,770.80585,655.56775
1694132049.283,786.52014,800.6227,804.2491,785.7143,617.6923
1694132049.284,781.685,798.60803,805.8608,808.68134,843.73627
1694132049.284,785.7143,808.2784,807.47253,806.6667,915.4579
1694132049.2849998,789.34064,812.3077,803.8461,786.9231,700.293
1694132049.2849998,796.1905,813.5165,803.44324,777.25275,568.93774
1694132049.286,800.6227,807.0696,805.8608,799.81683,799.81683
1694132049.2870002,786.9231,801.02563,797.3993,820.3663,1031.5018
1694132049.2870002,775.2381,803.0403,792.1612,807.0696,822.7839
1694132049.316,780.4762,797.8022,794.57874,788.1319,702.3077
1694132049.316,788.1319,798.20514,797.8022,774.83514,711.1722
1694132049.317,788.1319,801.8315,802.6374,780.07324,738.5714
1694132049.318,783.69965,801.4286,806.26373,805.8608,724.4689
1694132049.318,779.2674,798.60803,804.65204,817.1429,794.9817
1694132049.319,788.1319,797.8022,801.8315,804.2491,1012.96704
1694132049.319,795.38464,807.47253,797.8022,786.52014,926.337
1694132049.32,785.31134,808.68134,791.75824,777.25275,655.16486
1694132049.32,776.4469,798.60803,789.34064,787.326,703.91943
1694132049.3209999,778.0586,799.011,792.96704,806.26373,943.663
1694132049.3219998,778.86444,812.3077,795.78754,788.5348,839.304
1694132049.3219998,782.8938,812.71063,797.3993,761.9414,637.8388
1694132049.36,782.8938,805.8608,796.1905,766.77655,674.90845
1694132049.3609998,777.25275,803.44324,794.9817,790.14655,775.64105
1694132049.362,776.4469,808.2784,796.1905,804.65204,794.57874
1694132049.362,781.685,806.26373,792.1612,789.7436,751.8681
1694132049.3630002,783.69965,796.5934,788.1319,770.40295,797.8022
1694132049.3630002,784.5055,797.3993,790.54944,772.4176,903.7729
1694132049.367,782.49084,803.44324,787.326,793.36993,914.2491
1694132049.368,780.07324,803.0403,783.69965,810.696,817.1429
1694132049.368,782.0879,798.60803,784.5055,794.57874,784.5055
1694132049.369,785.31134,801.02563,782.8938,766.3736,770.40295
1694132049.369,791.3553,803.44324,785.7143,766.3736,684.57874
1694132049.37,788.1319,799.41394,788.93774,787.326,674.90845
1694132049.393,781.28204,788.93774,788.1319,804.65204,984.35895
1694132049.3939998,776.04395,792.5641,784.90845,792.96704,1123.37
1694132049.395,773.6264,806.6667,781.28204,759.92676,779.2674
1694132049.396,779.67035,800.2198,781.28204,752.27106,668.0586
1694132049.396,779.2674,793.7729,780.87915,774.43225,776.8498
1694132049.3969998,774.83514,796.99634,783.69965,799.41394,838.0952
1694132049.3980002,776.04395,797.8022,786.1172,792.5641,782.0879
1694132049.3980002,784.10254,799.011,790.54944,768.7912,730.10986
1694132049.3990002,794.9817,796.99634,794.57874,774.83514,1049.6337
1694132049.4,795.78754,807.8755,795.38464,792.1612,1174.1392
1694132049.4,784.90845,817.5458,792.5641,796.1905,831.2454
1694132049.401,783.2967,803.8461,787.326,791.3553,754.2857
1694132049.4329998,788.93774,801.4286,788.5348,770.40295,745.82416
1694132049.4350002,794.17584,807.47253,791.3553,763.1502,648.315
1694132049.4350002,796.1905,802.6374,790.14655,785.31134,650.32965
1694132049.436,795.78754,797.8022,796.99634,813.91943,769.19415
1694132049.436,800.2198,803.8461,799.41394,816.7399,785.31134
1694132049.437,803.0403,805.4579,796.5934,797.3993,686.1905
1694132049.437,804.65204,804.65204,797.3993,784.90845,603.1868
1694132049.4380002,802.6374,798.60803,796.99634,792.96704,809.4872
1694132049.442,804.2491,801.8315,799.81683,822.7839,1183.0037
1694132049.443,805.8608,819.5604,803.44324,822.7839,935.6044
1694132049.443,807.8755,812.71063,803.8461,797.3993,639.0476
1694132049.444,804.65204,802.6374,802.23444,781.685,646.7033
1694132049.4899998,798.60803,807.47253,803.8461,788.93774,641.06226
1694132049.492,801.02563,814.7253,806.26373,812.71063,661.2088
1694132049.493,796.99634,814.3223,804.65204,817.9487,721.6484
1694132049.493,797.3993,812.3077,801.02563,805.4579,731.7216
1694132049.4940002,800.6227,811.9048,799.41394,786.1172,719.6337
1694132049.4950001,799.011,808.68134,796.5934,782.8938,684.9817
1694132049.496,803.0403,813.1135,800.2198,805.05493,736.9597
1694132049.497,803.44324,809.0842,801.4286,823.9927,1127.8022
1694132049.497,796.99634,812.3077,795.38464,808.68134,1135.4579
1694132049.498,791.3553,813.91943,794.9817,776.4469,714.7985
1694132049.499,790.54944,802.23444,797.8022,778.46155,747.03296
1694132049.5,787.72894,804.65204,796.1905,797.3993,849.7802
1694132049.563,786.52014,813.5165,796.5934,807.0696,767.5824
1694132049.564,793.7729,807.8755,797.3993,799.41394,740.989
1694132049.5660002,801.02563,805.05493,802.23444,785.7143,721.2454
1694132049.569,804.65204,816.337,803.8461,792.5641,679.34064
1694132049.571,801.4286,817.5458,803.0403,813.1135,701.9048
1694132049.5740001,796.5934,811.9048,806.6667,821.978,742.1978
1694132049.576,808.68134,803.0403,806.26373,819.5604,1004.90845
1694132049.577,814.7253,811.0989,807.8755,804.65204,1087.1062
1694132049.5779998,809.0842,828.022,805.4579,790.14655,698.2784
1694132049.579,811.50183,819.5604,803.44324,804.2491,643.47986
1694132049.5830002,811.9048,818.7546,809.0842,822.7839,766.3736
1694132049.584,814.7253,826.8132,812.71063,819.5604,753.47986
1694132049.612,821.1722,825.6044,813.5165,799.81683,682.1612
1694132049.613,821.978,826.4103,813.91943,788.1319,620.10986
1694132049.614,818.3516,827.2161,814.3223,805.8608,766.3736
1694132049.615,813.1135,831.6484,818.3516,831.2454,835.6777
1694132049.615,814.3223,827.619,822.7839,829.2308,782.8938
1694132049.616,820.7692,827.2161,824.7985,803.8461,748.6447
1694132049.616,823.5897,817.9487,823.5897,796.1905,997.6557
1694132049.6169999,817.1429,820.7692,821.1722,811.0989,1092.3444
1694132049.6169999,807.8755,836.08057,819.9634,821.978,802.6374
1694132049.6179998,806.6667,823.9927,820.3663,826.0073,835.2747
1694132049.619,811.9048,819.9634,820.3663,810.696,836.8865
1694132049.619,810.696,827.2161,817.5458,788.93774,665.64105
1694132049.651,806.26373,823.5897,815.12823,796.1905,654.35895
1694132049.652,803.0403,817.1429,814.7253,823.1868,745.42126
1694132049.652,802.6374,812.3077,815.5311,821.978,803.44324
1694132049.6529999,802.6374,811.0989,811.9048,797.3993,771.6117
1694132049.6529999,808.2784,814.7253,809.0842,782.49084,619.707
1694132049.654,813.1135,808.2784,811.50183,799.81683,809.0842
1694132049.655,810.696,810.293,811.0989,824.7985,1116.9231
1694132049.655,800.6227,826.4103,808.68134,814.3223,862.27106
1694132049.656,801.02563,822.381,812.3077,793.7729,661.2088
1694132049.656,807.47253,820.7692,813.91943,785.31134,672.0879
1694132049.6569998,805.4579,821.5751,811.50183,789.7436,668.86444
1694132049.6569998,803.8461,819.5604,812.71063,807.8755,695.05493
1694132049.6620002,803.44324,819.5604,812.71063,816.7399,721.2454
1694132049.663,803.8461,814.7253,808.2784,799.011,744.21246
1694132049.663,806.6667,814.3223,801.02563,779.67035,703.91943
1694132049.664,807.47253,815.5311,800.6227,785.31134,622.9304
1694132049.664,800.2198,809.89014,800.6227,801.4286,728.9011
1694132049.665,796.99634,806.6667,798.20514,811.9048,1033.1135
1694132049.665,798.20514,811.9048,797.3993,794.9817,968.24176
1694132049.666,805.05493,810.696,798.20514,773.22345,758.315
1694132049.667,813.5165,811.50183,799.011,777.25275,702.71063
1694132049.667,812.71063,805.05493,799.81683,806.26373,992.01465
1694132049.668,803.44324,811.9048,801.8315,823.9927,1043.1868
1694132049.668,802.23444,819.15753,805.05493,809.0842,661.6117
1694132049.7489998,806.6667,810.696,807.0696,787.72894,635.0183
1694132049.7510002,807.8755,814.7253,808.2784,781.28204,674.5055
1694132049.7510002,800.2198,815.12823,806.6667,794.17584,655.16486
1694132049.752,792.1612,807.8755,806.26373,811.0989,712.7839
1694132049.752,802.6374,802.23444,801.4286,801.8315,787.72894
1694132049.753,809.4872,800.2198,796.5934,777.25275,817.5458
1694132049.754,803.0403,805.05493,801.4286,773.6264,782.0879
1694132049.754,800.6227,812.3077,801.4286,792.96704,686.1905
1694132049.755,799.011,800.6227,795.78754,815.5311,980.7326
1694132049.755,797.3993,794.9817,794.17584,816.7399,1226.5201
1694132049.756,804.65204,812.71063,799.011,791.3553,799.81683
1694132049.757,808.68134,809.4872,800.6227,774.0293,590.293
1694132049.779,804.65204,804.65204,797.3993,786.9231,678.1319
1694132049.78,802.6374,809.89014,796.1905,809.89014,743.4066
1694132049.784,801.8315,806.6667,792.96704,807.0696,737.3626
1694132049.7849998,804.65204,803.44324,791.75824,782.49084,727.28937
1694132049.7859998,810.696,800.6227,796.1905,776.4469,808.2784
1694132049.7859998,806.26373,803.0403,795.38464,789.34064,821.978
1694132049.7870002,797.8022,805.4579,791.75824,806.6667,844.1392
1694132049.7870002,794.17584,801.4286,790.9524,809.89014,921.0989
1694132049.788,794.9817,804.2491,792.5641,796.1905,895.7143
1694132049.789,801.8315,816.337,796.99634,780.87915,699.4872
1694132049.789,802.23444,815.5311,798.20514,787.72894,601.5751
1694132049.7900002,796.5934,807.47253,796.99634,811.50183,725.6777
1694132049.816,795.78754,800.6227,795.78754,824.7985,1080.2565
1694132049.817,795.78754,808.68134,792.5641,803.44324,1004.10254
1694132049.8179998,796.5934,814.7253,790.9524,774.0293,634.21246
1694132049.819,793.7729,805.05493,790.54944,781.28204,677.326
1694132049.819,790.9524,803.8461,790.54944,804.65204,751.06226
1694132049.82,788.1319,801.4286,794.17584,809.0842,791.3553
1694132049.82,792.1612,795.38464,797.3993,790.54944,764.35895
1694132049.8209999,804.2491,788.1319,796.99634,778.86444,811.0989
1694132049.822,803.0403,798.20514,799.011,784.10254,949.707
1694132049.822,794.57874,812.3077,799.41394,796.1905,780.4762
1694132049.823,789.7436,805.4579,794.9817,807.47253,679.7436
1694132049.823,796.5934,803.8461,796.99634,795.38464,676.9231
1694132049.869,810.696,808.68134,798.20514,776.8498,605.2015
1694132049.8700001,812.3077,807.0696,797.3993,778.46155,644.68866
1694132049.871,809.0842,805.4579,801.4286,804.65204,712.381
1694132049.872,807.8755,806.26373,805.05493,822.7839,807.47253
1694132049.876,806.26373,806.6667,802.23444,805.8608,818.7546
1694132049.8769999,810.696,804.2491,797.3993,787.326,672.0879
1694132049.878,815.9341,800.6227,797.8022,786.9231,718.8278
1694132049.878,807.47253,797.8022,795.78754,797.8022,894.90845
1694132049.879,798.60803,799.41394,796.1905,808.68134,820.3663
1694132049.88,801.02563,799.011,799.41394,795.38464,676.1172
1694132049.88,799.011,795.78754,798.20514,772.8205,645.09155
1694132049.881,794.9817,789.7436,798.60803,780.87915,999.67035
1694132049.949,790.9524,803.44324,799.011,799.41394,1102.8206
1694132049.951,783.69965,813.5165,799.41394,805.4579,793.7729
1694132049.9529998,784.5055,804.2491,798.60803,794.17584,771.2088
1694132049.9529998,788.93774,804.2491,796.99634,769.59705,729.304
1694132049.9539998,792.96704,803.0403,796.99634,767.1795,655.16486
1694132049.9550002,789.34064,801.8315,798.20514,784.10254,705.9341
1694132049.956,788.1319,796.99634,802.6374,805.05493,962.1978
1694132049.9580002,790.54944,795.38464,800.6227,806.26373,1169.7069
1694132049.959,786.1172,807.47253,794.9817,778.0586,840.9158
1694132049.96,787.72894,802.23444,794.9817,766.77655,635.0183
1694132049.961,783.2967,797.3993,790.14655,781.685,680.14655
1694132049.961,776.4469,798.20514,790.9524,798.20514,716.0073
1694132049.99,770.40295,794.57874,792.5641,798.20514,742.6007
1694132049.993,769.19415,794.9817,790.9524,779.67035,711.5751
1694132049.994,778.0586,801.8315,793.7729,770.0,720.84247
1694132049.9950001,782.49084,808.2784,792.5641,782.8938,720.4396
1694132049.996,780.07324,807.0696,789.34064,800.2198,751.8681
1694132049.997,778.46155,802.23444,788.93774,797.3993,821.5751
1694132050.0019999,781.685,796.99634,785.7143,781.685,1146.337
1694132050.003,780.4762,804.65204,783.2967,770.0,1109.6703
1694132050.004,771.2088,813.5165,784.10254,772.4176,654.7619
1694132050.004,772.01465,806.26373,787.72894,792.96704,694.2491
1694132050.0049999,776.4469,807.47253,789.7436,806.6667,934.7985
1694132050.0049999,778.86444,819.9634,794.17584,794.9817,807.8755
1694132050.015,778.86444,816.7399,796.99634,778.0586,603.9927
1694132050.016,782.8938,809.0842,799.011,790.14655,656.77655
1694132050.017,780.87915,808.68134,802.6374,810.696,732.9304
1694132050.018,770.80585,809.89014,799.011,809.4872,732.1245
1694132050.018,774.83514,803.44324,797.3993,793.36993,678.5348
1694132050.019,783.2967,796.99634,795.38464,785.31134,846.1539
1694132050.02,784.90845,799.41394,794.17584,798.60803,921.0989
1694132050.02,783.69965,803.8461,796.1905,808.68134,751.06226
1694132050.021,780.87915,806.6667,798.60803,809.4872,684.17584
1694132050.021,784.90845,800.2198,799.81683,810.293,945.6777
1694132050.022,788.93774,800.2198,800.2198,799.41394,1014.17584
1694132050.023,786.1172,809.89014,799.011,785.31134,678.1319
1694132050.0449998,787.326,803.8461,794.9817,803.8461,694.65204
1694132050.0449998,784.90845,796.5934,794.17584,813.5165,815.5311
1694132050.0460002,783.2967,798.20514,794.9817,795.78754,822.381
1694132050.0470002,791.75824,803.0403,798.20514,781.28204,709.5604
1694132050.0470002,799.81683,801.8315,799.81683,784.90845,647.50916
1694132050.048,791.3553,801.02563,798.20514,809.0842,861.8681
1694132050.048,782.0879,806.26373,801.4286,821.978,933.1868
1694132050.048,784.10254,807.47253,805.8608,805.8608,760.32965
1694132050.052,789.7436,807.47253,805.05493,784.10254,688.60803
1694132050.053,794.17584,808.68134,805.8608,790.54944,844.5421
1694132050.053,786.1172,818.7546,806.6667,805.05493,826.0073
1694132050.0540001,778.46155,816.7399,805.8608,811.9048,751.06226
1694132050.0870001,775.2381,802.23444,804.65204,804.65204,906.1905
1694132050.088,773.6264,799.81683,805.05493,776.8498,883.6264
1694132050.089,781.685,811.50183,808.2784,767.98535,670.4762
1694132050.089,782.49084,809.0842,810.293,792.96704,623.3333
1694132050.09,772.4176,798.60803,810.293,813.91943,766.77655
1694132050.09,765.9707,798.60803,808.2784,809.89014,845.34796
1694132050.091,769.19415,805.4579,805.8608,793.36993,749.85345
1694132050.091,778.0586,809.89014,805.8608,782.8938,597.5458
1694132050.092,782.8938,799.81683,808.2784,797.3993,812.3077
1694132050.092,777.25275,800.6227,807.47253,817.5458,1075.8242
1694132050.093,766.77655,814.3223,805.8608,810.293,807.8755
1694132050.093,772.01465,807.0696,808.68134,790.9524,695.05493
1694132050.119,782.0879,804.2491,808.2784,780.4762,712.381
1694132050.12,782.0879,808.2784,806.6667,790.9524,677.72894
1694132050.12,779.67035,805.4579,810.696,810.696,717.2161
1694132050.121,781.685,803.44324,813.1135,813.1135,784.90845
1694132050.121,786.52014,805.4579,810.293,794.17584,942.4542
1694132050.122,784.10254,807.8755,809.0842,774.83514,909.41394
1694132050.122,780.87915,804.65204,809.89014,781.685,766.3736
1694132050.1230001,775.64105,803.0403,804.65204,801.4286,784.10254
1694132050.1230001,771.2088,797.3993,803.44324,815.9341,1094.762
1694132050.124,770.0,802.6374,807.8755,800.2198,1105.238
1694132050.127,771.2088,808.68134,805.4579,768.7912,661.2088
1694132050.128,776.04395,799.41394,803.8461,778.86444,631.79486
1694132050.187,775.2381,799.81683,807.0696,805.4579,718.8278
1694132050.188,771.6117,802.6374,803.44324,809.4872,694.2491
1694132050.188,769.59705,796.99634,794.9817,791.3553,658.7912
1694132050.189,776.4469,798.20514,793.7729,776.04395,653.1502
1694132050.189,776.4469,801.4286,797.3993,782.49084,661.2088
1694132050.19,776.04395,794.9817,799.81683,801.8315,728.0952
1694132050.19,776.04395,794.9817,799.41394,813.5165,796.1905
1694132050.191,777.25275,793.7729,799.81683,803.44324,942.0513
1694132050.192,778.86444,790.9524,800.6227,787.326,1051.2454
1694132050.192,778.46155,807.8755,799.41394,783.69965,742.1978
1694132050.1929998,776.04395,812.71063,795.78754,797.8022,624.5421
1694132050.1929998,771.6117,807.0696,795.38464,806.6667,733.3333
1694132050.255,769.19415,809.4872,795.38464,792.5641,741.79486
1694132050.256,773.6264,807.8755,793.36993,772.4176,696.6667
1694132050.257,777.6557,802.6374,794.57874,770.0,641.06226
1694132050.257,771.6117,801.02563,797.3993,785.31134,685.78754
1694132050.258,769.19415,802.23444,797.8022,802.23444,819.9634
1694132050.259,771.2088,802.6374,798.60803,800.6227,820.7692
1694132050.259,772.8205,807.8755,805.05493,778.86444,753.0769
1694132050.26,778.0586,797.8022,807.47253,778.46155,1062.9304
1694132050.26,778.86444,797.8022,805.8608,798.20514,1261.1721
1694132050.261,773.6264,811.50183,806.26373,802.23444,894.5055
1694132050.261,778.86444,800.2198,804.2491,793.36993,734.94507
1694132050.262,784.10254,796.1905,799.41394,773.6264,702.3077
1694132050.3059998,777.6557,803.8461,797.3993,764.7619,582.23444
1694132050.3070002,775.2381,802.23444,797.8022,784.10254,561.28204
1694132050.308,774.43225,799.011,799.81683,803.0403,682.96704
1694132050.309,770.0,805.05493,801.02563,800.2198,804.65204
1694132050.309,769.19415,804.2491,799.81683,780.4762,716.8132
1694132050.3100002,773.6264,797.8022,801.4286,772.01465,637.03296
1694132050.3100002,773.22345,799.41394,795.78754,787.326,783.69965
1694132050.311,768.3883,806.6667,797.8022,806.6667,890.4762
1694132050.311,769.19415,809.0842,802.23444,803.44324,791.3553
1694132050.312,774.43225,805.4579,798.20514,780.07324,648.315
1694132050.313,781.28204,791.3553,796.99634,775.64105,893.69965
1694132050.314,782.0879,795.38464,797.3993,792.5641,1059.7069
1694132050.365,783.2967,808.2784,801.02563,811.50183,807.8755
1694132050.367,789.34064,800.6227,802.6374,817.9487,735.34796
1694132050.368,794.17584,793.7729,800.2198,810.293,862.27106
1694132050.369,800.6227,801.4286,801.02563,789.34064,828.4249
1694132050.37,801.02563,808.68134,802.6374,786.9231,657.98535
1694132050.37,796.1905,804.65204,802.23444,815.5311,735.7509
1694132050.371,801.4286,794.9817,800.2198,833.2601,1127.8022
1694132050.372,800.6227,799.011,798.20514,812.71063,1171.3187
1694132050.372,796.5934,812.3077,802.23444,784.5055,720.4396
1694132050.373,794.9817,801.8315,803.0403,788.1319,666.8498
1694132050.373,788.93774,800.2198,798.60803,807.8755,796.5934
1694132050.374,791.3553,806.26373,798.20514,811.0989,784.90845
1694132050.4190001,803.8461,806.26373,802.6374,801.02563,701.9048
1694132050.42,812.71063,800.2198,808.68134,795.78754,729.304
1694132050.425,807.0696,799.81683,805.4579,793.7729,759.92676
1694132050.425,794.57874,805.4579,799.81683,800.6227,656.3736
1694132050.4259999,790.9524,804.2491,800.6227,811.9048,670.07324
1694132050.427,792.1612,799.41394,800.2198,802.6374,838.9011
1694132050.427,793.36993,799.011,801.8315,786.1172,844.1392
1694132050.428,797.3993,805.05493,804.2491,783.69965,703.1135
1694132050.428,794.57874,807.0696,801.4286,799.81683,645.89746
1694132050.429,795.78754,793.7729,801.02563,828.022,882.4176
1694132050.43,801.02563,795.78754,802.6374,818.3516,1001.28204
1694132050.431,799.011,805.8608,798.20514,782.8938,711.978
1694132050.493,796.5934,799.41394,797.3993,776.4469,618.49817
1694132050.4940002,794.9817,799.41394,802.23444,792.1612,680.54944
1694132050.4950001,789.7436,803.44324,800.6227,805.4579,701.9048
1694132050.496,792.5641,808.68134,800.2198,806.6667,704.7253
1694132050.497,799.81683,807.47253,805.05493,789.7436,665.2381
1694132050.498,802.23444,799.41394,806.26373,789.34064,996.8498
1694132050.498,798.20514,808.68134,806.6667,808.2784,1187.8389
1694132050.499,788.1319,817.9487,807.47253,813.1135,812.71063
1694132050.5,785.31134,808.2784,805.8608,803.44324,768.3883
1694132050.501,789.34064,802.23444,801.8315,782.8938,928.3516
1694132050.501,792.5641,811.0989,800.2198,770.40295,747.8388
1694132050.503,794.17584,810.293,801.8315,788.5348,603.9927
1694132050.516,793.36993,803.0403,800.6227,809.0842,770.80585
1694132050.517,793.36993,803.0403,797.8022,807.8755,822.381
1694132050.5180001,795.78754,806.26373,799.011,790.54944,736.9597
1694132050.519,799.81683,807.0696,805.05493,780.4762,669.67035
1694132050.524,797.3993,802.6374,801.8315,794.9817,760.32965
1694132050.5249999,793.36993,800.2198,797.8022,815.9341,871.53845
1694132050.526,788.93774,801.02563,798.20514,817.5458,847.3626
1694132050.527,790.14655,799.81683,796.5934,796.1905,828.022
1694132050.528,794.17584,801.02563,799.41394,778.86444,836.8865
1694132050.529,793.36993,807.47253,807.47253,789.34064,765.56775
1694132050.53,792.1612,808.68134,809.0842,815.12823,709.9634
1694132050.53,786.1172,809.0842,804.65204,817.5458,700.293
1694132050.555,788.93774,809.4872,807.8755,805.05493,869.12085
1694132050.556,791.3553,811.0989,807.8755,794.57874,1057.2894
1694132050.556,779.2674,817.5458,801.8315,788.5348,753.0769
1694132050.557,771.2088,809.4872,803.44324,806.26373,635.82416
1694132050.557,774.43225,807.47253,806.6667,813.1135,786.52014
1694132050.558,784.10254,812.71063,803.8461,789.7436,805.8608
1694132050.558,787.326,814.7253,797.3993,772.4176,758.71796
1694132050.559,785.7143,811.50183,794.9817,774.43225,632.1978
1694132050.559,779.2674,798.20514,793.36993,794.57874,977.1062
1694132050.56,767.98535,802.23444,788.93774,805.8608,1271.6483
1694132050.56,768.3883,813.5165,789.34064,786.52014,832.0513
1694132050.5609999,777.25275,806.6667,793.36993,769.59705,667.25275
1694132050.568,778.86444,804.65204,796.1905,773.6264,714.7985
1694132050.57,775.64105,807.8755,797.8022,791.75824,689.81683
1694132050.57,768.3883,805.05493,799.41394,803.0403,743.8095
1694132050.571,772.8205,805.05493,800.2198,792.1612,761.9414
1694132050.571,784.10254,810.293,802.6374,779.2674,680.14655
1694132050.572,782.0879,810.293,798.20514,782.8938,692.6374
1694132050.576,776.4469,812.3077,793.36993,791.75824,735.7509
1694132050.576,775.2381,810.293,797.8022,809.89014,910.6227
1694132050.577,776.4469,812.3077,797.3993,804.2491,1031.5018
1694132050.577,778.46155,823.5897,796.99634,774.0293,724.87177
1694132050.577,780.87915,817.9487,799.41394,770.80585,602.381
1694132050.5779998,779.67035,814.3223,798.60803,790.54944,715.6044
1694132050.619,774.43225,816.7399,796.99634,806.6667,790.9524
1694132050.62,772.4176,813.91943,795.38464,792.5641,735.7509
1694132050.621,782.0879,809.0842,797.3993,773.22345,702.71063
1694132050.621,791.3553,805.05493,799.81683,773.22345,727.6923
1694132050.6220002,788.93774,812.71063,801.02563,788.1319,798.20514
1694132050.6230001,784.5055,817.1429,802.23444,808.2784,796.5934
1694132050.624,788.5348,812.71063,801.02563,809.0842,792.1612
1694132050.624,789.7436,804.65204,799.011,798.20514,1086.3004
1694132050.625,784.10254,809.89014,797.3993,789.34064,1085.0916
1694132050.625,780.07324,814.3223,796.5934,796.99634,745.42126
1694132050.626,775.2381,803.44324,795.38464,814.3223,788.5348
1694132050.627,779.2674,805.8608,799.41394,814.7253,844.94507
1694132050.669,788.93774,807.8755,802.23444,796.5934,751.8681
1694132050.67,792.1612,801.4286,798.20514,778.86444,661.2088
1694132050.671,789.7436,796.5934,798.60803,791.75824,784.5055
1694132050.672,782.0879,800.2198,799.81683,808.2784,859.45056
1694132050.6729999,782.0879,807.0696,799.41394,809.89014,730.5128
1694132050.6729999,786.52014,806.26373,799.41394,790.54944,651.9414
1694132050.6739998,784.90845,794.9817,794.17584,771.6117,822.381
1694132050.675,779.2674,796.5934,789.34064,782.49084,1005.31134
1694132050.6790001,774.0293,807.47253,789.7436,797.8022,796.99634
1694132050.68,774.83514,801.02563,791.75824,800.2198,749.45056
1694132050.68,782.8938,800.6227,792.5641,784.10254,745.42126
1694132050.681,785.31134,803.0403,791.3553,770.40295,711.1722
1694132050.732,783.2967,800.6227,786.52014,772.01465,672.49084
1694132050.733,782.0879,797.3993,786.1172,793.36993,712.381
1694132050.733,774.43225,795.78754,787.72894,797.3993,794.17584
1694132050.7340002,775.64105,798.20514,792.5641,778.86444,721.6484
1694132050.7350001,778.46155,796.99634,797.8022,759.92676,649.92676
1694132050.737,773.6264,800.2198,796.1905,762.3443,716.0073
1694132050.737,782.0879,797.8022,801.8315,801.8315,1064.1392
1694132050.738,783.2967,799.41394,798.60803,812.3077,1216.8499
1694132050.739,778.86444,807.0696,786.9231,783.2967,868.71796
1694132050.739,778.86444,794.9817,782.8938,763.95605,718.8278
1694132050.74,782.0879,791.3553,784.90845,767.1795,848.1685
1694132050.74,789.34064,808.68134,792.1612,788.1319,791.3553
1694132050.772,785.7143,807.8755,795.78754,801.02563,705.12823
1694132050.773,790.9524,799.41394,800.2198,789.34064,737.3626
1694132050.7740002,803.0403,801.02563,801.8315,769.59705,671.28204
1694132050.7740002,797.8022,802.23444,796.1905,765.9707,599.5604
1694132050.775,792.96704,804.2491,798.60803,788.1319,605.2015
1694132050.776,804.65204,806.26373,802.23444,816.337,891.685
1694132050.776,801.8315,805.05493,809.0842,805.8608,1002.49084
1694132050.777,785.31134,801.8315,808.2784,765.56775,797.8022
1694132050.777,797.8022,807.8755,800.6227,771.6117,646.7033
1694132050.7779999,794.9817,797.3993,803.0403,797.3993,811.50183
1694132050.783,773.6264,789.7436,804.65204,794.9817,1004.5055
1694132050.783,767.5824,792.5641,811.0989,771.6117,715.2015
1694132050.823,767.98535,790.14655,811.9048,747.8388,624.5421
1694132050.825,766.77655,791.75824,804.65204,739.3773,653.95605
1694132050.826,756.7033,786.9231,801.8315,748.24176,692.23444
1694132050.826,743.00366,783.69965,806.26373,758.71796,724.0659
1694132050.8270001,735.34796,775.2381,809.89014,749.0476,763.95605
1694132050.828,730.5128,766.3736,804.65204,726.4835,914.2491
1694132050.828,736.9597,771.2088,799.81683,721.6484,860.65936
1694132050.829,729.304,776.04395,802.23444,728.0952,722.8571
1694132050.8300002,708.3516,770.0,801.02563,728.49817,773.6264
1694132050.8300002,708.7546,763.95605,799.81683,732.52747,1004.10254
1694132050.831,718.4249,772.01465,799.011,719.6337,893.2967
1694132050.832,725.6777,768.7912,797.3993,699.4872,589.4872
1694132050.8969998,727.28937,752.27106,799.81683,718.022,695.4579
1694132050.8990002,732.1245,755.09155,804.2491,749.45056,833.2601
1694132050.9,734.5421,766.77655,803.44324,755.4945,735.7509
1694132050.901,736.1539,769.19415,803.44324,746.63007,680.9524
1694132050.9020002,746.63007,769.59705,803.0403,743.00366,683.7729
1694132050.903,756.30035,772.8205,798.20514,755.09155,774.0293
1694132050.904,752.27106,773.22345,799.41394,770.0,853.4066
1694132050.905,750.2564,766.3736,799.41394,769.19415,747.4359
1694132050.906,776.4469,758.315,803.8461,768.3883,839.304
1694132050.907,796.1905,767.5824,809.89014,769.19415,920.293
1694132050.907,786.9231,780.87915,804.2491,762.3443,689.81683
1694132050.908,784.10254,767.5824,800.6227,783.2967,665.64105
1694132050.944,792.1612,762.74725,801.02563,806.26373,819.9634
1694132050.945,799.81683,772.01465,797.8022,798.20514,799.41394
1694132050.9459999,809.0842,775.64105,799.41394,779.2674,630.989
1694132050.947,812.3077,768.7912,796.1905,782.49084,618.9011
1694132050.947,811.9048,768.3883,790.9524,812.3077,894.90845
1694132050.948,809.89014,783.69965,790.14655,820.3663,963.00366
1694132050.949,819.15753,787.326,794.17584,807.47253,771.2088
1694132050.949,829.2308,788.93774,797.3993,795.78754,710.7692
1694132050.95,823.9927,782.0879,792.96704,807.0696,975.4945
1694132050.95,812.71063,781.28204,790.14655,824.7985,1031.0989
1694132050.951,804.65204,788.1319,786.1172,821.5751,747.8388
1694132050.952,810.293,774.0293,781.685,815.9341,825.2015
1694132050.959,817.9487,774.0293,788.5348,801.8315,791.75824
1694132050.961,818.7546,785.31134,789.34064,799.41394,684.9817
1694132050.961,822.7839,788.93774,786.9231,826.4103,684.9817
1694132050.962,827.619,790.14655,792.1612,845.7509,826.4103
1694132050.963,825.2015,792.96704,792.1612,830.0366,877.98535
1694132050.963,829.2308,792.5641,788.5348,805.8608,779.2674
1694132050.964,832.4542,794.57874,788.93774,798.60803,698.2784
1694132050.964,823.9927,786.9231,792.5641,817.5458,810.696
1694132050.965,822.7839,789.34064,792.96704,840.9158,1000.4762
1694132050.965,823.9927,803.8461,790.9524,830.0366,780.07324
1694132050.966,824.7985,796.99634,794.57874,813.91943,660.80585
1694132050.967,829.2308,792.1612,794.9817,812.71063,681.3553
1694132050.994,828.022,792.1612,794.57874,823.9927,713.9927
1694132050.9950001,822.381,792.1612,797.8022,836.8865,737.76556
1694132051.0,820.7692,791.3553,796.5934,829.2308,756.30035
1694132051.0,822.7839,794.17584,793.36993,811.50183,751.4652
1694132051.001,829.6337,799.81683,794.9817,809.0842,746.2271
1694132051.001,833.663,805.05493,799.011,823.5897,771.2088
1694132051.0019999,823.9927,803.8461,801.02563,836.08057,840.10986
1694132051.0019999,823.5897,801.02563,806.6667,832.4542,953.3333
1694132051.003,831.2454,809.4872,813.91943,813.1135,868.315
1694132051.004,834.4689,809.4872,813.91943,797.3993,664.83514
1694132051.004,834.87177,802.23444,810.293,807.0696,659.59705
1694132051.0049999,827.619,794.57874,807.47253,840.5128,1055.2748
1694132051.073,823.5897,807.47253,808.2784,850.989,1136.6666
1694132051.074,827.619,823.1868,811.0989,822.7839,722.8571
1694132051.075,824.7985,815.5311,811.9048,806.26373,633.4066
1694132051.076,819.9634,813.91943,807.0696,817.1429,677.72894
1694132051.077,813.1135,813.91943,801.8315,830.84247,692.6374
1694132051.078,805.4579,804.2491,794.57874,828.8278,715.2015
1694132051.079,805.8608,796.1905,791.75824,816.7399,935.2015
1694132051.08,809.89014,805.4579,794.17584,801.02563,1009.34064
1694132051.0809999,808.2784,817.5458,793.36993,795.38464,750.2564
1694132051.0819998,804.2491,812.71063,792.1612,810.696,706.337
1694132051.0830002,803.8461,807.0696,792.5641,823.5897,821.1722
1694132051.084,803.44324,809.0842,792.96704,809.0842,804.65204
1694132051.085,801.8315,813.5165,792.5641,791.3553,640.65936
1694132051.0860002,807.47253,813.91943,790.9524,800.6227,638.6447
1694132051.0870001,806.26373,818.3516,790.9524,817.9487,727.6923
1694132051.0870001,803.44324,821.978,792.1612,827.2161,812.3077
1694132051.093,809.4872,816.337,797.8022,819.5604,803.8461
1694132051.094,811.50183,811.0989,801.4286,811.9048,779.2674
1694132051.095,807.47253,809.0842,796.99634,815.12823,784.10254
1694132051.095,796.5934,812.3077,792.96704,820.3663,803.0403
1694132051.096,789.7436,816.337,795.78754,829.6337,782.49084
1694132051.097,794.9817,812.71063,800.6227,828.4249,799.41394
1694132051.097,794.57874,810.293,801.8315,802.6374,834.0659
1694132051.0979998,791.3553,815.12823,799.81683,787.326,729.304
1694132051.131,796.99634,821.1722,805.05493,807.0696,728.49817
1694132051.132,794.9817,817.1429,805.4579,828.4249,848.97437
1694132051.132,791.3553,802.23444,800.6227,827.619,1171.7216
