timestamp,RAW_TP9,RAW_AF7,RAW_AF8,RAW_TP10,Delta_Aggregate,Theta_Aggregate,Alpha_Aggregate,Beta_Aggregate,Gamma_Aggregate
1694268924.869,804.2491,799.011,830.4396,807.8755,0.70940999,0.218007915,0.2275725275,0.20066165375,-0.18758696000000002
1694268924.869,796.99634,796.1905,826.4103,803.0403,0.70940999,0.218007915,0.2275725275,0.20066165375,-0.18758696000000002
1694268924.8700001,798.60803,792.96704,823.5897,800.6227,0.70940999,0.218007915,0.2275725275,0.20066165375,-0.18758696000000002
1694268924.871,800.2198,796.1905,823.5897,796.1905,0.70940999,0.218007915,0.2275725275,0.20066165375,-0.18758696000000002
1694268924.871,798.20514,791.75824,824.7985,795.38464,0.70940999,0.218007915,0.2275725275,0.20066165375,-0.18758696000000002
1694268924.872,786.52014,787.72894,820.7692,793.36993,0.70940999,0.218007915,0.2275725275,0.20066165375,-0.18758696000000002
1694268924.872,776.04395,788.5348,815.5311,786.52014,0.70940999,0.218007915,0.2275725275,0.20066165375,-0.18758696000000002
1694268924.873,775.64105,784.5055,815.5311,796.1905,0.70940999,0.218007915,0.2275725275,0.20066165375,-0.18758696000000002
1694268924.873,782.8938,787.326,817.1429,806.6667,0.70940999,0.218007915,0.2275725275,0.20066165375,-0.18758696000000002
1694268924.8739998,779.2674,784.5055,818.3516,796.99634,0.70940999,0.218007915,0.2275725275,0.20066165375,-0.18758696000000002
1694268924.875,770.80585,779.2674,821.1722,800.6227,0.70940999,0.218007915,0.2275725275,0.20066165375,-0.18758696000000002
1694268924.875,774.43225,778.0586,822.381,807.47253,0.70940999,0.218007915,0.2275725275,0.20066165375,-0.18758696000000002
1694268924.907,781.685,782.8938,817.9487,802.23444,0.70940999,0.218007915,0.2275725275,0.20066165375,-0.18758696000000002
1694268924.907,785.31134,782.49084,819.15753,803.0403,0.70940999,0.218007915,0.2275725275,0.20066165375,-0.18758696000000002
1694268924.908,789.7436,778.46155,821.5751,800.2198,0.70940999,0.218007915,0.2275725275,0.20066165375,-0.18758696000000002
1694268924.908,802.6374,782.8938,818.7546,796.1905,0.70940999,0.218007915,0.2275725275,0.20066165375,-0.18758696000000002
1694268924.909,808.68134,777.6557,817.1429,794.57874,0.70940999,0.218007915,0.2275725275,0.20066165375,-0.18758696000000002
1694268924.91,816.337,780.07324,815.9341,789.7436,0.70940999,0.218007915,0.2275725275,0.20066165375,-0.18758696000000002
1694268924.91,832.4542,785.31134,815.9341,793.36993,0.70940999,0.218007915,0.2275725275,0.20066165375,-0.18758696000000002
1694268924.91,848.97437,786.9231,815.9341,796.99634,0.70940999,0.218007915,0.2275725275,0.20066165375,-0.18758696000000002
1694268924.911,848.5714,788.93774,816.337,789.7436,0.70940999,0.218007915,0.2275725275,0.20066165375,-0.18758696000000002
1694268924.911,833.2601,780.87915,815.9341,784.5055,0.70940999,0.218007915,0.2275725275,0.20066165375,-0.18758696000000002
1694268924.912,834.87177,780.87915,815.9341,789.7436,0.70940999,0.218007915,0.2275725275,0.20066165375,-0.18758696000000002
1694268924.9129999,833.663,784.5055,815.9341,792.96704,0.6997761875,0.2021435225,0.237018205,0.18565978500000002,-0.19801975
1694268924.916,828.4249,781.685,815.9341,792.96704,0.6997761875,0.2021435225,0.237018205,0.18565978500000002,-0.19801975
1694268924.916,819.5604,780.4762,816.7399,789.34064,0.6997761875,0.2021435225,0.237018205,0.18565978500000002,-0.19801975
1694268924.9169998,800.6227,782.0879,814.3223,786.9231,0.6997761875,0.2021435225,0.237018205,0.18565978500000002,-0.19801975
1694268924.9180002,794.57874,788.1319,816.337,794.17584,0.6997761875,0.2021435225,0.237018205,0.18565978500000002,-0.19801975
1694268924.9180002,795.38464,792.5641,821.978,798.20514,0.6997761875,0.2021435225,0.237018205,0.18565978500000002,-0.19801975
1694268924.9190001,788.5348,790.14655,818.7546,794.9817,0.6997761875,0.2021435225,0.237018205,0.18565978500000002,-0.19801975
1694268924.92,772.4176,785.7143,816.337,795.78754,0.6997761875,0.2021435225,0.237018205,0.18565978500000002,-0.19801975
1694268924.92,751.8681,783.69965,819.5604,806.6667,0.6997761875,0.2021435225,0.237018205,0.18565978500000002,-0.19801975
1694268924.921,730.10986,782.49084,819.5604,804.2491,0.6997761875,0.2021435225,0.237018205,0.18565978500000002,-0.19801975
1694268924.921,724.0659,782.0879,821.1722,791.3553,0.6997761875,0.2021435225,0.237018205,0.18565978500000002,-0.19801975
1694268924.922,725.6777,778.46155,820.7692,792.96704,0.6997761875,0.2021435225,0.237018205,0.18565978500000002,-0.19801975
1694268924.922,719.6337,783.69965,819.5604,795.38464,0.6997761875,0.2021435225,0.237018205,0.18565978500000002,-0.19801975
1694268924.963,714.3956,785.31134,820.3663,782.8938,0.6997761875,0.2021435225,0.237018205,0.18565978500000002,-0.19801975
1694268924.963,709.15753,780.07324,820.7692,783.2967,0.6997761875,0.2021435225,0.237018205,0.18565978500000002,-0.19801975
1694268924.964,710.3663,781.685,817.9487,789.34064,0.6997761875,0.2021435225,0.237018205,0.18565978500000002,-0.19801975
1694268924.965,715.6044,784.90845,815.9341,786.52014,0.6997761875,0.2021435225,0.237018205,0.18565978500000002,-0.19801975
1694268924.965,719.2308,784.5055,819.9634,787.72894,0.6997761875,0.2021435225,0.237018205,0.18565978500000002,-0.19801975
1694268924.966,720.4396,778.86444,821.1722,789.34064,0.6997761875,0.2021435225,0.237018205,0.18565978500000002,-0.19801975
1694268924.966,723.663,778.86444,821.978,800.2198,0.6997761875,0.2021435225,0.237018205,0.18565978500000002,-0.19801975
1694268924.967,725.6777,777.6557,823.9927,798.60803,0.6997761875,0.2021435225,0.237018205,0.18565978500000002,-0.19801975
1694268924.967,722.4542,773.6264,822.381,787.326,0.6997761875,0.2021435225,0.237018205,0.18565978500000002,-0.19801975
1694268924.967,728.9011,773.22345,818.7546,796.99634,0.6997761875,0.2021435225,0.237018205,0.18565978500000002,-0.19801975
1694268924.968,728.9011,774.83514,817.1429,789.7436,0.6997761875,0.2021435225,0.237018205,0.18565978500000002,-0.19801975
1694268924.968,714.7985,772.01465,818.7546,775.2381,0.6997761875,0.2021435225,0.237018205,0.18565978500000002,-0.19801975
1694268925.0249999,711.1722,773.22345,819.9634,785.7143,0.6997761875,0.2021435225,0.237018205,0.18565978500000002,-0.19801975
1694268925.0259998,721.2454,780.4762,818.7546,793.36993,0.6921869999999999,0.18956004499999998,0.2446907525,0.1750967375,-0.2062607275
1694268925.028,723.2601,778.86444,823.5897,791.75824,0.6921869999999999,0.18956004499999998,0.2446907525,0.1750967375,-0.2062607275
1694268925.029,715.6044,778.46155,826.4103,788.5348,0.6921869999999999,0.18956004499999998,0.2446907525,0.1750967375,-0.2062607275
1694268925.029,708.7546,779.67035,826.8132,789.34064,0.6921869999999999,0.18956004499999998,0.2446907525,0.1750967375,-0.2062607275
1694268925.0300002,703.91943,775.2381,824.3956,795.78754,0.6921869999999999,0.18956004499999998,0.2446907525,0.1750967375,-0.2062607275
1694268925.0300002,698.68134,767.98535,816.337,806.26373,0.6921869999999999,0.18956004499999998,0.2446907525,0.1750967375,-0.2062607275
1694268925.0310001,697.8755,766.77655,815.9341,803.44324,0.6921869999999999,0.18956004499999998,0.2446907525,0.1750967375,-0.2062607275
1694268925.0310001,691.8315,774.0293,817.5458,785.7143,0.6921869999999999,0.18956004499999998,0.2446907525,0.1750967375,-0.2062607275
1694268925.032,680.54944,775.2381,817.5458,783.2967,0.6921869999999999,0.18956004499999998,0.2446907525,0.1750967375,-0.2062607275
1694268925.033,688.20514,772.8205,821.5751,791.75824,0.6921869999999999,0.18956004499999998,0.2446907525,0.1750967375,-0.2062607275
1694268925.034,695.05493,773.22345,825.6044,790.9524,0.6921869999999999,0.18956004499999998,0.2446907525,0.1750967375,-0.2062607275
1694268925.078,694.2491,772.8205,828.022,792.5641,0.6921869999999999,0.18956004499999998,0.2446907525,0.1750967375,-0.2062607275
1694268925.078,696.26373,779.2674,826.0073,794.57874,0.6921869999999999,0.18956004499999998,0.2446907525,0.1750967375,-0.2062607275
1694268925.079,689.81683,784.5055,825.6044,791.3553,0.6921869999999999,0.18956004499999998,0.2446907525,0.1750967375,-0.2062607275
1694268925.079,688.60803,783.2967,828.8278,792.96704,0.6921869999999999,0.18956004499999998,0.2446907525,0.1750967375,-0.2062607275
1694268925.079,693.0403,779.67035,825.6044,794.57874,0.6921869999999999,0.18956004499999998,0.2446907525,0.1750967375,-0.2062607275
1694268925.08,694.65204,778.0586,826.8132,797.3993,0.6921869999999999,0.18956004499999998,0.2446907525,0.1750967375,-0.2062607275
1694268925.08,699.0842,777.6557,828.8278,796.5934,0.6921869999999999,0.18956004499999998,0.2446907525,0.1750967375,-0.2062607275
1694268925.08,698.2784,780.07324,826.0073,791.3553,0.6921869999999999,0.18956004499999998,0.2446907525,0.1750967375,-0.2062607275
1694268925.0809999,695.8608,782.0879,827.619,802.23444,0.6921869999999999,0.18956004499999998,0.2446907525,0.1750967375,-0.2062607275
1694268925.0809999,700.696,777.25275,826.4103,803.44324,0.6921869999999999,0.18956004499999998,0.2446907525,0.1750967375,-0.2062607275
1694268925.0809999,726.08057,778.86444,826.0073,794.9817,0.6921869999999999,0.18956004499999998,0.2446907525,0.1750967375,-0.2062607275
1694268925.0819998,746.2271,786.1172,829.2308,796.1905,0.6921869999999999,0.18956004499999998,0.2446907525,0.1750967375,-0.2062607275
1694268925.109,747.8388,782.49084,827.2161,792.5641,0.6921869999999999,0.18956004499999998,0.2446907525,0.1750967375,-0.2062607275
1694268925.1100001,754.2857,779.67035,823.5897,805.4579,0.6921869999999999,0.18956004499999998,0.2446907525,0.1750967375,-0.2062607275
1694268925.1100001,777.25275,785.31134,819.9634,814.7253,0.6921869999999999,0.18956004499999998,0.2446907525,0.1750967375,-0.2062607275
1694268925.111,792.5641,788.5348,819.9634,799.011,0.680515265,0.1877316925,0.2544771,0.16824832625,-0.21530675999999999
1694268925.113,790.54944,787.72894,822.381,801.4286,0.680515265,0.1877316925,0.2544771,0.16824832625,-0.21530675999999999
1694268925.1139998,786.1172,787.72894,821.978,799.81683,0.680515265,0.1877316925,0.2544771,0.16824832625,-0.21530675999999999
1694268925.1139998,788.1319,785.31134,822.381,792.5641,0.680515265,0.1877316925,0.2544771,0.16824832625,-0.21530675999999999
1694268925.1139998,799.011,789.7436,826.8132,799.81683,0.680515265,0.1877316925,0.2544771,0.16824832625,-0.21530675999999999
1694268925.115,803.0403,791.3553,827.2161,807.8755,0.680515265,0.1877316925,0.2544771,0.16824832625,-0.21530675999999999
1694268925.116,803.8461,789.34064,824.7985,810.293,0.680515265,0.1877316925,0.2544771,0.16824832625,-0.21530675999999999
1694268925.116,803.44324,792.1612,826.0073,801.4286,0.680515265,0.1877316925,0.2544771,0.16824832625,-0.21530675999999999
1694268925.1169999,798.20514,791.75824,825.2015,791.75824,0.680515265,0.1877316925,0.2544771,0.16824832625,-0.21530675999999999
1694268925.145,816.337,785.7143,822.7839,791.75824,0.680515265,0.1877316925,0.2544771,0.16824832625,-0.21530675999999999
1694268925.146,840.10986,790.14655,823.1868,797.8022,0.680515265,0.1877316925,0.2544771,0.16824832625,-0.21530675999999999
1694268925.147,834.87177,797.3993,823.1868,800.2198,0.680515265,0.1877316925,0.2544771,0.16824832625,-0.21530675999999999
1694268925.147,821.1722,794.9817,818.7546,792.1612,0.680515265,0.1877316925,0.2544771,0.16824832625,-0.21530675999999999
1694268925.147,810.696,789.34064,817.9487,788.1319,0.680515265,0.1877316925,0.2544771,0.16824832625,-0.21530675999999999
1694268925.147,808.68134,792.1612,822.7839,793.7729,0.680515265,0.1877316925,0.2544771,0.16824832625,-0.21530675999999999
1694268925.148,805.05493,791.75824,820.7692,797.3993,0.680515265,0.1877316925,0.2544771,0.16824832625,-0.21530675999999999
1694268925.149,810.696,788.5348,822.381,796.1905,0.680515265,0.1877316925,0.2544771,0.16824832625,-0.21530675999999999
1694268925.149,826.4103,793.36993,823.5897,804.2491,0.680515265,0.1877316925,0.2544771,0.16824832625,-0.21530675999999999
1694268925.15,835.6777,795.78754,824.3956,800.6227,0.680515265,0.1877316925,0.2544771,0.16824832625,-0.21530675999999999
1694268925.15,840.5128,791.75824,824.7985,783.2967,0.680515265,0.1877316925,0.2544771,0.16824832625,-0.21530675999999999
1694268925.15,841.31866,789.7436,819.9634,789.34064,0.680515265,0.1877316925,0.2544771,0.16824832625,-0.21530675999999999
1694268925.177,834.4689,792.96704,815.9341,793.36993,0.680515265,0.1877316925,0.2544771,0.16824832625,-0.21530675999999999
1694268925.177,835.6777,795.78754,818.3516,792.5641,0.680515265,0.1877316925,0.2544771,0.16824832625,-0.21530675999999999
1694268925.178,835.6777,795.78754,817.9487,800.2198,0.680515265,0.1877316925,0.2544771,0.16824832625,-0.21530675999999999
1694268925.178,832.4542,794.17584,816.7399,807.0696,0.680515265,0.1877316925,0.2544771,0.16824832625,-0.21530675999999999
1694268925.178,846.1539,792.96704,819.5604,802.23444,0.680515265,0.1877316925,0.2544771,0.16824832625,-0.21530675999999999
1694268925.1790001,860.2564,795.38464,821.1722,802.23444,0.667190975,0.1925436925,0.262473125,0.16330361775000002,-0.2260557425
1694268925.181,867.9121,799.011,827.2161,806.26373,0.667190975,0.1925436925,0.262473125,0.16330361775000002,-0.2260557425
1694268925.1820002,866.30035,796.99634,829.6337,808.2784,0.667190975,0.1925436925,0.262473125,0.16330361775000002,-0.2260557425
1694268925.1820002,857.4359,794.9817,823.1868,812.3077,0.667190975,0.1925436925,0.262473125,0.16330361775000002,-0.2260557425
1694268925.183,861.06226,800.2198,825.2015,808.68134,0.667190975,0.1925436925,0.262473125,0.16330361775000002,-0.2260557425
1694268925.183,869.92676,799.011,832.4542,808.2784,0.667190975,0.1925436925,0.262473125,0.16330361775000002,-0.2260557425
1694268925.184,855.0183,791.3553,830.4396,809.4872,0.667190975,0.1925436925,0.262473125,0.16330361775000002,-0.2260557425
1694268925.2419999,830.4396,794.17584,828.022,809.4872,0.667190975,0.1925436925,0.262473125,0.16330361775000002,-0.2260557425
1694268925.243,823.1868,797.8022,827.2161,807.0696,0.667190975,0.1925436925,0.262473125,0.16330361775000002,-0.2260557425
1694268925.243,813.91943,792.96704,823.5897,810.696,0.667190975,0.1925436925,0.262473125,0.16330361775000002,-0.2260557425
1694268925.243,794.9817,789.34064,823.1868,815.12823,0.667190975,0.1925436925,0.262473125,0.16330361775000002,-0.2260557425
1694268925.244,790.9524,791.3553,822.7839,807.0696,0.667190975,0.1925436925,0.262473125,0.16330361775000002,-0.2260557425
1694268925.244,784.5055,794.57874,826.4103,800.6227,0.667190975,0.1925436925,0.262473125,0.16330361775000002,-0.2260557425
1694268925.244,765.9707,794.57874,828.022,807.0696,0.667190975,0.1925436925,0.262473125,0.16330361775000002,-0.2260557425
1694268925.245,760.7326,789.34064,825.2015,817.9487,0.667190975,0.1925436925,0.262473125,0.16330361775000002,-0.2260557425
1694268925.245,769.19415,786.9231,825.2015,819.5604,0.667190975,0.1925436925,0.262473125,0.16330361775000002,-0.2260557425
1694268925.245,772.4176,787.72894,825.6044,814.3223,0.667190975,0.1925436925,0.262473125,0.16330361775000002,-0.2260557425
1694268925.246,772.4176,787.72894,826.0073,809.4872,0.667190975,0.1925436925,0.262473125,0.16330361775000002,-0.2260557425
1694268925.246,780.4762,787.72894,825.6044,807.0696,0.667190975,0.1925436925,0.262473125,0.16330361775000002,-0.2260557425
1694268925.312,792.96704,787.326,820.3663,805.4579,0.667190975,0.1925436925,0.262473125,0.16330361775000002,-0.2260557425
1694268925.313,809.4872,792.1612,821.5751,811.50183,0.667190975,0.1925436925,0.262473125,0.16330361775000002,-0.2260557425
1694268925.313,826.4103,795.38464,820.7692,817.5458,0.667190975,0.1925436925,0.262473125,0.16330361775000002,-0.2260557425
1694268925.314,841.7216,797.3993,820.7692,806.26373,0.667190975,0.1925436925,0.262473125,0.16330361775000002,-0.2260557425
1694268925.314,873.1502,801.8315,820.7692,807.8755,0.667190975,0.1925436925,0.262473125,0.16330361775000002,-0.2260557425
1694268925.315,900.54944,801.8315,821.1722,814.7253,0.667190975,0.1925436925,0.262473125,0.16330361775000002,-0.2260557425
1694268925.315,890.4762,795.78754,824.3956,796.99634,0.667190975,0.1925436925,0.262473125,0.16330361775000002,-0.2260557425
1694268925.316,882.8205,791.75824,825.6044,791.3553,0.6555464925,0.19490353250000003,0.25860929,0.15821878271,-0.23662262750000002
1694268925.319,899.34064,792.96704,829.2308,795.38464,0.6555464925,0.19490353250000003,0.25860929,0.15821878271,-0.23662262750000002
1694268925.32,900.9524,795.38464,826.0073,786.52014,0.6555464925,0.19490353250000003,0.25860929,0.15821878271,-0.23662262750000002
1694268925.3209999,897.72894,794.57874,822.381,779.2674,0.6555464925,0.19490353250000003,0.25860929,0.15821878271,-0.23662262750000002
1694268925.3209999,902.96704,792.1612,822.7839,784.5055,0.6555464925,0.19490353250000003,0.25860929,0.15821878271,-0.23662262750000002
1694268925.3609998,908.60803,798.20514,821.1722,791.75824,0.6555464925,0.19490353250000003,0.25860929,0.15821878271,-0.23662262750000002
1694268925.362,913.0403,800.6227,820.3663,789.7436,0.6555464925,0.19490353250000003,0.25860929,0.15821878271,-0.23662262750000002
1694268925.362,913.0403,799.81683,822.7839,788.5348,0.6555464925,0.19490353250000003,0.25860929,0.15821878271,-0.23662262750000002
1694268925.3630002,911.02563,800.6227,820.7692,791.3553,0.6555464925,0.19490353250000003,0.25860929,0.15821878271,-0.23662262750000002
1694268925.3630002,903.36993,800.2198,817.9487,788.93774,0.6555464925,0.19490353250000003,0.25860929,0.15821878271,-0.23662262750000002
1694268925.364,903.7729,802.6374,819.9634,790.54944,0.6555464925,0.19490353250000003,0.25860929,0.15821878271,-0.23662262750000002
1694268925.364,900.54944,802.23444,819.9634,794.57874,0.6555464925,0.19490353250000003,0.25860929,0.15821878271,-0.23662262750000002
1694268925.364,888.86444,800.2198,820.3663,791.3553,0.6555464925,0.19490353250000003,0.25860929,0.15821878271,-0.23662262750000002
1694268925.365,882.8205,803.0403,821.978,790.9524,0.6555464925,0.19490353250000003,0.25860929,0.15821878271,-0.23662262750000002
1694268925.365,883.22345,802.23444,823.9927,799.41394,0.6555464925,0.19490353250000003,0.25860929,0.15821878271,-0.23662262750000002
1694268925.367,880.40295,802.6374,827.2161,812.71063,0.6555464925,0.19490353250000003,0.25860929,0.15821878271,-0.23662262750000002
1694268925.367,863.47986,803.8461,824.3956,804.65204,0.6555464925,0.19490353250000003,0.25860929,0.15821878271,-0.23662262750000002
1694268925.4129999,848.97437,799.011,821.5751,792.1612,0.6555464925,0.19490353250000003,0.25860929,0.15821878271,-0.23662262750000002
1694268925.414,849.3773,801.02563,819.5604,799.011,0.6555464925,0.19490353250000003,0.25860929,0.15821878271,-0.23662262750000002
1694268925.414,853.00366,805.4579,818.7546,809.4872,0.6555464925,0.19490353250000003,0.25860929,0.15821878271,-0.23662262750000002
1694268925.415,848.5714,799.011,818.7546,810.696,0.6555464925,0.19490353250000003,0.25860929,0.15821878271,-0.23662262750000002
1694268925.415,835.6777,792.96704,814.7253,799.81683,0.6555464925,0.19490353250000003,0.25860929,0.15821878271,-0.23662262750000002
1694268925.415,832.0513,794.17584,816.7399,803.44324,0.6555464925,0.19490353250000003,0.25860929,0.15821878271,-0.23662262750000002
1694268925.416,838.9011,796.5934,822.7839,813.5165,0.6555464925,0.19490353250000003,0.25860929,0.15821878271,-0.23662262750000002
1694268925.4169998,847.3626,794.57874,823.5897,812.71063,0.6555464925,0.19490353250000003,0.25860929,0.15821878271,-0.23662262750000002
1694268925.4169998,851.39197,792.5641,823.9927,803.0403,0.6555464925,0.19490353250000003,0.25860929,0.15821878271,-0.23662262750000002
1694268925.418,841.31866,792.1612,821.5751,801.02563,0.644554965,0.18917883,0.252858465,0.15247036375,-0.244106935
1694268925.421,822.381,795.78754,818.3516,798.20514,0.644554965,0.18917883,0.252858465,0.15247036375,-0.244106935
1694268925.421,824.7985,796.5934,820.7692,788.5348,0.644554965,0.18917883,0.252858465,0.15247036375,-0.244106935
1694268925.474,828.4249,792.1612,818.7546,787.326,0.644554965,0.18917883,0.252858465,0.15247036375,-0.244106935
1694268925.4750001,802.23444,786.1172,818.7546,786.9231,0.644554965,0.18917883,0.252858465,0.15247036375,-0.244106935
1694268925.4750001,768.7912,786.52014,823.5897,790.54944,0.644554965,0.18917883,0.252858465,0.15247036375,-0.244106935
1694268925.476,752.674,791.75824,825.2015,792.96704,0.644554965,0.18917883,0.252858465,0.15247036375,-0.244106935
1694268925.476,742.1978,791.3553,822.381,789.34064,0.644554965,0.18917883,0.252858465,0.15247036375,-0.244106935
1694268925.477,734.94507,788.93774,821.5751,792.5641,0.644554965,0.18917883,0.252858465,0.15247036375,-0.244106935
1694268925.477,729.304,780.87915,819.5604,795.78754,0.644554965,0.18917883,0.252858465,0.15247036375,-0.244106935
1694268925.4780002,723.663,778.86444,820.7692,795.78754,0.644554965,0.18917883,0.252858465,0.15247036375,-0.244106935
1694268925.4780002,714.7985,782.49084,821.5751,788.1319,0.644554965,0.18917883,0.252858465,0.15247036375,-0.244106935
1694268925.4780002,706.337,784.90845,819.5604,784.5055,0.644554965,0.18917883,0.252858465,0.15247036375,-0.244106935
1694268925.479,717.619,791.75824,821.1722,793.36993,0.644554965,0.18917883,0.252858465,0.15247036375,-0.244106935
1694268925.479,727.28937,792.5641,821.978,797.3993,0.644554965,0.18917883,0.252858465,0.15247036375,-0.244106935
1694268925.524,714.3956,786.1172,820.3663,792.5641,0.644554965,0.18917883,0.252858465,0.15247036375,-0.244106935
1694268925.5249999,695.05493,782.49084,815.9341,787.72894,0.644554965,0.18917883,0.252858465,0.15247036375,-0.244106935
1694268925.5249999,691.02563,783.2967,811.9048,785.7143,0.644554965,0.18917883,0.252858465,0.15247036375,-0.244106935
1694268925.526,698.68134,786.9231,815.9341,794.9817,0.644554965,0.18917883,0.252858465,0.15247036375,-0.244106935
1694268925.526,707.9487,789.7436,816.337,807.0696,0.644554965,0.18917883,0.252858465,0.15247036375,-0.244106935
1694268925.527,709.15753,790.54944,816.337,807.8755,0.644554965,0.18917883,0.252858465,0.15247036375,-0.244106935
1694268925.527,701.0989,788.93774,813.91943,800.6227,0.644554965,0.18917883,0.252858465,0.15247036375,-0.244106935
1694268925.528,707.1429,791.3553,809.4872,799.41394,0.644554965,0.18917883,0.252858465,0.15247036375,-0.244106935
1694268925.528,722.8571,794.57874,809.89014,809.4872,0.644554965,0.18917883,0.252858465,0.15247036375,-0.244106935
1694268925.529,729.707,793.36993,811.50183,808.68134,0.644554965,0.18917883,0.252858465,0.15247036375,-0.244106935
1694268925.529,730.5128,792.1612,813.1135,794.9817,0.644554965,0.18917883,0.252858465,0.15247036375,-0.244106935
1694268925.53,727.28937,794.17584,811.50183,792.5641,0.630608425,0.17967320250000002,0.252858465,0.146317885,-0.24783618249999997
1694268925.585,723.2601,790.9524,811.0989,780.87915,0.630608425,0.17967320250000002,0.252858465,0.146317885,-0.24783618249999997
1694268925.586,733.73627,790.9524,813.5165,783.69965,0.630608425,0.17967320250000002,0.252858465,0.146317885,-0.24783618249999997
1694268925.5870001,732.1245,791.75824,813.1135,795.38464,0.630608425,0.17967320250000002,0.252858465,0.146317885,-0.24783618249999997
1694268925.588,702.3077,788.1319,813.91943,790.9524,0.630608425,0.17967320250000002,0.252858465,0.146317885,-0.24783618249999997
1694268925.588,668.0586,779.2674,807.0696,784.10254,0.630608425,0.17967320250000002,0.252858465,0.146317885,-0.24783618249999997
1694268925.589,643.47986,778.46155,803.44324,784.90845,0.630608425,0.17967320250000002,0.252858465,0.146317885,-0.24783618249999997
1694268925.589,631.79486,789.34064,807.47253,787.72894,0.630608425,0.17967320250000002,0.252858465,0.146317885,-0.24783618249999997
1694268925.5900002,636.63007,789.34064,802.6374,784.90845,0.630608425,0.17967320250000002,0.252858465,0.146317885,-0.24783618249999997
1694268925.591,643.8828,786.9231,797.8022,795.78754,0.630608425,0.17967320250000002,0.252858465,0.146317885,-0.24783618249999997
1694268925.591,640.65936,788.5348,800.6227,793.36993,0.630608425,0.17967320250000002,0.252858465,0.146317885,-0.24783618249999997
1694268925.592,638.24176,784.5055,801.4286,782.49084,0.630608425,0.17967320250000002,0.252858465,0.146317885,-0.24783618249999997
1694268925.592,645.09155,780.87915,799.011,784.10254,0.630608425,0.17967320250000002,0.252858465,0.146317885,-0.24783618249999997
1694268925.593,649.5238,780.07324,799.41394,792.96704,0.630608425,0.17967320250000002,0.252858465,0.146317885,-0.24783618249999997
1694268925.5939999,646.30035,778.0586,803.0403,793.7729,0.630608425,0.17967320250000002,0.252858465,0.146317885,-0.24783618249999997
1694268925.5939999,647.9121,778.0586,803.44324,783.2967,0.630608425,0.17967320250000002,0.252858465,0.146317885,-0.24783618249999997
1694268925.595,652.3443,779.67035,803.0403,785.7143,0.630608425,0.17967320250000002,0.252858465,0.146317885,-0.24783618249999997
1694268925.596,659.59705,785.7143,805.8608,792.1612,0.630608425,0.17967320250000002,0.252858465,0.146317885,-0.24783618249999997
1694268925.596,667.25275,784.10254,803.44324,786.1172,0.630608425,0.17967320250000002,0.252858465,0.146317885,-0.24783618249999997
1694268925.597,670.07324,780.4762,803.0403,781.685,0.630608425,0.17967320250000002,0.252858465,0.146317885,-0.24783618249999997
1694268925.597,668.46155,783.69965,800.6227,789.34064,0.630608425,0.17967320250000002,0.252858465,0.146317885,-0.24783618249999997
1694268925.598,665.64105,783.2967,795.78754,782.49084,0.630608425,0.17967320250000002,0.252858465,0.146317885,-0.24783618249999997
1694268925.599,670.87915,782.49084,798.20514,767.98535,0.630608425,0.17967320250000002,0.252858465,0.146317885,-0.24783618249999997
1694268925.599,690.6227,784.10254,805.05493,774.43225,0.630608425,0.17967320250000002,0.252858465,0.146317885,-0.24783618249999997
1694268925.6,703.91943,788.1319,804.65204,784.90845,0.630608425,0.17967320250000002,0.252858465,0.146317885,-0.24783618249999997
1694268925.626,701.9048,785.31134,799.81683,785.31134,0.630608425,0.17967320250000002,0.252858465,0.146317885,-0.24783618249999997
1694268925.628,697.0696,780.07324,800.6227,780.07324,0.6145709500000001,0.175526445,0.23067151000000002,0.1376149381,-0.25265555100000003
1694268925.631,684.9817,780.4762,803.8461,779.2674,0.6145709500000001,0.175526445,0.23067151000000002,0.1376149381,-0.25265555100000003
1694268925.632,663.22345,778.46155,807.47253,782.8938,0.6145709500000001,0.175526445,0.23067151000000002,0.1376149381,-0.25265555100000003
1694268925.633,641.06226,780.4762,807.47253,784.90845,0.6145709500000001,0.175526445,0.23067151000000002,0.1376149381,-0.25265555100000003
1694268925.633,609.2308,780.4762,806.26373,778.46155,0.6145709500000001,0.175526445,0.23067151000000002,0.1376149381,-0.25265555100000003
1694268925.6339998,574.9817,781.685,802.23444,780.4762,0.6145709500000001,0.175526445,0.23067151000000002,0.1376149381,-0.25265555100000003
1694268925.6339998,564.5055,782.0879,803.44324,797.3993,0.6145709500000001,0.175526445,0.23067151000000002,0.1376149381,-0.25265555100000003
1694268925.635,570.9524,779.2674,806.6667,806.26373,0.6145709500000001,0.175526445,0.23067151000000002,0.1376149381,-0.25265555100000003
1694268925.635,578.20514,781.685,807.47253,799.011,0.6145709500000001,0.175526445,0.23067151000000002,0.1376149381,-0.25265555100000003
1694268925.636,577.3993,784.10254,807.47253,790.54944,0.6145709500000001,0.175526445,0.23067151000000002,0.1376149381,-0.25265555100000003
1694268925.636,566.9231,786.52014,811.9048,791.3553,0.6145709500000001,0.175526445,0.23067151000000002,0.1376149381,-0.25265555100000003
1694268925.6780002,560.07324,785.31134,814.3223,791.75824,0.6145709500000001,0.175526445,0.23067151000000002,0.1376149381,-0.25265555100000003
1694268925.6790001,559.2674,780.07324,808.68134,792.5641,0.6145709500000001,0.175526445,0.23067151000000002,0.1376149381,-0.25265555100000003
1694268925.68,564.90845,785.31134,809.0842,794.9817,0.6145709500000001,0.175526445,0.23067151000000002,0.1376149381,-0.25265555100000003
1694268925.681,571.75824,788.5348,813.5165,791.3553,0.6145709500000001,0.175526445,0.23067151000000002,0.1376149381,-0.25265555100000003
1694268925.681,573.7729,784.5055,814.3223,786.9231,0.6145709500000001,0.175526445,0.23067151000000002,0.1376149381,-0.25265555100000003
1694268925.682,570.14655,782.8938,811.50183,784.5055,0.6145709500000001,0.175526445,0.23067151000000002,0.1376149381,-0.25265555100000003
1694268925.685,574.17584,785.31134,816.337,792.5641,0.6145709500000001,0.175526445,0.23067151000000002,0.1376149381,-0.25265555100000003
1694268925.686,586.26373,787.326,818.3516,796.99634,0.6145709500000001,0.175526445,0.23067151000000002,0.1376149381,-0.25265555100000003
1694268925.687,594.7253,780.4762,813.1135,790.54944,0.6145709500000001,0.175526445,0.23067151000000002,0.1376149381,-0.25265555100000003
1694268925.687,600.3663,778.0586,817.5458,792.5641,0.6145709500000001,0.175526445,0.23067151000000002,0.1376149381,-0.25265555100000003
1694268925.689,603.5897,780.87915,818.7546,791.75824,0.6145709500000001,0.175526445,0.23067151000000002,0.1376149381,-0.25265555100000003
1694268925.6899998,613.663,785.7143,819.15753,796.1905,0.6145709500000001,0.175526445,0.23067151000000002,0.1376149381,-0.25265555100000003
1694268925.7500002,624.94507,785.31134,822.381,800.6227,0.6145709500000001,0.175526445,0.23067151000000002,0.1376149381,-0.25265555100000003
1694268925.7510002,630.58606,782.8938,821.978,805.05493,0.6145709500000001,0.175526445,0.23067151000000002,0.1376149381,-0.25265555100000003
1694268925.752,633.8095,787.326,824.7985,807.8755,0.6145709500000001,0.175526445,0.23067151000000002,0.1376149381,-0.25265555100000003
1694268925.753,638.24176,789.7436,826.8132,805.4579,0.5954016,0.18395432750000001,0.2351250025,0.12814322150000002,-0.259789423
1694268925.7580001,647.9121,787.72894,823.9927,801.02563,0.5954016,0.18395432750000001,0.2351250025,0.12814322150000002,-0.259789423
1694268925.759,651.53845,783.2967,820.3663,799.81683,0.5954016,0.18395432750000001,0.2351250025,0.12814322150000002,-0.259789423
1694268925.76,657.5824,782.8938,817.9487,811.9048,0.5954016,0.18395432750000001,0.2351250025,0.12814322150000002,-0.259789423
1694268925.76,656.77655,786.52014,818.3516,812.71063,0.5954016,0.18395432750000001,0.2351250025,0.12814322150000002,-0.259789423
1694268925.761,647.50916,790.9524,823.1868,798.20514,0.5954016,0.18395432750000001,0.2351250025,0.12814322150000002,-0.259789423
1694268925.7619998,656.77655,789.34064,827.619,807.0696,0.5954016,0.18395432750000001,0.2351250025,0.12814322150000002,-0.259789423
1694268925.7619998,661.6117,783.69965,826.8132,814.7253,0.5954016,0.18395432750000001,0.2351250025,0.12814322150000002,-0.259789423
1694268925.763,658.7912,785.7143,826.4103,803.8461,0.5954016,0.18395432750000001,0.2351250025,0.12814322150000002,-0.259789423
1694268925.7910001,660.40295,791.75824,828.4249,803.0403,0.5954016,0.18395432750000001,0.2351250025,0.12814322150000002,-0.259789423
1694268925.792,656.77655,796.1905,832.8571,818.3516,0.5954016,0.18395432750000001,0.2351250025,0.12814322150000002,-0.259789423
1694268925.792,654.7619,792.96704,830.0366,822.381,0.5954016,0.18395432750000001,0.2351250025,0.12814322150000002,-0.259789423
1694268925.793,657.5824,788.1319,823.1868,809.4872,0.5954016,0.18395432750000001,0.2351250025,0.12814322150000002,-0.259789423
1694268925.794,658.7912,790.54944,823.1868,803.0403,0.5954016,0.18395432750000001,0.2351250025,0.12814322150000002,-0.259789423
1694268925.794,658.7912,794.17584,822.381,811.0989,0.5954016,0.18395432750000001,0.2351250025,0.12814322150000002,-0.259789423
1694268925.795,657.5824,795.78754,827.619,813.5165,0.5954016,0.18395432750000001,0.2351250025,0.12814322150000002,-0.259789423
1694268925.796,656.77655,794.17584,828.8278,802.6374,0.5954016,0.18395432750000001,0.2351250025,0.12814322150000002,-0.259789423
1694268925.797,658.3883,797.3993,828.8278,807.47253,0.5954016,0.18395432750000001,0.2351250025,0.12814322150000002,-0.259789423
1694268925.798,660.80585,801.8315,833.663,819.5604,0.5954016,0.18395432750000001,0.2351250025,0.12814322150000002,-0.259789423
1694268925.799,653.1502,796.5934,832.8571,815.12823,0.5954016,0.18395432750000001,0.2351250025,0.12814322150000002,-0.259789423
1694268925.799,647.1062,797.3993,836.08057,806.6667,0.5954016,0.18395432750000001,0.2351250025,0.12814322150000002,-0.259789423
1694268925.833,652.3443,802.23444,837.28937,805.4579,0.5954016,0.18395432750000001,0.2351250025,0.12814322150000002,-0.259789423
1694268925.8339999,653.5531,796.1905,828.8278,805.8608,0.5954016,0.18395432750000001,0.2351250025,0.12814322150000002,-0.259789423
1694268925.835,662.4176,796.1905,825.2015,802.6374,0.5954016,0.18395432750000001,0.2351250025,0.12814322150000002,-0.259789423
1694268925.836,665.64105,797.8022,821.5751,798.60803,0.5954016,0.18395432750000001,0.2351250025,0.12814322150000002,-0.259789423
1694268925.836,654.35895,799.011,820.7692,796.99634,0.5954016,0.18395432750000001,0.2351250025,0.12814322150000002,-0.259789423
1694268925.837,658.3883,799.81683,826.8132,800.2198,0.5911737175,0.192235625,0.2538017225,0.12077644700000001,-0.2571777745
1694268925.8409998,668.46155,799.81683,823.9927,803.44324,0.5911737175,0.192235625,0.2538017225,0.12077644700000001,-0.2571777745
1694268925.8419998,658.7912,801.8315,817.9487,798.20514,0.5911737175,0.192235625,0.2538017225,0.12077644700000001,-0.2571777745
1694268925.8430002,639.45056,802.6374,817.9487,801.02563,0.5911737175,0.192235625,0.2538017225,0.12077644700000001,-0.2571777745
1694268925.844,630.18317,804.65204,819.5604,804.2491,0.5911737175,0.192235625,0.2538017225,0.12077644700000001,-0.2571777745
1694268925.845,627.76556,807.47253,821.5751,799.81683,0.5911737175,0.192235625,0.2538017225,0.12077644700000001,-0.2571777745
1694268925.8460002,639.45056,811.0989,824.7985,796.99634,0.5911737175,0.192235625,0.2538017225,0.12077644700000001,-0.2571777745
1694268925.868,661.6117,813.1135,825.2015,805.05493,0.5911737175,0.192235625,0.2538017225,0.12077644700000001,-0.2571777745
1694268925.869,659.19415,811.50183,822.7839,812.71063,0.5911737175,0.192235625,0.2538017225,0.12077644700000001,-0.2571777745
1694268925.8700001,644.68866,810.293,819.5604,805.05493,0.5911737175,0.192235625,0.2538017225,0.12077644700000001,-0.2571777745
1694268925.8700001,639.0476,810.293,818.3516,802.23444,0.5911737175,0.192235625,0.2538017225,0.12077644700000001,-0.2571777745
1694268925.871,640.65936,807.47253,820.3663,808.2784,0.5911737175,0.192235625,0.2538017225,0.12077644700000001,-0.2571777745
1694268925.872,651.53845,805.8608,817.5458,810.696,0.5911737175,0.192235625,0.2538017225,0.12077644700000001,-0.2571777745
1694268925.873,655.9707,809.89014,817.1429,807.0696,0.5911737175,0.192235625,0.2538017225,0.12077644700000001,-0.2571777745
1694268925.873,650.7326,805.8608,819.5604,802.6374,0.5911737175,0.192235625,0.2538017225,0.12077644700000001,-0.2571777745
1694268925.8739998,645.09155,806.26373,812.3077,809.4872,0.5911737175,0.192235625,0.2538017225,0.12077644700000001,-0.2571777745
1694268925.8739998,642.27106,806.6667,805.8608,803.44324,0.5911737175,0.192235625,0.2538017225,0.12077644700000001,-0.2571777745
1694268925.875,643.47986,799.41394,809.0842,797.8022,0.5911737175,0.192235625,0.2538017225,0.12077644700000001,-0.2571777745
1694268925.875,645.09155,807.0696,810.293,810.293,0.5911737175,0.192235625,0.2538017225,0.12077644700000001,-0.2571777745
1694268925.924,646.30035,812.3077,815.5311,823.1868,0.5911737175,0.192235625,0.2538017225,0.12077644700000001,-0.2571777745
1694268925.925,643.47986,805.05493,818.3516,811.50183,0.5911737175,0.192235625,0.2538017225,0.12077644700000001,-0.2571777745
1694268925.925,648.71796,809.0842,818.3516,799.41394,0.5911737175,0.192235625,0.2538017225,0.12077644700000001,-0.2571777745
1694268925.926,656.3736,813.1135,817.5458,813.1135,0.5911737175,0.192235625,0.2538017225,0.12077644700000001,-0.2571777745
1694268925.926,660.40295,806.6667,814.3223,810.696,0.5911737175,0.192235625,0.2538017225,0.12077644700000001,-0.2571777745
1694268925.927,658.3883,807.47253,813.5165,799.81683,0.5911737175,0.192235625,0.2538017225,0.12077644700000001,-0.2571777745
1694268925.927,647.9121,813.91943,813.1135,802.6374,0.5911737175,0.192235625,0.2538017225,0.12077644700000001,-0.2571777745
1694268925.927,655.9707,817.9487,816.337,807.8755,0.60161131,0.196740335,0.2552951875,0.11066007550000001,-0.256557745
1694268925.931,670.87915,815.5311,815.12823,826.4103,0.60161131,0.196740335,0.2552951875,0.11066007550000001,-0.256557745
1694268925.931,657.98535,808.2784,813.1135,819.5604,0.60161131,0.196740335,0.2552951875,0.11066007550000001,-0.256557745
1694268925.932,638.24176,808.2784,815.5311,784.90845,0.60161131,0.196740335,0.2552951875,0.11066007550000001,-0.256557745
1694268925.932,636.63007,810.293,815.12823,775.2381,0.60161131,0.196740335,0.2552951875,0.11066007550000001,-0.256557745
1694268925.9740002,637.03296,803.44324,811.0989,771.6117,0.60161131,0.196740335,0.2552951875,0.11066007550000001,-0.256557745
1694268925.9750001,649.92676,803.8461,808.2784,771.2088,0.60161131,0.196740335,0.2552951875,0.11066007550000001,-0.256557745
1694268925.976,657.5824,804.65204,810.696,775.64105,0.60161131,0.196740335,0.2552951875,0.11066007550000001,-0.256557745
1694268925.977,651.9414,803.0403,813.91943,776.4469,0.60161131,0.196740335,0.2552951875,0.11066007550000001,-0.256557745
1694268925.977,660.40295,807.0696,814.7253,776.04395,0.60161131,0.196740335,0.2552951875,0.11066007550000001,-0.256557745
1694268925.978,672.8938,808.2784,816.337,781.28204,0.60161131,0.196740335,0.2552951875,0.11066007550000001,-0.256557745
1694268925.978,681.3553,804.65204,818.3516,784.10254,0.60161131,0.196740335,0.2552951875,0.11066007550000001,-0.256557745
1694268925.979,686.5934,802.23444,818.3516,788.5348,0.60161131,0.196740335,0.2552951875,0.11066007550000001,-0.256557745
1694268925.979,681.3553,805.8608,817.1429,799.011,0.60161131,0.196740335,0.2552951875,0.11066007550000001,-0.256557745
1694268925.98,678.1319,809.4872,813.91943,795.78754,0.60161131,0.196740335,0.2552951875,0.11066007550000001,-0.256557745
1694268925.981,686.5934,807.0696,815.5311,788.93774,0.60161131,0.196740335,0.2552951875,0.11066007550000001,-0.256557745
1694268925.982,697.0696,807.47253,815.12823,797.3993,0.60161131,0.196740335,0.2552951875,0.11066007550000001,-0.256557745
1694268926.012,705.9341,804.2491,814.7253,803.0403,0.60161131,0.196740335,0.2552951875,0.11066007550000001,-0.256557745
1694268926.015,705.12823,799.81683,819.9634,804.65204,0.60161131,0.196740335,0.2552951875,0.11066007550000001,-0.256557745
1694268926.017,698.2784,802.6374,821.1722,804.65204,0.60161131,0.196740335,0.2552951875,0.11066007550000001,-0.256557745
1694268926.018,696.26373,807.0696,824.7985,804.65204,0.60161131,0.196740335,0.2552951875,0.11066007550000001,-0.256557745
1694268926.02,703.5165,807.0696,822.7839,807.0696,0.60161131,0.196740335,0.2552951875,0.11066007550000001,-0.256557745
1694268926.021,713.1868,801.8315,819.5604,800.2198,0.60161131,0.196740335,0.2552951875,0.11066007550000001,-0.256557745
1694268926.023,720.84247,798.20514,821.5751,797.3993,0.60161131,0.196740335,0.2552951875,0.11066007550000001,-0.256557745
1694268926.023,722.0513,795.78754,818.3516,803.0403,0.60161131,0.196740335,0.2552951875,0.11066007550000001,-0.256557745
1694268926.024,723.663,793.7729,816.7399,802.23444,0.60161131,0.196740335,0.2552951875,0.11066007550000001,-0.256557745
1694268926.0249999,732.1245,788.5348,820.3663,800.2198,0.6203751900000001,0.198038285,0.2398499885,0.10105369425,-0.2562807575
1694268926.029,742.1978,785.31134,817.9487,801.02563,0.6203751900000001,0.198038285,0.2398499885,0.10105369425,-0.2562807575
1694268926.029,741.79486,784.5055,814.3223,803.44324,0.6203751900000001,0.198038285,0.2398499885,0.10105369425,-0.2562807575
1694268926.057,737.76556,780.07324,810.293,793.36993,0.6203751900000001,0.198038285,0.2398499885,0.10105369425,-0.2562807575
1694268926.0579998,732.1245,777.6557,805.8608,782.8938,0.6203751900000001,0.198038285,0.2398499885,0.10105369425,-0.2562807575
1694268926.059,732.52747,778.86444,809.89014,795.38464,0.6203751900000001,0.198038285,0.2398499885,0.10105369425,-0.2562807575
1694268926.06,741.39197,780.4762,811.0989,799.81683,0.6203751900000001,0.198038285,0.2398499885,0.10105369425,-0.2562807575
1694268926.0609999,741.39197,781.685,810.696,796.5934,0.6203751900000001,0.198038285,0.2398499885,0.10105369425,-0.2562807575
1694268926.0609999,743.00366,784.90845,814.7253,796.1905,0.6203751900000001,0.198038285,0.2398499885,0.10105369425,-0.2562807575
1694268926.062,745.0183,784.90845,818.3516,802.23444,0.6203751900000001,0.198038285,0.2398499885,0.10105369425,-0.2562807575
1694268926.063,745.82416,784.90845,815.9341,808.2784,0.6203751900000001,0.198038285,0.2398499885,0.10105369425,-0.2562807575
1694268926.063,745.0183,788.93774,811.9048,799.011,0.6203751900000001,0.198038285,0.2398499885,0.10105369425,-0.2562807575
1694268926.064,751.4652,789.34064,811.9048,793.7729,0.6203751900000001,0.198038285,0.2398499885,0.10105369425,-0.2562807575
1694268926.0649998,747.03296,789.34064,813.91943,796.1905,0.6203751900000001,0.198038285,0.2398499885,0.10105369425,-0.2562807575
1694268926.066,739.7802,795.78754,813.1135,796.99634,0.6203751900000001,0.198038285,0.2398499885,0.10105369425,-0.2562807575
1694268926.1009998,745.0183,796.5934,810.293,794.57874,0.6203751900000001,0.198038285,0.2398499885,0.10105369425,-0.2562807575
1694268926.1020002,755.4945,797.8022,816.337,799.81683,0.6203751900000001,0.198038285,0.2398499885,0.10105369425,-0.2562807575
1694268926.1030002,751.4652,797.8022,815.9341,799.011,0.6203751900000001,0.198038285,0.2398499885,0.10105369425,-0.2562807575
1694268926.1030002,743.00366,796.1905,813.5165,792.1612,0.6203751900000001,0.198038285,0.2398499885,0.10105369425,-0.2562807575
1694268926.104,742.6007,796.1905,815.12823,792.96704,0.6203751900000001,0.198038285,0.2398499885,0.10105369425,-0.2562807575
1694268926.105,741.79486,799.41394,817.9487,803.0403,0.6203751900000001,0.198038285,0.2398499885,0.10105369425,-0.2562807575
1694268926.105,750.65936,802.6374,820.7692,808.2784,0.6203751900000001,0.198038285,0.2398499885,0.10105369425,-0.2562807575
1694268926.106,763.5531,805.4579,819.15753,809.4872,0.6203751900000001,0.198038285,0.2398499885,0.10105369425,-0.2562807575
1694268926.106,763.5531,807.8755,820.7692,807.47253,0.6203751900000001,0.198038285,0.2398499885,0.10105369425,-0.2562807575
1694268926.107,762.3443,806.26373,819.15753,794.17584,0.6203751900000001,0.198038285,0.2398499885,0.10105369425,-0.2562807575
1694268926.107,774.0293,808.68134,821.1722,805.4579,0.6203751900000001,0.198038285,0.2398499885,0.10105369425,-0.2562807575
1694268926.108,784.90845,809.89014,819.15753,814.7253,0.6387032175,0.19677227149999998,0.2103291175,0.09494653075,-0.25675866750000004
1694268926.1369998,785.7143,803.8461,815.9341,800.2198,0.6387032175,0.19677227149999998,0.2103291175,0.09494653075,-0.25675866750000004
1694268926.1379998,788.5348,805.4579,817.5458,801.4286,0.6387032175,0.19677227149999998,0.2103291175,0.09494653075,-0.25675866750000004
1694268926.1379998,792.5641,810.293,816.7399,809.0842,0.6387032175,0.19677227149999998,0.2103291175,0.09494653075,-0.25675866750000004
1694268926.1390002,790.14655,808.68134,811.0989,804.65204,0.6387032175,0.19677227149999998,0.2103291175,0.09494653075,-0.25675866750000004
1694268926.1390002,786.9231,804.2491,806.26373,800.2198,0.6387032175,0.19677227149999998,0.2103291175,0.09494653075,-0.25675866750000004
1694268926.14,788.1319,803.0403,809.89014,807.0696,0.6387032175,0.19677227149999998,0.2103291175,0.09494653075,-0.25675866750000004
1694268926.14,785.7143,805.8608,813.1135,805.05493,0.6387032175,0.19677227149999998,0.2103291175,0.09494653075,-0.25675866750000004
1694268926.141,774.83514,810.696,811.9048,804.2491,0.6387032175,0.19677227149999998,0.2103291175,0.09494653075,-0.25675866750000004
1694268926.141,780.4762,817.1429,815.5311,806.6667,0.6387032175,0.19677227149999998,0.2103291175,0.09494653075,-0.25675866750000004
1694268926.1420002,785.7143,817.5458,819.9634,811.50183,0.6387032175,0.19677227149999998,0.2103291175,0.09494653075,-0.25675866750000004
1694268926.1420002,788.93774,811.0989,812.71063,817.9487,0.6387032175,0.19677227149999998,0.2103291175,0.09494653075,-0.25675866750000004
1694268926.1430001,801.4286,809.89014,807.8755,809.0842,0.6387032175,0.19677227149999998,0.2103291175,0.09494653075,-0.25675866750000004
1694268926.169,792.1612,807.8755,812.71063,805.8608,0.6387032175,0.19677227149999998,0.2103291175,0.09494653075,-0.25675866750000004
1694268926.1699998,785.31134,808.68134,811.50183,807.8755,0.6387032175,0.19677227149999998,0.2103291175,0.09494653075,-0.25675866750000004
1694268926.171,793.7729,811.0989,808.68134,813.1135,0.6387032175,0.19677227149999998,0.2103291175,0.09494653075,-0.25675866750000004
1694268926.171,790.54944,804.65204,808.2784,810.293,0.6387032175,0.19677227149999998,0.2103291175,0.09494653075,-0.25675866750000004
1694268926.171,776.4469,801.8315,807.0696,805.4579,0.6387032175,0.19677227149999998,0.2103291175,0.09494653075,-0.25675866750000004
1694268926.172,767.5824,808.2784,811.9048,811.9048,0.6387032175,0.19677227149999998,0.2103291175,0.09494653075,-0.25675866750000004
1694268926.1729999,765.9707,809.0842,812.3077,808.2784,0.6387032175,0.19677227149999998,0.2103291175,0.09494653075,-0.25675866750000004
1694268926.1729999,767.5824,803.0403,809.89014,801.4286,0.6387032175,0.19677227149999998,0.2103291175,0.09494653075,-0.25675866750000004
1694268926.174,770.80585,805.05493,810.696,803.44324,0.6387032175,0.19677227149999998,0.2103291175,0.09494653075,-0.25675866750000004
1694268926.174,764.7619,804.65204,810.293,806.26373,0.6387032175,0.19677227149999998,0.2103291175,0.09494653075,-0.25675866750000004
1694268926.175,757.50916,802.23444,815.12823,801.8315,0.6387032175,0.19677227149999998,0.2103291175,0.09494653075,-0.25675866750000004
1694268926.175,753.0769,800.2198,815.5311,798.20514,0.6387032175,0.19677227149999998,0.2103291175,0.09494653075,-0.25675866750000004
1694268926.2419999,751.06226,799.81683,813.1135,801.4286,0.6387032175,0.19677227149999998,0.2103291175,0.09494653075,-0.25675866750000004
1694268926.243,756.30035,805.05493,813.5165,811.0989,0.651658725,0.19974797500000002,0.18942508749999998,0.0917011265,-0.2551482335
1694268926.248,755.89746,808.2784,811.0989,816.7399,0.651658725,0.19974797500000002,0.18942508749999998,0.0917011265,-0.2551482335
1694268926.248,747.8388,809.89014,810.293,806.26373,0.651658725,0.19974797500000002,0.18942508749999998,0.0917011265,-0.2551482335
1694268926.2489998,740.18317,806.6667,808.2784,799.81683,0.651658725,0.19974797500000002,0.18942508749999998,0.0917011265,-0.2551482335
1694268926.2499998,743.8095,803.0403,812.71063,797.3993,0.651658725,0.19974797500000002,0.18942508749999998,0.0917011265,-0.2551482335
1694268926.2510002,749.85345,799.81683,809.89014,800.6227,0.651658725,0.19974797500000002,0.18942508749999998,0.0917011265,-0.2551482335
1694268926.2510002,753.47986,797.3993,805.4579,801.4286,0.651658725,0.19974797500000002,0.18942508749999998,0.0917011265,-0.2551482335
1694268926.252,755.4945,796.99634,806.6667,801.4286,0.651658725,0.19974797500000002,0.18942508749999998,0.0917011265,-0.2551482335
1694268926.253,752.27106,798.20514,808.2784,807.0696,0.651658725,0.19974797500000002,0.18942508749999998,0.0917011265,-0.2551482335
1694268926.253,751.06226,801.4286,811.50183,803.0403,0.651658725,0.19974797500000002,0.18942508749999998,0.0917011265,-0.2551482335
1694268926.2540002,758.315,800.6227,807.47253,794.57874,0.651658725,0.19974797500000002,0.18942508749999998,0.0917011265,-0.2551482335
1694268926.2870002,759.12085,802.23444,802.6374,795.38464,0.651658725,0.19974797500000002,0.18942508749999998,0.0917011265,-0.2551482335
1694268926.293,754.68866,802.6374,806.26373,793.36993,0.651658725,0.19974797500000002,0.18942508749999998,0.0917011265,-0.2551482335
1694268926.2940001,751.8681,802.6374,810.293,784.5055,0.651658725,0.19974797500000002,0.18942508749999998,0.0917011265,-0.2551482335
1694268926.296,746.63007,800.2198,803.0403,780.07324,0.651658725,0.19974797500000002,0.18942508749999998,0.0917011265,-0.2551482335
1694268926.296,766.77655,799.81683,803.0403,789.34064,0.651658725,0.19974797500000002,0.18942508749999998,0.0917011265,-0.2551482335
1694268926.2979999,787.326,802.6374,811.9048,800.6227,0.651658725,0.19974797500000002,0.18942508749999998,0.0917011265,-0.2551482335
1694268926.3,788.5348,799.81683,809.0842,792.5641,0.651658725,0.19974797500000002,0.18942508749999998,0.0917011265,-0.2551482335
1694268926.3009999,794.17584,801.8315,807.0696,788.5348,0.651658725,0.19974797500000002,0.18942508749999998,0.0917011265,-0.2551482335
1694268926.302,801.4286,801.02563,805.05493,794.57874,0.651658725,0.19974797500000002,0.18942508749999998,0.0917011265,-0.2551482335
1694268926.302,811.50183,794.17584,798.60803,793.36993,0.651658725,0.19974797500000002,0.18942508749999998,0.0917011265,-0.2551482335
1694268926.303,820.3663,794.17584,801.4286,780.4762,0.651658725,0.19974797500000002,0.18942508749999998,0.0917011265,-0.2551482335
1694268926.304,816.7399,794.9817,804.2491,774.0293,0.651658725,0.19974797500000002,0.18942508749999998,0.0917011265,-0.2551482335
1694268926.33,808.68134,798.60803,799.81683,773.22345,0.651658725,0.19974797500000002,0.18942508749999998,0.0917011265,-0.2551482335
1694268926.331,803.44324,796.99634,794.17584,775.64105,0.651658725,0.19974797500000002,0.18942508749999998,0.0917011265,-0.2551482335
1694268926.331,804.2491,787.326,791.75824,778.0586,0.651658725,0.19974797500000002,0.18942508749999998,0.0917011265,-0.2551482335
1694268926.332,807.8755,782.8938,791.75824,779.2674,0.6601682074999999,0.206995765,0.20910688249999998,0.09414501575,-0.24929398825000001
1694268926.336,807.47253,782.8938,794.17584,784.10254,0.6601682074999999,0.206995765,0.20910688249999998,0.09414501575,-0.24929398825000001
1694268926.337,802.23444,783.2967,792.5641,775.2381,0.6601682074999999,0.206995765,0.20910688249999998,0.09414501575,-0.24929398825000001
1694268926.3379998,802.6374,785.31134,795.38464,770.40295,0.6601682074999999,0.206995765,0.20910688249999998,0.09414501575,-0.24929398825000001
1694268926.3379998,812.71063,785.7143,796.99634,779.67035,0.6601682074999999,0.206995765,0.20910688249999998,0.09414501575,-0.24929398825000001
1694268926.339,820.3663,788.5348,796.5934,785.7143,0.6601682074999999,0.206995765,0.20910688249999998,0.09414501575,-0.24929398825000001
1694268926.339,815.5311,786.9231,795.78754,779.67035,0.6601682074999999,0.206995765,0.20910688249999998,0.09414501575,-0.24929398825000001
1694268926.34,807.0696,783.2967,797.8022,774.83514,0.6601682074999999,0.206995765,0.20910688249999998,0.09414501575,-0.24929398825000001
1694268926.3409998,802.6374,782.0879,801.4286,774.43225,0.6601682074999999,0.206995765,0.20910688249999998,0.09414501575,-0.24929398825000001
1694268926.372,803.44324,772.01465,801.8315,776.4469,0.6601682074999999,0.206995765,0.20910688249999998,0.09414501575,-0.24929398825000001
1694268926.374,807.47253,775.2381,800.6227,775.64105,0.6601682074999999,0.206995765,0.20910688249999998,0.09414501575,-0.24929398825000001
1694268926.374,801.02563,784.10254,803.44324,777.6557,0.6601682074999999,0.206995765,0.20910688249999998,0.09414501575,-0.24929398825000001
1694268926.375,764.7619,784.5055,809.0842,786.1172,0.6601682074999999,0.206995765,0.20910688249999998,0.09414501575,-0.24929398825000001
1694268926.376,734.1392,788.5348,809.89014,794.9817,0.6601682074999999,0.206995765,0.20910688249999998,0.09414501575,-0.24929398825000001
1694268926.3769999,716.8132,790.14655,809.89014,797.3993,0.6601682074999999,0.206995765,0.20910688249999998,0.09414501575,-0.24929398825000001
1694268926.3769999,701.50183,787.72894,811.50183,801.8315,0.6601682074999999,0.206995765,0.20910688249999998,0.09414501575,-0.24929398825000001
1694268926.3779998,687.3993,787.326,815.12823,813.91943,0.6601682074999999,0.206995765,0.20910688249999998,0.09414501575,-0.24929398825000001
1694268926.379,668.86444,790.9524,819.9634,815.5311,0.6601682074999999,0.206995765,0.20910688249999998,0.09414501575,-0.24929398825000001
1694268926.38,645.89746,784.90845,813.1135,801.4286,0.6601682074999999,0.206995765,0.20910688249999998,0.09414501575,-0.24929398825000001
1694268926.38,641.06226,781.28204,809.4872,801.02563,0.6601682074999999,0.206995765,0.20910688249999998,0.09414501575,-0.24929398825000001
1694268926.381,652.3443,782.49084,813.91943,816.337,0.6601682074999999,0.206995765,0.20910688249999998,0.09414501575,-0.24929398825000001
1694268926.409,646.30035,784.10254,812.71063,808.68134,0.6601682074999999,0.206995765,0.20910688249999998,0.09414501575,-0.24929398825000001
1694268926.4099998,635.82416,788.1319,811.0989,798.20514,0.6601682074999999,0.206995765,0.20910688249999998,0.09414501575,-0.24929398825000001
1694268926.411,639.45056,786.52014,814.7253,804.65204,0.6601682074999999,0.206995765,0.20910688249999998,0.09414501575,-0.24929398825000001
1694268926.411,657.98535,790.14655,811.0989,802.6374,0.6601682074999999,0.206995765,0.20910688249999998,0.09414501575,-0.24929398825000001
1694268926.412,672.49084,795.78754,810.696,804.65204,0.6601682074999999,0.206995765,0.20910688249999998,0.09414501575,-0.24929398825000001
1694268926.4129999,666.04395,796.1905,813.1135,801.4286,0.6631615,0.21925397000000002,0.22796821374999998,0.0984975115,-0.24128562250000002
1694268926.4169998,657.5824,797.3993,813.5165,793.7729,0.6631615,0.21925397000000002,0.22796821374999998,0.0984975115,-0.24128562250000002
1694268926.418,659.19415,801.8315,814.7253,802.23444,0.6631615,0.21925397000000002,0.22796821374999998,0.0984975115,-0.24128562250000002
1694268926.418,662.01465,798.60803,814.7253,807.8755,0.6631615,0.21925397000000002,0.22796821374999998,0.0984975115,-0.24128562250000002
1694268926.4190001,661.6117,796.5934,812.3077,806.6667,0.6631615,0.21925397000000002,0.22796821374999998,0.0984975115,-0.24128562250000002
1694268926.42,661.6117,795.38464,811.50183,807.0696,0.6631615,0.21925397000000002,0.22796821374999998,0.0984975115,-0.24128562250000002
1694268926.421,649.92676,794.17584,813.1135,808.2784,0.6631615,0.21925397000000002,0.22796821374999998,0.0984975115,-0.24128562250000002
1694268926.452,642.674,799.81683,811.50183,799.41394,0.6631615,0.21925397000000002,0.22796821374999998,0.0984975115,-0.24128562250000002
1694268926.4529998,649.12085,797.8022,810.696,796.1905,0.6631615,0.21925397000000002,0.22796821374999998,0.0984975115,-0.24128562250000002
1694268926.4540002,659.19415,796.99634,810.696,798.60803,0.6631615,0.21925397000000002,0.22796821374999998,0.0984975115,-0.24128562250000002
1694268926.4550002,666.8498,800.6227,812.3077,799.011,0.6631615,0.21925397000000002,0.22796821374999998,0.0984975115,-0.24128562250000002
1694268926.4550002,661.2088,797.8022,809.89014,792.96704,0.6631615,0.21925397000000002,0.22796821374999998,0.0984975115,-0.24128562250000002
1694268926.456,653.1502,797.8022,811.0989,789.34064,0.6631615,0.21925397000000002,0.22796821374999998,0.0984975115,-0.24128562250000002
1694268926.457,662.4176,804.2491,814.3223,799.41394,0.6631615,0.21925397000000002,0.22796821374999998,0.0984975115,-0.24128562250000002
1694268926.457,675.7143,807.8755,813.91943,796.5934,0.6631615,0.21925397000000002,0.22796821374999998,0.0984975115,-0.24128562250000002
1694268926.458,676.52014,809.0842,820.3663,788.5348,0.6631615,0.21925397000000002,0.22796821374999998,0.0984975115,-0.24128562250000002
1694268926.458,671.28204,807.0696,825.2015,792.96704,0.6631615,0.21925397000000002,0.22796821374999998,0.0984975115,-0.24128562250000002
1694268926.459,672.49084,805.8608,820.7692,792.96704,0.6631615,0.21925397000000002,0.22796821374999998,0.0984975115,-0.24128562250000002
1694268926.459,672.8938,808.2784,814.7253,788.5348,0.6631615,0.21925397000000002,0.22796821374999998,0.0984975115,-0.24128562250000002
1694268926.508,677.326,809.0842,813.1135,788.5348,0.6631615,0.21925397000000002,0.22796821374999998,0.0984975115,-0.24128562250000002
1694268926.5089998,678.1319,801.8315,810.293,789.34064,0.6631615,0.21925397000000002,0.22796821374999998,0.0984975115,-0.24128562250000002
1694268926.5100002,679.7436,802.23444,811.0989,796.1905,0.6631615,0.21925397000000002,0.22796821374999998,0.0984975115,-0.24128562250000002
1694268926.5100002,680.14655,807.8755,818.3516,791.3553,0.6631615,0.21925397000000002,0.22796821374999998,0.0984975115,-0.24128562250000002
1694268926.5110002,675.7143,808.2784,821.5751,790.54944,0.6631615,0.21925397000000002,0.22796821374999998,0.0984975115,-0.24128562250000002
1694268926.512,683.36993,808.2784,821.1722,806.26373,0.6631615,0.21925397000000002,0.22796821374999998,0.0984975115,-0.24128562250000002
1694268926.512,694.65204,808.2784,819.9634,809.0842,0.6631615,0.21925397000000002,0.22796821374999998,0.0984975115,-0.24128562250000002
1694268926.513,694.65204,810.696,822.7839,802.23444,0.6645038875,0.2322773805,0.25433310075,0.10013332975,-0.23358763999999999
1694268926.517,689.011,810.293,822.381,796.1905,0.6645038875,0.2322773805,0.25433310075,0.10013332975,-0.23358763999999999
1694268926.5180001,690.2198,807.0696,819.9634,798.20514,0.6645038875,0.2322773805,0.25433310075,0.10013332975,-0.23358763999999999
1694268926.5180001,703.5165,806.6667,818.3516,802.23444,0.6645038875,0.2322773805,0.25433310075,0.10013332975,-0.23358763999999999
1694268926.519,713.5897,808.68134,813.1135,805.8608,0.6645038875,0.2322773805,0.25433310075,0.10013332975,-0.23358763999999999
1694268926.548,713.9927,811.50183,813.91943,807.0696,0.6645038875,0.2322773805,0.25433310075,0.10013332975,-0.23358763999999999
1694268926.5500002,702.71063,811.50183,817.1429,804.2491,0.6645038875,0.2322773805,0.25433310075,0.10013332975,-0.23358763999999999
1694268926.551,692.23444,809.89014,813.91943,801.4286,0.6645038875,0.2322773805,0.25433310075,0.10013332975,-0.23358763999999999
1694268926.552,698.2784,809.4872,810.696,797.3993,0.6645038875,0.2322773805,0.25433310075,0.10013332975,-0.23358763999999999
1694268926.553,705.9341,811.50183,809.89014,798.20514,0.6645038875,0.2322773805,0.25433310075,0.10013332975,-0.23358763999999999
1694268926.555,701.50183,812.3077,808.2784,806.26373,0.6645038875,0.2322773805,0.25433310075,0.10013332975,-0.23358763999999999
1694268926.555,697.47253,813.1135,809.89014,808.2784,0.6645038875,0.2322773805,0.25433310075,0.10013332975,-0.23358763999999999
1694268926.556,694.65204,814.3223,809.89014,799.81683,0.6645038875,0.2322773805,0.25433310075,0.10013332975,-0.23358763999999999
1694268926.557,703.5165,819.15753,812.71063,799.41394,0.6645038875,0.2322773805,0.25433310075,0.10013332975,-0.23358763999999999
1694268926.557,709.15753,815.9341,816.7399,811.50183,0.6645038875,0.2322773805,0.25433310075,0.10013332975,-0.23358763999999999
1694268926.559,701.9048,808.68134,817.1429,811.9048,0.6645038875,0.2322773805,0.25433310075,0.10013332975,-0.23358763999999999
1694268926.559,697.0696,813.91943,817.5458,801.4286,0.6645038875,0.2322773805,0.25433310075,0.10013332975,-0.23358763999999999
1694268926.608,697.47253,818.7546,819.15753,803.0403,0.6645038875,0.2322773805,0.25433310075,0.10013332975,-0.23358763999999999
1694268926.609,700.293,815.5311,821.5751,806.26373,0.6645038875,0.2322773805,0.25433310075,0.10013332975,-0.23358763999999999
1694268926.61,703.1135,809.89014,814.7253,803.44324,0.6645038875,0.2322773805,0.25433310075,0.10013332975,-0.23358763999999999
1694268926.61,702.3077,809.89014,812.71063,806.26373,0.6645038875,0.2322773805,0.25433310075,0.10013332975,-0.23358763999999999
1694268926.611,709.5604,815.12823,816.7399,808.2784,0.6645038875,0.2322773805,0.25433310075,0.10013332975,-0.23358763999999999
1694268926.611,718.022,810.696,819.9634,812.3077,0.6645038875,0.2322773805,0.25433310075,0.10013332975,-0.23358763999999999
1694268926.612,723.2601,804.2491,822.7839,812.3077,0.6645038875,0.2322773805,0.25433310075,0.10013332975,-0.23358763999999999
1694268926.612,731.31866,811.50183,823.1868,803.0403,0.6645038875,0.2322773805,0.25433310075,0.10013332975,-0.23358763999999999
1694268926.613,736.9597,814.7253,822.7839,805.4579,0.6645038875,0.2322773805,0.25433310075,0.10013332975,-0.23358763999999999
1694268926.613,736.9597,815.12823,817.1429,811.0989,0.6727242600000001,0.24436044875,0.278552693,0.09822160275,-0.2262102685
1694268926.6169999,735.7509,817.1429,812.3077,807.0696,0.6727242600000001,0.24436044875,0.278552693,0.09822160275,-0.2262102685
1694268926.6179998,742.1978,816.337,812.3077,802.23444,0.6727242600000001,0.24436044875,0.278552693,0.09822160275,-0.2262102685
1694268926.6460001,748.6447,814.3223,811.50183,803.0403,0.6727242600000001,0.24436044875,0.278552693,0.09822160275,-0.2262102685
1694268926.647,750.65936,814.3223,812.3077,801.8315,0.6727242600000001,0.24436044875,0.278552693,0.09822160275,-0.2262102685
1694268926.648,744.61536,813.1135,811.50183,796.5934,0.6727242600000001,0.24436044875,0.278552693,0.09822160275,-0.2262102685
1694268926.648,736.9597,813.5165,813.1135,802.23444,0.6727242600000001,0.24436044875,0.278552693,0.09822160275,-0.2262102685
1694268926.649,740.989,814.7253,818.7546,805.4579,0.6727242600000001,0.24436044875,0.278552693,0.09822160275,-0.2262102685
1694268926.649,745.0183,809.89014,817.9487,805.4579,0.6727242600000001,0.24436044875,0.278552693,0.09822160275,-0.2262102685
1694268926.6499999,742.1978,808.68134,817.5458,806.6667,0.6727242600000001,0.24436044875,0.278552693,0.09822160275,-0.2262102685
1694268926.6499999,739.3773,809.4872,811.0989,801.8315,0.6727242600000001,0.24436044875,0.278552693,0.09822160275,-0.2262102685
1694268926.651,734.94507,810.293,811.50183,797.8022,0.6727242600000001,0.24436044875,0.278552693,0.09822160275,-0.2262102685
1694268926.651,733.73627,812.71063,813.5165,796.99634,0.6727242600000001,0.24436044875,0.278552693,0.09822160275,-0.2262102685
1694268926.652,738.97437,813.91943,812.71063,797.3993,0.6727242600000001,0.24436044875,0.278552693,0.09822160275,-0.2262102685
1694268926.652,750.65936,817.1429,814.7253,799.41394,0.6727242600000001,0.24436044875,0.278552693,0.09822160275,-0.2262102685
1694268926.71,749.0476,817.9487,811.50183,808.68134,0.6727242600000001,0.24436044875,0.278552693,0.09822160275,-0.2262102685
1694268926.711,743.8095,814.7253,809.4872,809.89014,0.6727242600000001,0.24436044875,0.278552693,0.09822160275,-0.2262102685
1694268926.711,744.21246,817.5458,809.89014,794.57874,0.6727242600000001,0.24436044875,0.278552693,0.09822160275,-0.2262102685
1694268926.712,750.2564,820.7692,807.8755,795.78754,0.6727242600000001,0.24436044875,0.278552693,0.09822160275,-0.2262102685
1694268926.7129998,760.7326,819.5604,808.2784,803.44324,0.6727242600000001,0.24436044875,0.278552693,0.09822160275,-0.2262102685
1694268926.714,765.56775,823.1868,812.71063,799.41394,0.6727242600000001,0.24436044875,0.278552693,0.09822160275,-0.2262102685
1694268926.714,759.92676,821.978,815.12823,799.81683,0.6727242600000001,0.24436044875,0.278552693,0.09822160275,-0.2262102685
1694268926.7150002,758.315,816.7399,813.5165,807.0696,0.6727242600000001,0.24436044875,0.278552693,0.09822160275,-0.2262102685
1694268926.7150002,764.7619,817.5458,809.4872,801.8315,0.6727242600000001,0.24436044875,0.278552693,0.09822160275,-0.2262102685
1694268926.716,765.16486,815.5311,806.6667,796.99634,0.6727242600000001,0.24436044875,0.278552693,0.09822160275,-0.2262102685
1694268926.717,767.1795,813.1135,810.696,803.44324,0.6727242600000001,0.24436044875,0.278552693,0.09822160275,-0.2262102685
1694268926.717,762.74725,815.12823,813.1135,803.8461,0.68988356,0.2588820685,0.29523624,0.0945875375,-0.2179547475
1694268926.752,756.30035,816.7399,810.696,796.99634,0.68988356,0.2588820685,0.29523624,0.0945875375,-0.2179547475
1694268926.753,763.5531,819.5604,809.0842,794.9817,0.68988356,0.2588820685,0.29523624,0.0945875375,-0.2179547475
1694268926.754,772.4176,821.5751,812.71063,802.23444,0.68988356,0.2588820685,0.29523624,0.0945875375,-0.2179547475
1694268926.755,772.4176,818.3516,814.7253,800.6227,0.68988356,0.2588820685,0.29523624,0.0945875375,-0.2179547475
1694268926.755,765.56775,815.5311,813.91943,794.9817,0.68988356,0.2588820685,0.29523624,0.0945875375,-0.2179547475
1694268926.756,767.98535,821.1722,815.12823,797.3993,0.68988356,0.2588820685,0.29523624,0.0945875375,-0.2179547475
1694268926.757,776.8498,823.5897,813.1135,792.96704,0.68988356,0.2588820685,0.29523624,0.0945875375,-0.2179547475
1694268926.757,772.4176,817.9487,808.2784,790.14655,0.68988356,0.2588820685,0.29523624,0.0945875375,-0.2179547475
1694268926.7580001,761.13556,815.9341,808.68134,795.38464,0.68988356,0.2588820685,0.29523624,0.0945875375,-0.2179547475
1694268926.759,759.5238,816.7399,810.293,790.9524,0.68988356,0.2588820685,0.29523624,0.0945875375,-0.2179547475
1694268926.76,755.4945,817.1429,806.26373,789.7436,0.68988356,0.2588820685,0.29523624,0.0945875375,-0.2179547475
1694268926.761,752.27106,818.3516,804.65204,805.4579,0.68988356,0.2588820685,0.29523624,0.0945875375,-0.2179547475
1694268926.7859998,762.74725,815.12823,806.6667,804.65204,0.68988356,0.2588820685,0.29523624,0.0945875375,-0.2179547475
1694268926.7870002,766.77655,814.7253,808.2784,794.57874,0.68988356,0.2588820685,0.29523624,0.0945875375,-0.2179547475
1694268926.788,765.9707,819.9634,813.91943,796.99634,0.68988356,0.2588820685,0.29523624,0.0945875375,-0.2179547475
1694268926.789,773.22345,824.7985,812.71063,800.6227,0.68988356,0.2588820685,0.29523624,0.0945875375,-0.2179547475
1694268926.789,790.54944,818.7546,807.47253,812.71063,0.68988356,0.2588820685,0.29523624,0.0945875375,-0.2179547475
1694268926.7900002,778.0586,809.4872,815.9341,806.26373,0.68988356,0.2588820685,0.29523624,0.0945875375,-0.2179547475
1694268926.7900002,752.27106,809.0842,821.1722,795.78754,0.68988356,0.2588820685,0.29523624,0.0945875375,-0.2179547475
1694268926.7910001,760.7326,812.71063,819.5604,802.6374,0.68988356,0.2588820685,0.29523624,0.0945875375,-0.2179547475
1694268926.7910001,772.01465,810.293,817.9487,805.05493,0.68988356,0.2588820685,0.29523624,0.0945875375,-0.2179547475
1694268926.792,767.5824,803.0403,814.3223,813.1135,0.68988356,0.2588820685,0.29523624,0.0945875375,-0.2179547475
1694268926.792,776.8498,805.4579,815.5311,820.7692,0.68988356,0.2588820685,0.29523624,0.0945875375,-0.2179547475
1694268926.793,786.52014,809.4872,813.91943,819.15753,0.68988356,0.2588820685,0.29523624,0.0945875375,-0.2179547475
1694268926.855,784.90845,805.4579,809.89014,819.5604,0.68988356,0.2588820685,0.29523624,0.0945875375,-0.2179547475
1694268926.856,783.69965,804.65204,815.12823,809.0842,0.7083236225,0.274551351,0.3053262325,0.09176567125,-0.20928340499999998
1694268926.8609998,775.2381,807.0696,815.9341,803.8461,0.7083236225,0.274551351,0.3053262325,0.09176567125,-0.20928340499999998
1694268926.8609998,775.64105,811.0989,817.9487,811.9048,0.7083236225,0.274551351,0.3053262325,0.09176567125,-0.20928340499999998
1694268926.8620002,785.31134,812.3077,819.15753,814.3223,0.7083236225,0.274551351,0.3053262325,0.09176567125,-0.20928340499999998
1694268926.8630002,777.6557,806.6667,813.1135,809.0842,0.7083236225,0.274551351,0.3053262325,0.09176567125,-0.20928340499999998
1694268926.864,768.3883,806.6667,815.12823,813.1135,0.7083236225,0.274551351,0.3053262325,0.09176567125,-0.20928340499999998
1694268926.864,762.74725,807.0696,815.5311,818.3516,0.7083236225,0.274551351,0.3053262325,0.09176567125,-0.20928340499999998
1694268926.865,770.80585,804.65204,807.47253,809.0842,0.7083236225,0.274551351,0.3053262325,0.09176567125,-0.20928340499999998
1694268926.866,778.46155,803.0403,805.4579,808.68134,0.7083236225,0.274551351,0.3053262325,0.09176567125,-0.20928340499999998
1694268926.866,769.59705,803.8461,807.47253,810.293,0.7083236225,0.274551351,0.3053262325,0.09176567125,-0.20928340499999998
1694268926.867,759.12085,803.8461,805.4579,806.26373,0.7083236225,0.274551351,0.3053262325,0.09176567125,-0.20928340499999998
1694268926.911,753.0769,801.4286,804.2491,803.8461,0.7083236225,0.274551351,0.3053262325,0.09176567125,-0.20928340499999998
1694268926.912,756.7033,803.44324,807.47253,809.89014,0.7083236225,0.274551351,0.3053262325,0.09176567125,-0.20928340499999998
1694268926.9129999,759.92676,801.02563,807.8755,817.1429,0.7083236225,0.274551351,0.3053262325,0.09176567125,-0.20928340499999998
1694268926.9129999,754.68866,802.23444,807.8755,812.3077,0.7083236225,0.274551351,0.3053262325,0.09176567125,-0.20928340499999998
1694268926.9139998,756.30035,804.65204,810.293,804.2491,0.7083236225,0.274551351,0.3053262325,0.09176567125,-0.20928340499999998
1694268926.915,761.53845,799.81683,807.8755,798.60803,0.7083236225,0.274551351,0.3053262325,0.09176567125,-0.20928340499999998
1694268926.915,759.12085,800.2198,805.05493,802.23444,0.7083236225,0.274551351,0.3053262325,0.09176567125,-0.20928340499999998
1694268926.916,757.9121,799.41394,801.8315,796.1905,0.7083236225,0.274551351,0.3053262325,0.09176567125,-0.20928340499999998
1694268926.9169998,753.8828,793.36993,799.41394,790.9524,0.7083236225,0.274551351,0.3053262325,0.09176567125,-0.20928340499999998
1694268926.9180002,748.6447,794.9817,803.44324,795.38464,0.7083236225,0.274551351,0.3053262325,0.09176567125,-0.20928340499999998
1694268926.9180002,748.24176,796.1905,804.65204,797.3993,0.7083236225,0.274551351,0.3053262325,0.09176567125,-0.20928340499999998
1694268926.9190001,759.12085,795.78754,805.8608,800.2198,0.7083236225,0.274551351,0.3053262325,0.09176567125,-0.20928340499999998
1694268926.978,772.8205,803.44324,811.50183,803.0403,0.7083236225,0.274551351,0.3053262325,0.09176567125,-0.20928340499999998
1694268926.979,772.8205,806.6667,812.3077,801.02563,0.7083236225,0.274551351,0.3053262325,0.09176567125,-0.20928340499999998
1694268926.98,754.68866,803.0403,811.0989,798.60803,0.7083236225,0.274551351,0.3053262325,0.09176567125,-0.20928340499999998
1694268926.981,749.0476,805.4579,813.5165,799.41394,0.7220486749999999,0.28699605,0.3171998225,0.09083361025,-0.20212219250000002
1694268926.9859998,754.2857,808.68134,813.91943,799.011,0.7220486749999999,0.28699605,0.3171998225,0.09083361025,-0.20212219250000002
1694268926.9859998,752.27106,803.44324,810.293,802.6374,0.7220486749999999,0.28699605,0.3171998225,0.09083361025,-0.20212219250000002
1694268926.987,747.8388,799.81683,811.9048,809.0842,0.7220486749999999,0.28699605,0.3171998225,0.09083361025,-0.20212219250000002
1694268926.988,737.76556,801.8315,812.3077,803.44324,0.7220486749999999,0.28699605,0.3171998225,0.09083361025,-0.20212219250000002
1694268926.9889998,732.52747,803.44324,806.26373,791.75824,0.7220486749999999,0.28699605,0.3171998225,0.09083361025,-0.20212219250000002
1694268926.9889998,735.7509,799.81683,807.0696,803.44324,0.7220486749999999,0.28699605,0.3171998225,0.09083361025,-0.20212219250000002
1694268926.99,736.55676,794.9817,808.2784,806.26373,0.7220486749999999,0.28699605,0.3171998225,0.09083361025,-0.20212219250000002
1694268926.9910002,738.97437,796.5934,805.8608,795.38464,0.7220486749999999,0.28699605,0.3171998225,0.09083361025,-0.20212219250000002
1694268927.019,738.1685,799.81683,807.47253,796.5934,0.7220486749999999,0.28699605,0.3171998225,0.09083361025,-0.20212219250000002
1694268927.02,739.3773,800.2198,809.4872,797.3993,0.7220486749999999,0.28699605,0.3171998225,0.09083361025,-0.20212219250000002
1694268927.021,747.4359,796.5934,806.26373,791.75824,0.7220486749999999,0.28699605,0.3171998225,0.09083361025,-0.20212219250000002
1694268927.022,767.5824,796.99634,807.8755,792.96704,0.7220486749999999,0.28699605,0.3171998225,0.09083361025,-0.20212219250000002
1694268927.022,779.67035,799.41394,805.05493,799.41394,0.7220486749999999,0.28699605,0.3171998225,0.09083361025,-0.20212219250000002
1694268927.023,779.2674,792.5641,799.81683,788.93774,0.7220486749999999,0.28699605,0.3171998225,0.09083361025,-0.20212219250000002
1694268927.024,795.78754,792.96704,803.0403,785.31134,0.7220486749999999,0.28699605,0.3171998225,0.09083361025,-0.20212219250000002
1694268927.0249999,812.71063,797.3993,804.2491,789.34064,0.7220486749999999,0.28699605,0.3171998225,0.09083361025,-0.20212219250000002
1694268927.0259998,815.5311,790.54944,801.02563,796.99634,0.7220486749999999,0.28699605,0.3171998225,0.09083361025,-0.20212219250000002
1694268927.027,828.022,787.326,799.81683,807.8755,0.7220486749999999,0.28699605,0.3171998225,0.09083361025,-0.20212219250000002
1694268927.027,834.4689,792.5641,800.2198,797.3993,0.7220486749999999,0.28699605,0.3171998225,0.09083361025,-0.20212219250000002
1694268927.028,834.0659,796.99634,803.0403,792.1612,0.7220486749999999,0.28699605,0.3171998225,0.09083361025,-0.20212219250000002
1694268927.036,844.1392,793.36993,802.6374,793.36993,0.7220486749999999,0.28699605,0.3171998225,0.09083361025,-0.20212219250000002
1694268927.037,848.5714,788.93774,801.4286,795.38464,0.7220486749999999,0.28699605,0.3171998225,0.09083361025,-0.20212219250000002
1694268927.038,849.3773,793.36993,809.0842,793.7729,0.7220486749999999,0.28699605,0.3171998225,0.09083361025,-0.20212219250000002
1694268927.038,846.9597,796.1905,814.7253,794.17584,0.7220486749999999,0.28699605,0.3171998225,0.09083361025,-0.20212219250000002
1694268927.039,842.52747,792.5641,810.293,801.4286,0.7220486749999999,0.28699605,0.3171998225,0.09083361025,-0.20212219250000002
1694268927.04,844.94507,789.7436,809.89014,802.6374,0.7304951125,0.2922228125,0.32336302250000004,0.0915756515,-0.19748812149999997
1694268927.0449998,849.3773,788.5348,814.3223,806.26373,0.7304951125,0.2922228125,0.32336302250000004,0.0915756515,-0.19748812149999997
1694268927.0449998,855.82416,789.7436,815.9341,809.0842,0.7304951125,0.2922228125,0.32336302250000004,0.0915756515,-0.19748812149999997
1694268927.0460002,849.7802,788.1319,814.7253,813.91943,0.7304951125,0.2922228125,0.32336302250000004,0.0915756515,-0.19748812149999997
1694268927.0460002,836.8865,785.31134,811.9048,809.4872,0.7304951125,0.2922228125,0.32336302250000004,0.0915756515,-0.19748812149999997
1694268927.0470002,838.49817,782.0879,813.1135,797.3993,0.7304951125,0.2922228125,0.32336302250000004,0.0915756515,-0.19748812149999997
1694268927.0470002,855.82416,786.1172,811.50183,799.81683,0.7304951125,0.2922228125,0.32336302250000004,0.0915756515,-0.19748812149999997
1694268927.071,865.4945,786.52014,811.50183,813.5165,0.7304951125,0.2922228125,0.32336302250000004,0.0915756515,-0.19748812149999997
1694268927.072,861.06226,780.87915,815.9341,810.696,0.7304951125,0.2922228125,0.32336302250000004,0.0915756515,-0.19748812149999997
1694268927.072,870.32965,788.1319,817.1429,806.6667,0.7304951125,0.2922228125,0.32336302250000004,0.0915756515,-0.19748812149999997
1694268927.073,880.0,792.96704,820.3663,811.50183,0.7304951125,0.2922228125,0.32336302250000004,0.0915756515,-0.19748812149999997
1694268927.074,881.6117,790.14655,817.1429,809.0842,0.7304951125,0.2922228125,0.32336302250000004,0.0915756515,-0.19748812149999997
1694268927.074,881.6117,789.7436,812.3077,804.65204,0.7304951125,0.2922228125,0.32336302250000004,0.0915756515,-0.19748812149999997
1694268927.075,878.3883,796.5934,818.3516,804.65204,0.7304951125,0.2922228125,0.32336302250000004,0.0915756515,-0.19748812149999997
1694268927.075,872.3443,800.6227,822.7839,805.8608,0.7304951125,0.2922228125,0.32336302250000004,0.0915756515,-0.19748812149999997
1694268927.076,867.50916,799.41394,817.5458,805.05493,0.7304951125,0.2922228125,0.32336302250000004,0.0915756515,-0.19748812149999997
1694268927.076,870.7326,797.8022,809.89014,801.02563,0.7304951125,0.2922228125,0.32336302250000004,0.0915756515,-0.19748812149999997
1694268927.077,874.35895,794.9817,809.0842,800.2198,0.7304951125,0.2922228125,0.32336302250000004,0.0915756515,-0.19748812149999997
1694268927.077,873.5531,795.38464,811.0989,803.0403,0.7304951125,0.2922228125,0.32336302250000004,0.0915756515,-0.19748812149999997
1694268927.1430001,861.06226,798.20514,814.7253,803.0403,0.7304951125,0.2922228125,0.32336302250000004,0.0915756515,-0.19748812149999997
1694268927.145,843.73627,796.99634,818.3516,801.02563,0.7304951125,0.2922228125,0.32336302250000004,0.0915756515,-0.19748812149999997
1694268927.146,841.7216,791.3553,814.7253,802.23444,0.7304951125,0.2922228125,0.32336302250000004,0.0915756515,-0.19748812149999997
1694268927.146,853.00366,792.96704,815.5311,807.8755,0.7304951125,0.2922228125,0.32336302250000004,0.0915756515,-0.19748812149999997
1694268927.147,862.674,797.3993,819.9634,809.0842,0.7304951125,0.2922228125,0.32336302250000004,0.0915756515,-0.19748812149999997
1694268927.148,858.24176,792.96704,822.7839,807.0696,0.7304951125,0.2922228125,0.32336302250000004,0.0915756515,-0.19748812149999997
1694268927.15,850.989,788.1319,820.3663,798.20514,0.7304951125,0.2922228125,0.32336302250000004,0.0915756515,-0.19748812149999997
1694268927.151,863.0769,792.1612,817.1429,805.05493,0.734429275,0.2907514215,0.32501956,0.09275477975,-0.19501060250000002
1694268927.155,875.9707,796.5934,817.1429,814.7253,0.734429275,0.2907514215,0.32501956,0.09275477975,-0.19501060250000002
1694268927.156,871.13556,796.5934,815.5311,805.05493,0.734429275,0.2907514215,0.32501956,0.09275477975,-0.19501060250000002
1694268927.1569998,861.8681,796.1905,814.3223,801.8315,0.734429275,0.2907514215,0.32501956,0.09275477975,-0.19501060250000002
1694268927.1580002,860.2564,798.20514,816.7399,809.0842,0.734429275,0.2907514215,0.32501956,0.09275477975,-0.19501060250000002
1694268927.184,863.8828,797.3993,816.337,812.71063,0.734429275,0.2907514215,0.32501956,0.09275477975,-0.19501060250000002
1694268927.185,861.4652,795.38464,814.7253,808.2784,0.734429275,0.2907514215,0.32501956,0.09275477975,-0.19501060250000002
1694268927.1859999,859.45056,796.99634,815.12823,807.0696,0.734429275,0.2907514215,0.32501956,0.09275477975,-0.19501060250000002
1694268927.1859999,860.2564,802.6374,818.7546,804.2491,0.734429275,0.2907514215,0.32501956,0.09275477975,-0.19501060250000002
1694268927.187,856.2271,807.47253,817.9487,801.4286,0.734429275,0.2907514215,0.32501956,0.09275477975,-0.19501060250000002
1694268927.188,849.7802,806.26373,809.89014,802.6374,0.734429275,0.2907514215,0.32501956,0.09275477975,-0.19501060250000002
1694268927.188,851.39197,805.05493,809.4872,810.293,0.734429275,0.2907514215,0.32501956,0.09275477975,-0.19501060250000002
1694268927.189,841.7216,801.4286,814.7253,823.9927,0.734429275,0.2907514215,0.32501956,0.09275477975,-0.19501060250000002
1694268927.19,833.2601,799.011,814.7253,815.9341,0.734429275,0.2907514215,0.32501956,0.09275477975,-0.19501060250000002
1694268927.191,826.8132,801.02563,814.3223,804.2491,0.734429275,0.2907514215,0.32501956,0.09275477975,-0.19501060250000002
1694268927.191,823.9927,799.81683,814.7253,804.65204,0.734429275,0.2907514215,0.32501956,0.09275477975,-0.19501060250000002
1694268927.192,829.6337,798.20514,813.1135,804.65204,0.734429275,0.2907514215,0.32501956,0.09275477975,-0.19501060250000002
1694268927.223,827.2161,800.2198,813.91943,806.6667,0.734429275,0.2907514215,0.32501956,0.09275477975,-0.19501060250000002
1694268927.225,807.47253,793.7729,812.3077,797.8022,0.734429275,0.2907514215,0.32501956,0.09275477975,-0.19501060250000002
1694268927.225,774.43225,793.36993,811.9048,794.57874,0.734429275,0.2907514215,0.32501956,0.09275477975,-0.19501060250000002
1694268927.2259998,761.13556,797.3993,814.3223,794.9817,0.734429275,0.2907514215,0.32501956,0.09275477975,-0.19501060250000002
1694268927.2259998,759.12085,798.20514,810.696,799.81683,0.734429275,0.2907514215,0.32501956,0.09275477975,-0.19501060250000002
1694268927.227,741.79486,799.41394,807.8755,804.2491,0.734429275,0.2907514215,0.32501956,0.09275477975,-0.19501060250000002
1694268927.227,724.87177,801.8315,807.47253,806.6667,0.734429275,0.2907514215,0.32501956,0.09275477975,-0.19501060250000002
1694268927.228,719.6337,803.0403,809.89014,807.8755,0.734429275,0.2907514215,0.32501956,0.09275477975,-0.19501060250000002
1694268927.228,726.4835,805.8608,813.1135,803.44324,0.734429275,0.2907514215,0.32501956,0.09275477975,-0.19501060250000002
1694268927.2289999,726.4835,802.6374,813.1135,804.2491,0.735612315,0.285719675,0.3262347725,0.09351675414999999,-0.1947639875
1694268927.233,737.76556,803.8461,815.9341,806.6667,0.735612315,0.285719675,0.3262347725,0.09351675414999999,-0.1947639875
1694268927.233,747.03296,807.8755,814.3223,800.6227,0.735612315,0.285719675,0.3262347725,0.09351675414999999,-0.1947639875
1694268927.293,738.5714,806.26373,812.3077,796.1905,0.735612315,0.285719675,0.3262347725,0.09351675414999999,-0.1947639875
1694268927.2940001,739.3773,804.65204,811.9048,801.4286,0.735612315,0.285719675,0.3262347725,0.09351675414999999,-0.1947639875
1694268927.295,743.4066,798.60803,809.89014,802.6374,0.735612315,0.285719675,0.3262347725,0.09351675414999999,-0.1947639875
1694268927.295,757.50916,799.81683,811.50183,802.23444,0.735612315,0.285719675,0.3262347725,0.09351675414999999,-0.1947639875
1694268927.296,774.83514,799.81683,811.9048,798.20514,0.735612315,0.285719675,0.3262347725,0.09351675414999999,-0.1947639875
1694268927.297,791.75824,791.3553,814.7253,806.26373,0.735612315,0.285719675,0.3262347725,0.09351675414999999,-0.1947639875
1694268927.297,810.293,794.57874,811.50183,818.7546,0.735612315,0.285719675,0.3262347725,0.09351675414999999,-0.1947639875
1694268927.2979999,801.02563,805.4579,799.011,800.2198,0.735612315,0.285719675,0.3262347725,0.09351675414999999,-0.1947639875
1694268927.2979999,806.26373,809.89014,794.9817,788.5348,0.735612315,0.285719675,0.3262347725,0.09351675414999999,-0.1947639875
1694268927.299,819.5604,813.5165,796.5934,800.6227,0.735612315,0.285719675,0.3262347725,0.09351675414999999,-0.1947639875
1694268927.3,811.0989,812.71063,794.57874,800.6227,0.735612315,0.285719675,0.3262347725,0.09351675414999999,-0.1947639875
1694268927.3,815.5311,811.0989,794.17584,797.3993,0.735612315,0.285719675,0.3262347725,0.09351675414999999,-0.1947639875
1694268927.332,816.7399,807.8755,794.17584,796.1905,0.735612315,0.285719675,0.3262347725,0.09351675414999999,-0.1947639875
1694268927.333,819.9634,803.8461,793.7729,802.23444,0.735612315,0.285719675,0.3262347725,0.09351675414999999,-0.1947639875
1694268927.334,819.15753,806.26373,797.8022,808.68134,0.735612315,0.285719675,0.3262347725,0.09351675414999999,-0.1947639875
1694268927.334,807.8755,806.26373,800.2198,799.81683,0.735612315,0.285719675,0.3262347725,0.09351675414999999,-0.1947639875
1694268927.335,801.8315,801.4286,799.41394,797.3993,0.735612315,0.285719675,0.3262347725,0.09351675414999999,-0.1947639875
1694268927.335,801.8315,796.99634,798.20514,794.57874,0.735612315,0.285719675,0.3262347725,0.09351675414999999,-0.1947639875
1694268927.336,799.41394,800.6227,799.81683,795.78754,0.735612315,0.285719675,0.3262347725,0.09351675414999999,-0.1947639875
1694268927.337,788.5348,800.6227,803.0403,798.60803,0.735612315,0.285719675,0.3262347725,0.09351675414999999,-0.1947639875
1694268927.337,778.0586,803.8461,806.6667,799.41394,0.735612315,0.285719675,0.3262347725,0.09351675414999999,-0.1947639875
1694268927.3379998,771.2088,809.89014,809.0842,807.0696,0.735612315,0.285719675,0.3262347725,0.09351675414999999,-0.1947639875
1694268927.3379998,770.0,804.65204,805.05493,808.2784,0.735612315,0.285719675,0.3262347725,0.09351675414999999,-0.1947639875
1694268927.339,774.0293,806.6667,807.8755,807.8755,0.7332693625000001,0.28375762250000003,0.32886574749999997,0.094085236715,-0.194333115
1694268927.367,774.0293,809.4872,809.4872,814.3223,0.7332693625000001,0.28375762250000003,0.32886574749999997,0.094085236715,-0.194333115
1694268927.368,760.32965,803.44324,807.0696,811.50183,0.7332693625000001,0.28375762250000003,0.32886574749999997,0.094085236715,-0.194333115
1694268927.369,755.09155,803.0403,806.6667,805.8608,0.7332693625000001,0.28375762250000003,0.32886574749999997,0.094085236715,-0.194333115
1694268927.37,759.12085,804.2491,811.0989,811.0989,0.7332693625000001,0.28375762250000003,0.32886574749999997,0.094085236715,-0.194333115
1694268927.37,755.09155,803.0403,814.7253,815.9341,0.7332693625000001,0.28375762250000003,0.32886574749999997,0.094085236715,-0.194333115
1694268927.371,752.674,802.6374,813.91943,821.1722,0.7332693625000001,0.28375762250000003,0.32886574749999997,0.094085236715,-0.194333115
1694268927.372,751.4652,798.60803,811.50183,813.1135,0.7332693625000001,0.28375762250000003,0.32886574749999997,0.094085236715,-0.194333115
1694268927.373,748.6447,796.5934,809.89014,792.1612,0.7332693625000001,0.28375762250000003,0.32886574749999997,0.094085236715,-0.194333115
1694268927.374,750.2564,802.6374,815.5311,799.011,0.7332693625000001,0.28375762250000003,0.32886574749999997,0.094085236715,-0.194333115
1694268927.375,759.5238,805.05493,815.9341,811.9048,0.7332693625000001,0.28375762250000003,0.32886574749999997,0.094085236715,-0.194333115
1694268927.376,763.1502,805.05493,810.293,805.05493,0.7332693625000001,0.28375762250000003,0.32886574749999997,0.094085236715,-0.194333115
1694268927.376,761.53845,804.65204,808.2784,801.8315,0.7332693625000001,0.28375762250000003,0.32886574749999997,0.094085236715,-0.194333115
1694268927.404,755.09155,801.8315,807.8755,806.26373,0.7332693625000001,0.28375762250000003,0.32886574749999997,0.094085236715,-0.194333115
1694268927.405,757.50916,803.0403,811.9048,808.2784,0.7332693625000001,0.28375762250000003,0.32886574749999997,0.094085236715,-0.194333115
1694268927.405,759.12085,802.6374,815.12823,810.696,0.7332693625000001,0.28375762250000003,0.32886574749999997,0.094085236715,-0.194333115
1694268927.4060001,752.674,806.6667,813.1135,809.4872,0.7332693625000001,0.28375762250000003,0.32886574749999997,0.094085236715,-0.194333115
1694268927.4060001,741.79486,812.71063,811.0989,807.0696,0.7332693625000001,0.28375762250000003,0.32886574749999997,0.094085236715,-0.194333115
1694268927.407,725.6777,807.47253,815.9341,810.293,0.7332693625000001,0.28375762250000003,0.32886574749999997,0.094085236715,-0.194333115
1694268927.407,728.9011,803.44324,819.9634,807.8755,0.7332693625000001,0.28375762250000003,0.32886574749999997,0.094085236715,-0.194333115
1694268927.408,737.76556,809.89014,819.9634,805.8608,0.7332693625000001,0.28375762250000003,0.32886574749999997,0.094085236715,-0.194333115
1694268927.408,731.31866,807.47253,819.5604,807.8755,0.7332693625000001,0.28375762250000003,0.32886574749999997,0.094085236715,-0.194333115
1694268927.4099998,720.4396,801.02563,817.9487,804.2491,0.7332693625000001,0.28375762250000003,0.32886574749999997,0.094085236715,-0.194333115
1694268927.411,715.2015,805.8608,817.1429,796.1905,0.7332693625000001,0.28375762250000003,0.32886574749999997,0.094085236715,-0.194333115
1694268927.412,716.8132,807.47253,813.91943,797.3993,0.7332693625000001,0.28375762250000003,0.32886574749999997,0.094085236715,-0.194333115
1694268927.436,722.0513,806.6667,813.1135,804.65204,0.7332693625000001,0.28375762250000003,0.32886574749999997,0.094085236715,-0.194333115
1694268927.4390001,746.2271,807.8755,816.7399,812.71063,0.7265085,0.28193033624999997,0.327749815,0.094724501525,-0.19772432499999998
1694268927.444,785.7143,808.68134,820.3663,814.7253,0.7265085,0.28193033624999997,0.327749815,0.094724501525,-0.19772432499999998
1694268927.445,811.9048,806.6667,817.5458,809.4872,0.7265085,0.28193033624999997,0.327749815,0.094724501525,-0.19772432499999998
1694268927.446,842.9304,805.8608,817.9487,814.3223,0.7265085,0.28193033624999997,0.327749815,0.094724501525,-0.19772432499999998
1694268927.446,877.5824,805.8608,817.5458,824.7985,0.7265085,0.28193033624999997,0.327749815,0.094724501525,-0.19772432499999998
1694268927.448,902.5641,795.78754,813.91943,818.3516,0.7265085,0.28193033624999997,0.327749815,0.094724501525,-0.19772432499999998
1694268927.449,914.65204,792.5641,817.1429,805.05493,0.7265085,0.28193033624999997,0.327749815,0.094724501525,-0.19772432499999998
1694268927.449,922.71063,801.4286,817.1429,811.9048,0.7265085,0.28193033624999997,0.327749815,0.094724501525,-0.19772432499999998
1694268927.4499998,928.3516,800.6227,814.7253,810.293,0.7265085,0.28193033624999997,0.327749815,0.094724501525,-0.19772432499999998
1694268927.4499998,939.6337,796.1905,811.0989,798.60803,0.7265085,0.28193033624999997,0.327749815,0.094724501525,-0.19772432499999998
1694268927.451,959.3773,795.78754,810.293,797.8022,0.7265085,0.28193033624999997,0.327749815,0.094724501525,-0.19772432499999998
1694268927.479,960.58606,794.17584,815.9341,799.011,0.7265085,0.28193033624999997,0.327749815,0.094724501525,-0.19772432499999998
1694268927.48,950.9158,801.02563,817.5458,796.1905,0.7265085,0.28193033624999997,0.327749815,0.094724501525,-0.19772432499999998
1694268927.481,948.9011,803.8461,810.696,790.14655,0.7265085,0.28193033624999997,0.327749815,0.094724501525,-0.19772432499999998
1694268927.481,953.73627,800.2198,806.6667,790.9524,0.7265085,0.28193033624999997,0.327749815,0.094724501525,-0.19772432499999998
1694268927.4819999,965.0183,799.81683,812.71063,795.38464,0.7265085,0.28193033624999997,0.327749815,0.094724501525,-0.19772432499999998
1694268927.4819999,971.8681,801.02563,816.7399,800.2198,0.7265085,0.28193033624999997,0.327749815,0.094724501525,-0.19772432499999998
1694268927.483,973.47986,801.8315,814.7253,801.4286,0.7265085,0.28193033624999997,0.327749815,0.094724501525,-0.19772432499999998
1694268927.483,970.65936,805.05493,813.91943,801.02563,0.7265085,0.28193033624999997,0.327749815,0.094724501525,-0.19772432499999998
1694268927.484,969.0476,807.47253,816.337,805.05493,0.7265085,0.28193033624999997,0.327749815,0.094724501525,-0.19772432499999998
1694268927.485,975.89746,806.6667,817.1429,796.5934,0.7265085,0.28193033624999997,0.327749815,0.094724501525,-0.19772432499999998
1694268927.485,976.30035,805.8608,817.1429,790.54944,0.7265085,0.28193033624999997,0.327749815,0.094724501525,-0.19772432499999998
1694268927.485,964.61536,804.65204,817.9487,800.6227,0.7265085,0.28193033624999997,0.327749815,0.094724501525,-0.19772432499999998
1694268927.543,960.989,806.26373,818.7546,804.2491,0.7265085,0.28193033624999997,0.327749815,0.094724501525,-0.19772432499999998
1694268927.544,966.63007,807.0696,817.5458,793.36993,0.7265085,0.28193033624999997,0.327749815,0.094724501525,-0.19772432499999998
1694268927.5449998,973.47986,806.26373,814.7253,794.17584,0.7265085,0.28193033624999997,0.327749815,0.094724501525,-0.19772432499999998
1694268927.5449998,972.27106,809.4872,809.89014,800.2198,0.7079211750000001,0.2767405975,0.332004885,0.09888961585,-0.20602767249999998
1694268927.5500002,963.4066,809.0842,809.0842,796.1905,0.7079211750000001,0.2767405975,0.332004885,0.09888961585,-0.20602767249999998
1694268927.551,958.97437,803.8461,814.3223,796.99634,0.7079211750000001,0.2767405975,0.332004885,0.09888961585,-0.20602767249999998
1694268927.552,952.9304,805.05493,813.5165,799.41394,0.7079211750000001,0.2767405975,0.332004885,0.09888961585,-0.20602767249999998
1694268927.553,949.707,805.05493,817.5458,801.8315,0.7079211750000001,0.2767405975,0.332004885,0.09888961585,-0.20602767249999998
1694268927.554,966.2271,801.02563,820.7692,816.337,0.7079211750000001,0.2767405975,0.332004885,0.09888961585,-0.20602767249999998
1694268927.555,957.3626,803.0403,811.9048,807.8755,0.7079211750000001,0.2767405975,0.332004885,0.09888961585,-0.20602767249999998
1694268927.555,920.293,808.68134,804.2491,771.2088,0.7079211750000001,0.2767405975,0.332004885,0.09888961585,-0.20602767249999998
1694268927.556,913.44324,809.0842,806.26373,766.77655,0.7079211750000001,0.2767405975,0.332004885,0.09888961585,-0.20602767249999998
1694268927.5870001,926.337,803.8461,810.293,768.3883,0.7079211750000001,0.2767405975,0.332004885,0.09888961585,-0.20602767249999998
1694268927.588,924.3223,799.011,806.6667,766.77655,0.7079211750000001,0.2767405975,0.332004885,0.09888961585,-0.20602767249999998
1694268927.589,915.8608,801.4286,809.4872,779.67035,0.7079211750000001,0.2767405975,0.332004885,0.09888961585,-0.20602767249999998
1694268927.589,904.57874,805.4579,809.89014,786.1172,0.7079211750000001,0.2767405975,0.332004885,0.09888961585,-0.20602767249999998
1694268927.5900002,901.75824,804.65204,805.05493,779.67035,0.7079211750000001,0.2767405975,0.332004885,0.09888961585,-0.20602767249999998
1694268927.5900002,913.8461,800.6227,807.0696,778.86444,0.7079211750000001,0.2767405975,0.332004885,0.09888961585,-0.20602767249999998
1694268927.591,914.65204,798.20514,803.0403,784.90845,0.7079211750000001,0.2767405975,0.332004885,0.09888961585,-0.20602767249999998
1694268927.591,909.011,800.2198,800.2198,788.5348,0.7079211750000001,0.2767405975,0.332004885,0.09888961585,-0.20602767249999998
1694268927.592,909.81683,803.44324,801.8315,776.4469,0.7079211750000001,0.2767405975,0.332004885,0.09888961585,-0.20602767249999998
1694268927.593,911.02563,804.65204,805.05493,775.2381,0.7079211750000001,0.2767405975,0.332004885,0.09888961585,-0.20602767249999998
1694268927.593,917.0696,803.8461,804.2491,787.72894,0.7079211750000001,0.2767405975,0.332004885,0.09888961585,-0.20602767249999998
1694268927.5939999,923.91943,804.2491,803.44324,792.1612,0.7079211750000001,0.2767405975,0.332004885,0.09888961585,-0.20602767249999998
1694268927.6179998,919.89014,803.8461,801.4286,790.9524,0.7079211750000001,0.2767405975,0.332004885,0.09888961585,-0.20602767249999998
1694268927.619,912.6374,809.89014,797.8022,787.72894,0.7079211750000001,0.2767405975,0.332004885,0.09888961585,-0.20602767249999998
1694268927.619,913.44324,809.4872,797.8022,784.10254,0.7079211750000001,0.2767405975,0.332004885,0.09888961585,-0.20602767249999998
1694268927.62,924.7253,803.8461,801.8315,791.3553,0.7079211750000001,0.2767405975,0.332004885,0.09888961585,-0.20602767249999998
1694268927.621,924.7253,803.44324,803.8461,796.5934,0.7079211750000001,0.2767405975,0.332004885,0.09888961585,-0.20602767249999998
1694268927.621,913.8461,800.6227,804.65204,792.1612,0.678964275,0.27343734,0.33699917749999997,0.10451619,-0.211348515
1694268927.625,910.2198,799.011,805.05493,796.99634,0.678964275,0.27343734,0.33699917749999997,0.10451619,-0.211348515
1694268927.626,911.4286,799.011,798.60803,803.0403,0.678964275,0.27343734,0.33699917749999997,0.10451619,-0.211348515
1694268927.627,918.68134,803.44324,796.99634,795.38464,0.678964275,0.27343734,0.33699917749999997,0.10451619,-0.211348515
1694268927.627,921.50183,801.4286,799.81683,799.81683,0.678964275,0.27343734,0.33699917749999997,0.10451619,-0.211348515
1694268927.628,910.6227,796.5934,799.011,800.2198,0.678964275,0.27343734,0.33699917749999997,0.10451619,-0.211348515
1694268927.628,900.54944,795.78754,799.41394,787.72894,0.678964275,0.27343734,0.33699917749999997,0.10451619,-0.211348515
1694268927.698,900.14655,791.75824,801.4286,788.5348,0.678964275,0.27343734,0.33699917749999997,0.10451619,-0.211348515
1694268927.7,909.011,789.7436,803.0403,796.1905,0.678964275,0.27343734,0.33699917749999997,0.10451619,-0.211348515
1694268927.701,917.8755,791.75824,803.0403,796.1905,0.678964275,0.27343734,0.33699917749999997,0.10451619,-0.211348515
1694268927.701,913.44324,790.54944,801.8315,792.1612,0.678964275,0.27343734,0.33699917749999997,0.10451619,-0.211348515
1694268927.7020001,903.7729,789.34064,795.78754,787.72894,0.678964275,0.27343734,0.33699917749999997,0.10451619,-0.211348515
1694268927.703,902.96704,793.7729,796.99634,794.9817,0.678964275,0.27343734,0.33699917749999997,0.10451619,-0.211348515
1694268927.704,909.41394,797.3993,801.4286,798.60803,0.678964275,0.27343734,0.33699917749999997,0.10451619,-0.211348515
1694268927.705,916.26373,796.5934,797.8022,790.9524,0.678964275,0.27343734,0.33699917749999997,0.10451619,-0.211348515
1694268927.708,922.71063,796.99634,800.2198,791.3553,0.678964275,0.27343734,0.33699917749999997,0.10451619,-0.211348515
1694268927.7089999,911.02563,796.5934,802.6374,795.78754,0.678964275,0.27343734,0.33699917749999997,0.10451619,-0.211348515
1694268927.7089999,897.72894,795.38464,799.011,789.34064,0.678964275,0.27343734,0.33699917749999997,0.10451619,-0.211348515
1694268927.71,903.7729,797.3993,801.4286,782.8938,0.678964275,0.27343734,0.33699917749999997,0.10451619,-0.211348515
1694268927.7649999,906.1905,796.99634,802.23444,793.7729,0.678964275,0.27343734,0.33699917749999997,0.10451619,-0.211348515
1694268927.766,900.54944,797.3993,794.9817,799.81683,0.678964275,0.27343734,0.33699917749999997,0.10451619,-0.211348515
1694268927.766,897.72894,799.81683,797.3993,794.17584,0.678964275,0.27343734,0.33699917749999997,0.10451619,-0.211348515
1694268927.767,888.0586,796.5934,801.8315,786.1172,0.678964275,0.27343734,0.33699917749999997,0.10451619,-0.211348515
1694268927.768,879.59705,792.5641,800.2198,778.0586,0.678964275,0.27343734,0.33699917749999997,0.10451619,-0.211348515
1694268927.769,885.2381,793.7729,796.99634,777.6557,0.678964275,0.27343734,0.33699917749999997,0.10451619,-0.211348515
1694268927.769,888.46155,792.96704,796.5934,784.5055,0.678964275,0.27343734,0.33699917749999997,0.10451619,-0.211348515
1694268927.77,884.83514,794.17584,801.02563,784.10254,0.6481739375,0.2697234025,0.34376242749999997,0.107906271225,-0.21364037
1694268927.775,880.40295,796.1905,801.4286,784.90845,0.6481739375,0.2697234025,0.34376242749999997,0.107906271225,-0.21364037
1694268927.776,875.56775,791.75824,797.8022,788.5348,0.6481739375,0.2697234025,0.34376242749999997,0.107906271225,-0.21364037
1694268927.777,873.95605,794.57874,795.78754,788.93774,0.6481739375,0.2697234025,0.34376242749999997,0.107906271225,-0.21364037
1694268927.7779999,877.98535,802.23444,799.41394,794.9817,0.6481739375,0.2697234025,0.34376242749999997,0.107906271225,-0.21364037
1694268927.813,882.4176,801.02563,805.4579,805.4579,0.6481739375,0.2697234025,0.34376242749999997,0.107906271225,-0.21364037
1694268927.8140001,877.1795,803.44324,808.68134,807.8755,0.6481739375,0.2697234025,0.34376242749999997,0.107906271225,-0.21364037
1694268927.815,875.56775,803.0403,809.4872,796.5934,0.6481739375,0.2697234025,0.34376242749999997,0.107906271225,-0.21364037
1694268927.816,878.3883,799.41394,809.4872,797.8022,0.6481739375,0.2697234025,0.34376242749999997,0.107906271225,-0.21364037
1694268927.817,886.4469,805.8608,808.68134,800.2198,0.6481739375,0.2697234025,0.34376242749999997,0.107906271225,-0.21364037
1694268927.817,882.4176,808.68134,806.26373,793.36993,0.6481739375,0.2697234025,0.34376242749999997,0.107906271225,-0.21364037
1694268927.8179998,871.9414,801.8315,810.293,793.7729,0.6481739375,0.2697234025,0.34376242749999997,0.107906271225,-0.21364037
1694268927.8179998,870.32965,802.23444,805.8608,793.7729,0.6481739375,0.2697234025,0.34376242749999997,0.107906271225,-0.21364037
1694268927.819,870.7326,801.02563,801.02563,794.17584,0.6481739375,0.2697234025,0.34376242749999997,0.107906271225,-0.21364037
1694268927.82,874.35895,800.2198,805.8608,800.6227,0.6481739375,0.2697234025,0.34376242749999997,0.107906271225,-0.21364037
1694268927.8209999,865.4945,806.26373,801.8315,793.7729,0.6481739375,0.2697234025,0.34376242749999997,0.107906271225,-0.21364037
1694268927.8209999,859.85345,810.696,801.8315,793.36993,0.6481739375,0.2697234025,0.34376242749999997,0.107906271225,-0.21364037
1694268927.823,859.85345,808.68134,804.65204,801.4286,0.6481739375,0.2697234025,0.34376242749999997,0.107906271225,-0.21364037
1694268927.824,850.18317,805.4579,802.23444,797.8022,0.6481739375,0.2697234025,0.34376242749999997,0.107906271225,-0.21364037
1694268927.825,846.55676,808.68134,805.4579,798.20514,0.6481739375,0.2697234025,0.34376242749999997,0.107906271225,-0.21364037
1694268927.826,846.1539,809.4872,809.0842,808.68134,0.6481739375,0.2697234025,0.34376242749999997,0.107906271225,-0.21364037
1694268927.826,838.0952,808.2784,805.4579,805.8608,0.6481739375,0.2697234025,0.34376242749999997,0.107906271225,-0.21364037
1694268927.8270001,835.2747,807.47253,803.0403,802.23444,0.6481739375,0.2697234025,0.34376242749999997,0.107906271225,-0.21364037
1694268927.8270001,840.10986,810.696,804.65204,796.1905,0.6481739375,0.2697234025,0.34376242749999997,0.107906271225,-0.21364037
1694268927.828,841.31866,811.9048,806.26373,797.3993,0.6481739375,0.2697234025,0.34376242749999997,0.107906271225,-0.21364037
1694268927.829,843.3333,811.50183,809.0842,807.47253,0.6481739375,0.2697234025,0.34376242749999997,0.107906271225,-0.21364037
1694268927.829,842.9304,811.0989,809.0842,796.5934,0.625931625,0.266758485,0.3475124825,0.10356659175,-0.21502782675
1694268927.8339999,844.1392,811.50183,811.9048,789.34064,0.625931625,0.266758485,0.3475124825,0.10356659175,-0.21502782675
1694268927.835,844.1392,811.9048,811.0989,797.8022,0.625931625,0.266758485,0.3475124825,0.10356659175,-0.21502782675
1694268927.865,848.97437,811.50183,810.293,807.0696,0.625931625,0.266758485,0.3475124825,0.10356659175,-0.21502782675
1694268927.866,855.82416,813.1135,815.12823,814.3223,0.625931625,0.266758485,0.3475124825,0.10356659175,-0.21502782675
1694268927.867,851.79486,815.5311,812.3077,818.3516,0.625931625,0.266758485,0.3475124825,0.10356659175,-0.21502782675
1694268927.867,846.55676,820.3663,808.2784,814.3223,0.625931625,0.266758485,0.3475124825,0.10356659175,-0.21502782675
1694268927.868,850.58606,822.7839,810.293,813.5165,0.625931625,0.266758485,0.3475124825,0.10356659175,-0.21502782675
1694268927.868,853.00366,817.5458,813.91943,810.293,0.625931625,0.266758485,0.3475124825,0.10356659175,-0.21502782675
1694268927.869,846.55676,813.91943,813.1135,805.05493,0.625931625,0.266758485,0.3475124825,0.10356659175,-0.21502782675
1694268927.869,847.3626,815.5311,809.0842,807.47253,0.625931625,0.266758485,0.3475124825,0.10356659175,-0.21502782675
1694268927.8700001,839.707,815.9341,809.89014,802.6374,0.625931625,0.266758485,0.3475124825,0.10356659175,-0.21502782675
1694268927.8700001,832.8571,817.1429,814.3223,793.36993,0.625931625,0.266758485,0.3475124825,0.10356659175,-0.21502782675
1694268927.871,838.0952,821.5751,817.5458,798.20514,0.625931625,0.266758485,0.3475124825,0.10356659175,-0.21502782675
1694268927.871,837.28937,817.9487,817.1429,806.26373,0.625931625,0.266758485,0.3475124825,0.10356659175,-0.21502782675
1694268927.927,839.304,815.5311,815.9341,797.3993,0.625931625,0.266758485,0.3475124825,0.10356659175,-0.21502782675
1694268927.928,833.2601,819.15753,818.7546,790.54944,0.625931625,0.266758485,0.3475124825,0.10356659175,-0.21502782675
1694268927.929,834.0659,823.1868,819.5604,804.65204,0.625931625,0.266758485,0.3475124825,0.10356659175,-0.21502782675
1694268927.9299998,843.73627,822.381,814.7253,806.6667,0.625931625,0.266758485,0.3475124825,0.10356659175,-0.21502782675
1694268927.9299998,848.5714,821.5751,810.293,803.8461,0.625931625,0.266758485,0.3475124825,0.10356659175,-0.21502782675
1694268927.931,852.1978,822.381,810.696,799.41394,0.625931625,0.266758485,0.3475124825,0.10356659175,-0.21502782675
1694268927.931,838.49817,823.5897,814.7253,794.57874,0.625931625,0.266758485,0.3475124825,0.10356659175,-0.21502782675
1694268927.932,826.4103,821.5751,817.1429,801.02563,0.625931625,0.266758485,0.3475124825,0.10356659175,-0.21502782675
1694268927.9329998,835.6777,816.7399,812.71063,798.60803,0.625931625,0.266758485,0.3475124825,0.10356659175,-0.21502782675
1694268927.9329998,841.31866,818.7546,808.2784,793.7729,0.625931625,0.266758485,0.3475124825,0.10356659175,-0.21502782675
1694268927.934,834.0659,817.1429,810.696,792.96704,0.625931625,0.266758485,0.3475124825,0.10356659175,-0.21502782675
1694268927.934,830.0366,811.9048,809.0842,800.6227,0.6132313425,0.2533004775,0.334300225,0.0919908565,-0.2194072
1694268927.9699998,838.49817,814.7253,805.8608,805.4579,0.6132313425,0.2533004775,0.334300225,0.0919908565,-0.2194072
1694268927.971,846.1539,815.5311,806.26373,803.8461,0.6132313425,0.2533004775,0.334300225,0.0919908565,-0.2194072
1694268927.972,844.1392,815.5311,809.89014,803.8461,0.6132313425,0.2533004775,0.334300225,0.0919908565,-0.2194072
1694268927.973,845.34796,815.9341,811.0989,802.23444,0.6132313425,0.2533004775,0.334300225,0.0919908565,-0.2194072
1694268927.973,847.3626,808.68134,808.68134,795.78754,0.6132313425,0.2533004775,0.334300225,0.0919908565,-0.2194072
1694268927.9740002,848.1685,808.2784,809.0842,788.5348,0.6132313425,0.2533004775,0.334300225,0.0919908565,-0.2194072
1694268927.9750001,850.58606,809.0842,803.44324,794.57874,0.6132313425,0.2533004775,0.334300225,0.0919908565,-0.2194072
1694268927.976,851.79486,809.0842,800.2198,801.02563,0.6132313425,0.2533004775,0.334300225,0.0919908565,-0.2194072
1694268927.976,848.97437,814.7253,803.44324,795.78754,0.6132313425,0.2533004775,0.334300225,0.0919908565,-0.2194072
1694268927.979,846.1539,815.12823,808.2784,792.1612,0.6132313425,0.2533004775,0.334300225,0.0919908565,-0.2194072
1694268927.98,851.79486,817.5458,812.3077,802.23444,0.6132313425,0.2533004775,0.334300225,0.0919908565,-0.2194072
1694268927.98,861.8681,817.5458,809.89014,805.8608,0.6132313425,0.2533004775,0.334300225,0.0919908565,-0.2194072
1694268928.007,856.63007,814.3223,809.89014,799.81683,0.6132313425,0.2533004775,0.334300225,0.0919908565,-0.2194072
1694268928.008,850.18317,815.5311,812.3077,801.4286,0.6132313425,0.2533004775,0.334300225,0.0919908565,-0.2194072
1694268928.0089998,842.52747,817.1429,811.9048,803.8461,0.6132313425,0.2533004775,0.334300225,0.0919908565,-0.2194072
1694268928.01,837.6923,819.5604,815.12823,802.6374,0.6132313425,0.2533004775,0.334300225,0.0919908565,-0.2194072
1694268928.0110002,838.9011,824.7985,817.9487,801.4286,0.6132313425,0.2533004775,0.334300225,0.0919908565,-0.2194072
1694268928.0110002,836.4835,821.5751,817.9487,804.65204,0.6132313425,0.2533004775,0.334300225,0.0919908565,-0.2194072
1694268928.012,835.6777,816.337,814.3223,805.8608,0.6132313425,0.2533004775,0.334300225,0.0919908565,-0.2194072
1694268928.012,830.84247,819.9634,812.3077,797.3993,0.6132313425,0.2533004775,0.334300225,0.0919908565,-0.2194072
1694268928.017,823.9927,821.5751,815.12823,792.96704,0.6132313425,0.2533004775,0.334300225,0.0919908565,-0.2194072
1694268928.018,826.4103,823.5897,817.9487,807.8755,0.6132313425,0.2533004775,0.334300225,0.0919908565,-0.2194072
1694268928.02,833.663,822.7839,818.3516,820.7692,0.6132313425,0.2533004775,0.334300225,0.0919908565,-0.2194072
1694268928.022,838.9011,823.5897,816.337,809.0842,0.6132313425,0.2533004775,0.334300225,0.0919908565,-0.2194072
1694268928.0670002,829.2308,828.4249,815.5311,802.23444,0.6132313425,0.2533004775,0.334300225,0.0919908565,-0.2194072
1694268928.068,817.9487,823.1868,811.0989,801.4286,0.6089394925,0.228994,0.30607114999999996,0.07781891725,-0.22492376309999998
1694268928.073,815.5311,821.978,806.6667,800.6227,0.6089394925,0.228994,0.30607114999999996,0.07781891725,-0.22492376309999998
1694268928.073,816.337,822.381,810.293,803.0403,0.6089394925,0.228994,0.30607114999999996,0.07781891725,-0.22492376309999998
1694268928.074,818.3516,821.1722,813.91943,810.696,0.6089394925,0.228994,0.30607114999999996,0.07781891725,-0.22492376309999998
1694268928.075,807.47253,822.7839,812.3077,809.89014,0.6089394925,0.228994,0.30607114999999996,0.07781891725,-0.22492376309999998
1694268928.076,794.57874,821.5751,815.5311,805.8608,0.6089394925,0.228994,0.30607114999999996,0.07781891725,-0.22492376309999998
1694268928.077,795.38464,818.3516,816.337,807.47253,0.6089394925,0.228994,0.30607114999999996,0.07781891725,-0.22492376309999998
1694268928.078,801.02563,817.9487,813.1135,808.68134,0.6089394925,0.228994,0.30607114999999996,0.07781891725,-0.22492376309999998
1694268928.078,803.8461,818.7546,814.3223,813.1135,0.6089394925,0.228994,0.30607114999999996,0.07781891725,-0.22492376309999998
1694268928.079,803.8461,817.1429,811.50183,806.6667,0.6089394925,0.228994,0.30607114999999996,0.07781891725,-0.22492376309999998
1694268928.08,796.1905,820.7692,812.3077,799.41394,0.6089394925,0.228994,0.30607114999999996,0.07781891725,-0.22492376309999998
1694268928.124,793.7729,822.381,813.1135,801.02563,0.6089394925,0.228994,0.30607114999999996,0.07781891725,-0.22492376309999998
1694268928.125,808.68134,819.15753,811.0989,811.0989,0.6089394925,0.228994,0.30607114999999996,0.07781891725,-0.22492376309999998
1694268928.1260002,810.293,819.15753,812.3077,809.4872,0.6089394925,0.228994,0.30607114999999996,0.07781891725,-0.22492376309999998
1694268928.127,799.41394,820.3663,813.91943,801.4286,0.6089394925,0.228994,0.30607114999999996,0.07781891725,-0.22492376309999998
1694268928.127,799.011,820.7692,812.3077,805.8608,0.6089394925,0.228994,0.30607114999999996,0.07781891725,-0.22492376309999998
1694268928.128,804.65204,818.7546,814.3223,813.1135,0.6089394925,0.228994,0.30607114999999996,0.07781891725,-0.22492376309999998
1694268928.129,814.3223,819.9634,817.1429,807.8755,0.6089394925,0.228994,0.30607114999999996,0.07781891725,-0.22492376309999998
1694268928.129,812.3077,817.5458,811.50183,800.2198,0.6089394925,0.228994,0.30607114999999996,0.07781891725,-0.22492376309999998
1694268928.1299999,806.26373,813.5165,812.3077,806.6667,0.6089394925,0.228994,0.30607114999999996,0.07781891725,-0.22492376309999998
1694268928.1299999,802.6374,818.7546,813.91943,807.0696,0.6089394925,0.228994,0.30607114999999996,0.07781891725,-0.22492376309999998
1694268928.131,797.3993,821.978,814.3223,801.4286,0.6089394925,0.228994,0.30607114999999996,0.07781891725,-0.22492376309999998
1694268928.132,796.5934,818.7546,815.9341,804.2491,0.6089394925,0.228994,0.30607114999999996,0.07781891725,-0.22492376309999998
1694268928.164,799.81683,820.3663,817.1429,807.8755,0.6089394925,0.228994,0.30607114999999996,0.07781891725,-0.22492376309999998
1694268928.165,794.57874,819.15753,823.5897,810.696,0.6089394925,0.228994,0.30607114999999996,0.07781891725,-0.22492376309999998
1694268928.1660001,788.1319,813.91943,821.978,806.26373,0.6089394925,0.228994,0.30607114999999996,0.07781891725,-0.22492376309999998
1694268928.167,809.0842,824.7985,811.9048,814.7253,0.60425309,0.19756675125,0.288167525,0.06518085750000001,-0.23006702050000002
1694268928.171,828.8278,829.6337,819.5604,829.6337,0.60425309,0.19756675125,0.288167525,0.06518085750000001,-0.23006702050000002
1694268928.172,804.2491,817.1429,826.8132,811.0989,0.60425309,0.19756675125,0.288167525,0.06518085750000001,-0.23006702050000002
1694268928.172,783.2967,811.9048,818.3516,797.8022,0.60425309,0.19756675125,0.288167525,0.06518085750000001,-0.23006702050000002
1694268928.1729999,789.34064,808.68134,821.5751,803.0403,0.60425309,0.19756675125,0.288167525,0.06518085750000001,-0.23006702050000002
1694268928.1729999,798.20514,808.68134,824.3956,813.91943,0.60425309,0.19756675125,0.288167525,0.06518085750000001,-0.23006702050000002
1694268928.174,799.011,808.68134,818.3516,817.9487,0.60425309,0.19756675125,0.288167525,0.06518085750000001,-0.23006702050000002
1694268928.175,800.2198,803.44324,818.3516,808.68134,0.60425309,0.19756675125,0.288167525,0.06518085750000001,-0.23006702050000002
1694268928.175,802.23444,805.8608,821.978,806.6667,0.60425309,0.19756675125,0.288167525,0.06518085750000001,-0.23006702050000002
1694268928.1980002,791.3553,805.05493,819.9634,803.0403,0.60425309,0.19756675125,0.288167525,0.06518085750000001,-0.23006702050000002
1694268928.1990001,786.1172,807.47253,817.5458,800.6227,0.60425309,0.19756675125,0.288167525,0.06518085750000001,-0.23006702050000002
1694268928.1990001,790.9524,812.71063,813.5165,801.02563,0.60425309,0.19756675125,0.288167525,0.06518085750000001,-0.23006702050000002
1694268928.2,788.5348,802.23444,811.9048,804.65204,0.60425309,0.19756675125,0.288167525,0.06518085750000001,-0.23006702050000002
1694268928.2,791.75824,794.57874,814.3223,813.1135,0.60425309,0.19756675125,0.288167525,0.06518085750000001,-0.23006702050000002
1694268928.201,790.54944,797.8022,813.91943,813.1135,0.60425309,0.19756675125,0.288167525,0.06518085750000001,-0.23006702050000002
1694268928.201,781.28204,799.81683,813.91943,809.89014,0.60425309,0.19756675125,0.288167525,0.06518085750000001,-0.23006702050000002
1694268928.202,783.2967,797.3993,810.696,811.0989,0.60425309,0.19756675125,0.288167525,0.06518085750000001,-0.23006702050000002
1694268928.203,792.5641,796.5934,809.89014,814.3223,0.60425309,0.19756675125,0.288167525,0.06518085750000001,-0.23006702050000002
1694268928.203,786.9231,793.36993,812.3077,806.6667,0.60425309,0.19756675125,0.288167525,0.06518085750000001,-0.23006702050000002
1694268928.204,778.0586,792.96704,813.91943,804.2491,0.60425309,0.19756675125,0.288167525,0.06518085750000001,-0.23006702050000002
1694268928.204,781.28204,796.99634,811.9048,807.47253,0.60425309,0.19756675125,0.288167525,0.06518085750000001,-0.23006702050000002
1694268928.262,789.34064,796.5934,812.3077,805.8608,0.60425309,0.19756675125,0.288167525,0.06518085750000001,-0.23006702050000002
1694268928.263,796.5934,794.9817,812.71063,804.65204,0.60425309,0.19756675125,0.288167525,0.06518085750000001,-0.23006702050000002
1694268928.264,793.36993,792.96704,812.3077,805.05493,0.60425309,0.19756675125,0.288167525,0.06518085750000001,-0.23006702050000002
1694268928.2649999,782.49084,789.34064,812.3077,803.8461,0.60425309,0.19756675125,0.288167525,0.06518085750000001,-0.23006702050000002
1694268928.2659998,774.0293,788.93774,814.7253,798.60803,0.60425309,0.19756675125,0.288167525,0.06518085750000001,-0.23006702050000002
1694268928.267,780.87915,792.96704,822.381,801.4286,0.5881206575,0.16363956985,0.27461662249999996,0.05317949125,-0.2346402535
1694268928.2710001,790.9524,796.5934,822.7839,806.26373,0.5881206575,0.16363956985,0.27461662249999996,0.05317949125,-0.2346402535
1694268928.272,788.5348,793.36993,818.7546,810.696,0.5881206575,0.16363956985,0.27461662249999996,0.05317949125,-0.2346402535
1694268928.273,778.0586,789.34064,815.9341,814.7253,0.5881206575,0.16363956985,0.27461662249999996,0.05317949125,-0.2346402535
1694268928.274,773.6264,787.326,813.5165,809.89014,0.5881206575,0.16363956985,0.27461662249999996,0.05317949125,-0.2346402535
1694268928.274,785.31134,787.72894,813.91943,807.47253,0.5881206575,0.16363956985,0.27461662249999996,0.05317949125,-0.2346402535
1694268928.275,792.5641,788.5348,816.7399,806.6667,0.5881206575,0.16363956985,0.27461662249999996,0.05317949125,-0.2346402535
1694268928.3009999,789.34064,786.52014,813.1135,802.6374,0.5881206575,0.16363956985,0.27461662249999996,0.05317949125,-0.2346402535
1694268928.302,789.34064,785.7143,810.696,798.20514,0.5881206575,0.16363956985,0.27461662249999996,0.05317949125,-0.2346402535
1694268928.304,791.75824,789.34064,813.1135,802.6374,0.5881206575,0.16363956985,0.27461662249999996,0.05317949125,-0.2346402535
1694268928.3049998,790.14655,788.5348,808.68134,806.6667,0.5881206575,0.16363956985,0.27461662249999996,0.05317949125,-0.2346402535
1694268928.3049998,792.96704,784.10254,806.6667,805.4579,0.5881206575,0.16363956985,0.27461662249999996,0.05317949125,-0.2346402535
1694268928.3059998,799.81683,787.72894,806.26373,803.8461,0.5881206575,0.16363956985,0.27461662249999996,0.05317949125,-0.2346402535
1694268928.3059998,802.23444,787.326,805.05493,801.8315,0.5881206575,0.16363956985,0.27461662249999996,0.05317949125,-0.2346402535
1694268928.3070002,800.6227,788.1319,810.696,805.05493,0.5881206575,0.16363956985,0.27461662249999996,0.05317949125,-0.2346402535
1694268928.308,793.36993,786.9231,811.9048,804.2491,0.5881206575,0.16363956985,0.27461662249999996,0.05317949125,-0.2346402535
1694268928.309,794.9817,779.2674,807.47253,797.8022,0.5881206575,0.16363956985,0.27461662249999996,0.05317949125,-0.2346402535
1694268928.309,795.38464,777.25275,806.6667,799.41394,0.5881206575,0.16363956985,0.27461662249999996,0.05317949125,-0.2346402535
1694268928.3100002,793.7729,783.2967,810.696,802.6374,0.5881206575,0.16363956985,0.27461662249999996,0.05317949125,-0.2346402535
1694268928.3569999,794.57874,786.52014,813.1135,800.6227,0.5881206575,0.16363956985,0.27461662249999996,0.05317949125,-0.2346402535
1694268928.358,796.99634,788.1319,814.3223,795.38464,0.5881206575,0.16363956985,0.27461662249999996,0.05317949125,-0.2346402535
1694268928.359,797.8022,788.1319,814.7253,797.3993,0.5881206575,0.16363956985,0.27461662249999996,0.05317949125,-0.2346402535
1694268928.359,792.1612,782.0879,808.68134,793.7729,0.5881206575,0.16363956985,0.27461662249999996,0.05317949125,-0.2346402535
1694268928.36,790.14655,782.0879,807.8755,788.5348,0.5881206575,0.16363956985,0.27461662249999996,0.05317949125,-0.2346402535
1694268928.3609998,783.69965,787.72894,808.2784,785.31134,0.5881206575,0.16363956985,0.27461662249999996,0.05317949125,-0.2346402535
1694268928.3609998,770.80585,778.46155,801.02563,784.90845,0.5881206575,0.16363956985,0.27461662249999996,0.05317949125,-0.2346402535
1694268928.362,770.40295,770.80585,800.6227,796.5934,0.5630639900000001,0.13184854750000002,0.2633546025,0.03836795675,-0.23759178675
1694268928.3660002,780.07324,775.2381,805.4579,800.2198,0.5630639900000001,0.13184854750000002,0.2633546025,0.03836795675,-0.23759178675
1694268928.3660002,780.07324,778.0586,807.47253,794.57874,0.5630639900000001,0.13184854750000002,0.2633546025,0.03836795675,-0.23759178675
1694268928.367,779.67035,780.07324,807.8755,794.57874,0.5630639900000001,0.13184854750000002,0.2633546025,0.03836795675,-0.23759178675
1694268928.368,782.0879,782.8938,812.71063,799.41394,0.5630639900000001,0.13184854750000002,0.2633546025,0.03836795675,-0.23759178675
1694268928.392,785.7143,785.7143,814.3223,799.81683,0.5630639900000001,0.13184854750000002,0.2633546025,0.03836795675,-0.23759178675
1694268928.393,805.4579,787.72894,811.0989,802.23444,0.5630639900000001,0.13184854750000002,0.2633546025,0.03836795675,-0.23759178675
1694268928.3939998,817.9487,792.5641,809.89014,819.5604,0.5630639900000001,0.13184854750000002,0.2633546025,0.03836795675,-0.23759178675
1694268928.3939998,817.5458,795.78754,810.293,809.0842,0.5630639900000001,0.13184854750000002,0.2633546025,0.03836795675,-0.23759178675
1694268928.395,821.978,797.8022,812.3077,802.23444,0.5630639900000001,0.13184854750000002,0.2633546025,0.03836795675,-0.23759178675
1694268928.395,820.7692,798.20514,812.3077,808.68134,0.5630639900000001,0.13184854750000002,0.2633546025,0.03836795675,-0.23759178675
1694268928.396,822.7839,801.02563,812.3077,806.26373,0.5630639900000001,0.13184854750000002,0.2633546025,0.03836795675,-0.23759178675
1694268928.3969998,827.2161,808.2784,814.3223,806.6667,0.5630639900000001,0.13184854750000002,0.2633546025,0.03836795675,-0.23759178675
1694268928.3969998,817.9487,806.26373,817.1429,805.05493,0.5630639900000001,0.13184854750000002,0.2633546025,0.03836795675,-0.23759178675
1694268928.3980002,811.0989,803.44324,813.1135,802.23444,0.5630639900000001,0.13184854750000002,0.2633546025,0.03836795675,-0.23759178675
1694268928.3980002,817.5458,807.47253,806.26373,801.8315,0.5630639900000001,0.13184854750000002,0.2633546025,0.03836795675,-0.23759178675
1694268928.3990002,817.5458,803.8461,803.44324,793.36993,0.5630639900000001,0.13184854750000002,0.2633546025,0.03836795675,-0.23759178675
1694268928.447,810.696,804.2491,801.02563,793.36993,0.5630639900000001,0.13184854750000002,0.2633546025,0.03836795675,-0.23759178675
1694268928.448,805.4579,811.0989,802.23444,790.9524,0.5630639900000001,0.13184854750000002,0.2633546025,0.03836795675,-0.23759178675
1694268928.449,794.9817,805.8608,803.8461,783.2967,0.5630639900000001,0.13184854750000002,0.2633546025,0.03836795675,-0.23759178675
1694268928.4499998,798.20514,801.8315,802.6374,784.90845,0.5630639900000001,0.13184854750000002,0.2633546025,0.03836795675,-0.23759178675
1694268928.451,810.293,803.0403,803.0403,788.1319,0.5630639900000001,0.13184854750000002,0.2633546025,0.03836795675,-0.23759178675
1694268928.451,809.89014,805.05493,802.23444,799.81683,0.5630639900000001,0.13184854750000002,0.2633546025,0.03836795675,-0.23759178675
1694268928.452,805.4579,805.8608,800.6227,799.81683,0.5630639900000001,0.13184854750000002,0.2633546025,0.03836795675,-0.23759178675
1694268928.4529998,804.65204,800.6227,797.3993,793.7729,0.5630639900000001,0.13184854750000002,0.2633546025,0.03836795675,-0.23759178675
1694268928.4529998,817.9487,795.38464,798.20514,796.1905,0.5630639900000001,0.13184854750000002,0.2633546025,0.03836795675,-0.23759178675
1694268928.4540002,819.9634,790.9524,799.41394,792.1612,0.54271671,0.10430023175,0.267283795,0.021583704500000005,-0.2378445
1694268928.458,823.9927,790.14655,798.20514,792.5641,0.54271671,0.10430023175,0.267283795,0.021583704500000005,-0.2378445
1694268928.459,834.4689,792.96704,803.8461,797.3993,0.54271671,0.10430023175,0.267283795,0.021583704500000005,-0.2378445
1694268928.516,834.4689,793.7729,807.47253,802.23444,0.54271671,0.10430023175,0.267283795,0.021583704500000005,-0.2378445
