timestamp,RAW_TP9,RAW_AF7,RAW_AF8,RAW_TP10,AUX_RIGHT
1694271235.671,793.7729,777.6557,768.7912,784.5055,742.1978
1694271235.6739998,783.69965,776.4469,766.77655,784.5055,982.74725
1694271235.675,792.5641,775.64105,768.7912,791.75824,880.40295
1694271235.723,789.7436,771.6117,765.9707,792.1612,772.8205
1694271235.724,779.2674,767.1795,760.7326,779.2674,794.9817
1694271235.726,770.80585,771.6117,767.5824,759.92676,598.3516
1694271235.726,767.98535,774.0293,770.0,761.9414,490.3663
1694271235.727,773.6264,774.0293,769.19415,786.1172,715.6044
1694271235.728,769.19415,770.80585,769.59705,792.5641,1011.3553
1694271235.728,765.9707,770.40295,770.0,783.2967,962.1978
1694271235.7289999,762.3443,773.22345,768.7912,765.9707,732.52747
1694271235.7299998,753.8828,772.8205,767.5824,765.56775,641.06226
1694271235.7299998,747.03296,767.98535,762.3443,799.41394,1004.90845
1694271235.731,751.4652,771.2088,764.7619,809.4872,1122.1611
1694271235.731,750.2564,772.8205,772.4176,795.38464,810.696
1694271235.789,753.0769,774.83514,770.80585,780.4762,631.79486
1694271235.7900002,753.0769,776.04395,767.98535,778.46155,584.2491
1694271235.7910001,755.89746,772.8205,771.2088,795.78754,722.0513
1694271235.7910001,767.98535,776.4469,770.0,807.0696,877.98535
1694271235.792,767.98535,780.4762,767.1795,798.20514,859.45056
1694271235.792,759.5238,781.685,768.7912,786.1172,766.77655
1694271235.793,762.74725,777.6557,766.3736,774.43225,641.8681
1694271235.794,772.4176,775.2381,763.1502,772.01465,684.17584
1694271235.794,778.0586,769.19415,763.1502,792.1612,1002.49084
1694271235.795,776.4469,772.01465,761.9414,803.44324,1239.011
1694271235.796,780.07324,781.28204,763.1502,777.25275,868.315
1694271235.796,789.34064,777.6557,766.77655,760.32965,585.05493
1694271235.829,784.5055,772.4176,767.5824,772.01465,776.4469
1694271235.8300002,782.8938,773.22345,767.98535,787.326,909.011
1694271235.831,785.7143,776.04395,765.16486,786.1172,824.7985
1694271235.831,778.0586,774.83514,765.56775,769.19415,710.3663
1694271235.832,767.1795,766.77655,764.35895,764.35895,735.34796
1694271235.833,780.4762,765.9707,764.7619,774.43225,792.1612
1694271235.833,799.81683,768.7912,765.56775,793.36993,840.9158
1694271235.8339999,790.14655,773.22345,765.9707,794.9817,851.39197
1694271235.835,785.7143,774.83514,767.1795,783.2967,963.00366
1694271235.835,793.7729,772.4176,765.9707,779.67035,724.4689
1694271235.836,799.41394,771.6117,770.40295,783.2967,529.0476
1694271235.837,790.9524,770.40295,769.59705,794.17584,747.8388
1694271235.845,788.93774,767.1795,767.98535,790.9524,834.0659
1694271235.8460002,790.54944,765.9707,768.7912,778.46155,733.73627
1694271235.8470001,773.6264,765.56775,765.9707,763.5531,607.619
1694271235.848,770.0,766.3736,765.9707,771.2088,652.74725
1694271235.848,771.6117,771.2088,767.1795,797.8022,903.7729
1694271235.849,780.4762,768.3883,765.9707,799.41394,1000.87915
1694271235.85,783.69965,763.95605,767.98535,784.90845,821.978
1694271235.85,783.69965,769.59705,770.80585,774.0293,768.7912
1694271235.851,790.9524,773.22345,770.0,784.10254,1020.6227
1694271235.851,793.36993,772.8205,774.0293,803.0403,975.09155
1694271235.852,790.54944,772.01465,776.4469,799.41394,899.7436
1694271235.852,781.28204,767.1795,769.19415,781.685,848.97437
1694271235.881,774.43225,765.16486,764.7619,778.0586,628.5714
1694271235.882,773.6264,764.7619,765.9707,788.5348,577.8022
1694271235.8860002,776.4469,765.16486,764.35895,787.326,749.0476
1694271235.887,787.326,771.6117,770.40295,785.31134,904.9817
1694271235.887,790.9524,773.6264,774.43225,780.4762,852.1978
1694271235.888,780.87915,771.6117,772.4176,768.7912,679.34064
1694271235.889,773.22345,770.80585,773.6264,763.5531,674.90845
1694271235.889,778.46155,772.8205,773.22345,784.10254,1050.0366
1694271235.8899999,780.87915,772.8205,772.01465,798.20514,1148.3517
1694271235.8899999,770.40295,768.7912,768.3883,782.8938,824.7985
1694271235.891,766.3736,767.1795,767.98535,766.3736,666.4469
1694271235.891,761.53845,771.6117,767.98535,766.3736,629.7802
1694271235.92,759.12085,772.01465,762.3443,782.0879,707.5458
1694271235.921,765.16486,772.4176,759.92676,780.87915,830.0366
1694271235.921,767.5824,771.2088,765.56775,774.83514,831.2454
1694271235.922,762.74725,772.01465,766.3736,773.22345,704.7253
1694271235.922,763.1502,770.80585,764.35895,775.64105,579.81683
1694271235.923,776.04395,768.7912,764.35895,786.52014,657.5824
1694271235.923,779.2674,772.01465,766.77655,810.696,1013.36993
1694271235.923,766.3736,768.7912,769.19415,813.91943,1283.3334
1694271235.924,748.6447,767.5824,763.1502,781.685,865.4945
1694271235.924,748.24176,769.19415,759.5238,761.53845,551.6117
1694271235.925,765.56775,766.3736,761.13556,774.83514,808.2784
1694271235.925,762.74725,766.3736,761.13556,788.93774,1013.36993
1694271235.987,757.50916,767.1795,760.7326,780.4762,850.58606
1694271235.988,761.53845,767.5824,763.1502,774.0293,669.2674
1694271235.988,764.35895,768.3883,761.53845,766.77655,583.44324
1694271235.9889998,776.04395,772.4176,762.74725,778.46155,643.0769
1694271235.993,776.04395,771.2088,763.95605,792.1612,767.98535
1694271235.994,768.7912,769.19415,765.16486,786.52014,882.8205
1694271235.9950001,767.98535,767.5824,764.35895,779.2674,1029.4872
1694271235.9950001,763.1502,763.5531,760.32965,761.9414,746.2271
1694271235.996,759.92676,761.9414,760.7326,759.92676,506.48352
1694271235.996,765.9707,762.3443,761.9414,782.0879,788.5348
1694271235.997,767.98535,763.1502,763.5531,792.5641,1084.2858
1694271235.9980001,765.9707,762.74725,762.74725,775.2381,813.91943
1694271236.0300002,769.19415,764.35895,764.7619,772.01465,525.42126
1694271236.0310001,779.67035,765.56775,764.35895,784.90845,586.6667
1694271236.0310001,784.90845,761.9414,759.5238,788.93774,770.40295
1694271236.032,782.0879,760.32965,760.7326,788.1319,852.6007
1694271236.032,782.8938,758.315,761.13556,778.86444,742.6007
1694271236.033,784.90845,760.32965,761.53845,767.1795,709.9634
1694271236.034,790.54944,762.74725,760.7326,778.86444,800.2198
1694271236.034,797.3993,763.95605,763.95605,796.99634,861.4652
1694271236.035,782.8938,767.5824,765.16486,799.41394,871.13556
1694271236.035,781.685,768.7912,761.13556,803.44324,872.74725
1694271236.036,790.14655,767.1795,762.74725,813.1135,944.87177
1694271236.036,782.8938,761.13556,764.35895,794.57874,672.49084
1694271236.1,787.72894,757.1062,763.1502,793.7729,704.3223
1694271236.1009998,800.2198,757.9121,760.7326,815.9341,1021.4286
1694271236.1020002,804.65204,757.9121,763.1502,817.5458,902.96704
1694271236.1020002,801.8315,754.2857,769.59705,799.41394,631.79486
1694271236.1030002,794.17584,757.1062,771.2088,790.14655,587.47253
1694271236.104,803.0403,759.92676,767.5824,792.1612,837.28937
1694271236.108,819.9634,758.71796,763.1502,809.4872,1014.57874
1694271236.109,807.8755,757.1062,763.95605,809.89014,843.3333
1694271236.109,794.17584,758.315,767.1795,792.96704,663.6264
1694271236.1100001,806.6667,762.74725,767.98535,793.7729,804.65204
1694271236.111,811.0989,761.53845,764.35895,795.38464,850.58606
1694271236.111,815.9341,758.315,763.1502,803.8461,841.7216
1694271236.1529999,822.7839,761.13556,762.3443,811.9048,834.87177
1694271236.155,811.50183,763.5531,760.7326,793.7729,641.06226
1694271236.155,807.0696,762.3443,763.5531,788.1319,547.1795
1694271236.156,814.3223,762.3443,763.95605,805.8608,688.60803
1694271236.156,814.3223,764.7619,765.16486,822.7839,851.79486
1694271236.1569998,808.2784,763.1502,765.16486,809.0842,943.2601
1694271236.1580002,801.4286,760.7326,760.7326,787.326,779.2674
1694271236.1580002,797.8022,763.1502,763.5531,790.14655,606.4103
1694271236.1590002,801.8315,761.13556,765.16486,805.05493,838.49817
1694271236.16,808.68134,759.92676,761.9414,813.5165,963.4066
1694271236.16,805.05493,759.12085,763.5531,811.9048,841.31866
1694271236.161,791.3553,756.30035,765.9707,798.60803,665.64105
1694271236.2,788.5348,757.9121,769.59705,793.7729,705.5311
1694271236.201,796.1905,759.5238,774.43225,817.9487,1050.4396
1694271236.202,799.011,758.71796,773.6264,819.15753,1014.57874
1694271236.203,789.34064,756.30035,772.4176,806.26373,848.97437
1694271236.203,782.49084,754.68866,772.01465,795.38464,753.0769
1694271236.204,788.93774,754.68866,775.2381,780.07324,617.6923
1694271236.204,786.1172,751.8681,776.04395,790.14655,677.326
1694271236.205,782.0879,750.65936,774.83514,807.0696,906.99634
1694271236.2089999,784.5055,750.65936,771.2088,813.1135,1193.0769
1694271236.2099998,782.8938,751.8681,771.2088,796.5934,1026.6666
1694271236.2099998,780.87915,751.8681,772.01465,763.95605,606.4103
1694271236.211,783.69965,749.45056,772.01465,767.98535,575.38464
1694271236.257,788.93774,751.4652,771.6117,791.75824,775.64105
1694271236.258,782.49084,750.65936,764.7619,794.17584,871.53845
1694271236.259,773.6264,749.0476,759.12085,777.25275,722.0513
1694271236.26,773.6264,750.65936,760.32965,761.13556,607.2161
1694271236.264,776.04395,753.47986,767.98535,772.8205,672.0879
1694271236.2649999,778.46155,755.09155,772.01465,798.20514,826.0073
1694271236.2659998,788.93774,756.30035,767.5824,803.0403,891.685
1694271236.267,796.1905,755.09155,768.7912,791.3553,940.4396
1694271236.268,795.38464,754.2857,773.22345,791.75824,1135.4579
1694271236.269,790.14655,755.4945,770.40295,796.1905,926.7399
1694271236.2700002,781.28204,753.8828,766.77655,802.6374,726.4835
1694271236.2710001,779.2674,753.0769,765.9707,807.0696,929.9634
1694271236.273,784.5055,754.2857,767.98535,791.75824,840.10986
1694271236.274,784.90845,754.2857,768.7912,781.28204,589.0842
1694271236.275,784.90845,753.8828,767.98535,788.1319,554.0293
1694271236.276,786.9231,756.7033,763.95605,794.9817,708.3516
1694271236.277,787.326,755.89746,759.92676,799.41394,871.13556
1694271236.278,775.2381,752.27106,760.32965,790.9524,892.8938
1694271236.279,773.6264,752.674,762.3443,772.8205,788.1319
1694271236.28,778.0586,752.674,764.35895,780.4762,859.0476
1694271236.281,771.2088,750.2564,761.9414,794.17584,832.8571
1694271236.2849998,770.80585,745.42126,758.315,792.1612,785.31134
1694271236.292,770.0,744.61536,759.92676,781.685,834.4689
1694271236.293,774.0293,747.4359,760.32965,763.1502,752.674
1694271236.3420002,770.80585,750.2564,763.95605,762.3443,573.7729
1694271236.3430002,764.35895,749.0476,766.77655,774.43225,612.4542
1694271236.3430002,769.19415,747.8388,764.7619,784.5055,836.4835
1694271236.344,765.9707,750.2564,763.1502,788.93774,873.95605
1694271236.344,760.7326,746.63007,761.13556,777.25275,693.0403
1694271236.345,759.5238,743.8095,762.3443,770.0,599.5604
1694271236.345,751.4652,743.8095,760.32965,773.22345,873.1502
1694271236.346,752.674,744.21246,756.7033,785.7143,1282.1245
1694271236.3470001,763.1502,747.4359,759.5238,791.75824,1087.5092
1694271236.3470001,768.3883,748.6447,761.9414,783.2967,722.4542
1694271236.348,771.2088,748.24176,763.5531,780.87915,686.1905
1694271236.349,774.43225,749.45056,764.7619,789.7436,763.5531
1694271236.373,778.0586,752.27106,765.9707,803.44324,782.49084
1694271236.374,775.64105,753.47986,765.9707,807.0696,819.9634
1694271236.375,773.6264,753.8828,764.7619,790.9524,882.8205
1694271236.375,776.8498,758.315,762.74725,780.07324,695.4579
1694271236.376,777.6557,757.50916,763.95605,788.5348,557.6557
1694271236.376,782.49084,756.7033,769.19415,799.41394,795.78754
1694271236.3769999,784.90845,759.12085,774.43225,814.7253,1133.0403
1694271236.3769999,778.0586,754.68866,767.98535,802.6374,945.6777
1694271236.3779998,770.0,753.0769,760.7326,778.0586,603.1868
1694271236.3779998,777.6557,753.8828,759.92676,795.78754,651.9414
1694271236.379,788.1319,756.7033,759.12085,819.5604,843.3333
1694271236.38,794.57874,757.1062,758.315,812.71063,880.40295
1694271236.424,792.5641,753.8828,761.13556,804.2491,728.49817
1694271236.425,793.36993,748.6447,761.9414,790.14655,598.3516
1694271236.4259999,794.57874,749.0476,763.5531,788.1319,614.4689
1694271236.427,791.75824,745.42126,764.7619,806.26373,813.1135
1694271236.428,791.75824,739.7802,763.1502,804.65204,934.3956
1694271236.429,790.9524,735.34796,758.315,782.49084,977.9121
1694271236.43,789.7436,732.52747,756.30035,780.4762,1121.7583
1694271236.431,783.2967,728.9011,755.09155,782.0879,834.0659
1694271236.432,791.3553,729.304,754.2857,791.3553,698.2784
1694271236.432,796.5934,730.9158,757.1062,800.2198,944.87177
1694271236.4329998,792.5641,729.707,757.1062,792.1612,990.0
1694271236.4329998,788.93774,724.4689,757.50916,777.6557,669.2674
1694271236.487,780.87915,722.0513,757.1062,767.1795,513.3333
1694271236.488,787.72894,726.08057,759.12085,786.52014,702.71063
1694271236.4889998,790.54944,734.1392,764.7619,810.696,887.6557
1694271236.4899998,784.90845,738.5714,765.9707,799.81683,848.1685
1694271236.4899998,782.8938,737.76556,767.1795,786.52014,743.00366
1694271236.4910002,776.4469,738.1685,766.3736,787.326,696.6667
1694271236.4910002,774.83514,744.21246,762.74725,794.57874,754.68866
1694271236.492,775.64105,745.82416,761.9414,807.8755,833.2601
1694271236.493,776.04395,745.82416,763.5531,808.2784,798.60803
1694271236.493,771.2088,747.4359,765.16486,796.5934,945.2747
1694271236.4940002,761.13556,750.2564,765.56775,786.52014,826.8132
1694271236.4940002,763.5531,753.47986,764.7619,786.52014,638.6447
1694271236.527,774.43225,750.2564,764.7619,796.1905,835.6777
1694271236.528,784.10254,749.0476,761.53845,802.23444,898.93774
1694271236.533,772.8205,751.8681,759.5238,798.20514,716.4103
1694271236.533,766.3736,749.0476,759.5238,783.69965,539.12085
1694271236.5340002,779.2674,749.0476,760.32965,792.96704,623.73627
1694271236.535,777.25275,751.8681,757.9121,809.0842,875.56775
1694271236.535,774.83514,749.45056,754.2857,799.81683,930.3663
1694271236.536,765.56775,746.2271,756.30035,784.10254,716.4103
1694271236.536,772.4176,750.65936,760.32965,774.0293,675.31134
1694271236.537,779.2674,753.47986,759.92676,790.14655,1061.3187
1694271236.5379999,772.8205,752.674,757.9121,806.6667,1070.989
1694271236.5379999,789.7436,751.4652,753.0769,790.14655,818.7546
1694271236.5660002,788.5348,753.0769,752.674,776.8498,718.8278
1694271236.5670002,764.35895,753.8828,755.09155,767.98535,548.3883
1694271236.568,769.59705,753.8828,757.9121,767.5824,588.2784
1694271236.568,786.52014,757.50916,763.1502,794.57874,811.9048
1694271236.569,779.67035,757.1062,763.95605,813.5165,967.4359
1694271236.569,761.9414,750.65936,758.71796,796.5934,939.6337
1694271236.57,745.82416,747.8388,758.71796,779.67035,741.39197
1694271236.57,747.4359,743.4066,760.32965,781.28204,631.39197
1694271236.571,744.21246,739.7802,757.50916,788.1319,973.0769
1694271236.571,745.42126,747.4359,755.4945,789.7436,1072.6007
1694271236.572,740.18317,750.65936,755.89746,781.685,741.39197
1694271236.572,738.5714,746.2271,759.5238,780.07324,591.9048
1694271236.638,747.03296,743.4066,760.7326,788.5348,645.09155
1694271236.6390002,751.06226,740.989,760.32965,798.20514,757.1062
1694271236.64,753.8828,741.39197,762.3443,795.78754,820.3663
1694271236.641,738.97437,734.5421,764.35895,777.6557,790.9524
1694271236.645,728.49817,727.6923,764.35895,769.19415,722.4542
1694271236.6460001,730.10986,729.304,765.16486,776.4469,696.6667
1694271236.647,736.9597,730.9158,764.35895,794.17584,780.4762
1694271236.648,743.4066,732.1245,761.53845,807.0696,1046.4103
1694271236.648,750.65936,735.34796,759.5238,795.38464,1195.0916
1694271236.6499999,750.2564,732.1245,759.12085,777.6557,750.65936
1694271236.651,748.6447,729.304,761.13556,776.04395,533.8828
1694271236.652,751.8681,729.304,759.12085,794.17584,837.6923
1694271236.677,750.65936,728.49817,757.50916,818.3516,1043.1868
1694271236.6780002,755.09155,726.08057,760.7326,807.47253,861.06226
1694271236.6790001,762.74725,727.28937,761.9414,785.31134,712.7839
1694271236.68,756.30035,727.6923,761.13556,786.1172,748.24176
1694271236.681,747.03296,726.4835,758.315,798.20514,764.35895
1694271236.682,751.8681,727.28937,756.30035,812.71063,831.2454
1694271236.682,756.30035,725.6777,752.674,807.8755,869.92676
1694271236.683,747.8388,723.2601,748.6447,783.69965,920.293
1694271236.684,750.65936,724.0659,747.8388,770.40295,721.2454
1694271236.684,758.71796,727.28937,746.63007,779.2674,604.3956
1694271236.685,761.13556,724.4689,745.42126,790.54944,861.8681
1694271236.685,765.9707,722.8571,746.2271,797.3993,961.39197
1694271236.691,759.12085,725.2747,753.47986,790.14655,743.4066
1694271236.692,747.4359,722.8571,756.30035,780.4762,583.0403
1694271236.6929998,748.24176,722.4542,754.68866,781.685,669.2674
1694271236.6929998,752.27106,722.8571,752.674,792.96704,850.18317
1694271236.6940002,765.56775,721.2454,751.8681,799.81683,904.9817
1694271236.6950002,767.1795,724.0659,754.68866,784.10254,754.2857
1694271236.698,759.5238,726.8865,756.30035,766.77655,788.5348
1694271236.6990001,764.35895,724.4689,755.09155,780.87915,1050.8425
1694271236.7,775.64105,726.08057,753.8828,801.8315,947.28937
1694271236.7,776.8498,727.6923,753.8828,800.2198,834.87177
1694271236.701,771.6117,726.8865,752.27106,786.52014,869.12085
1694271236.701,760.7326,723.2601,750.65936,774.43225,744.61536
1694271236.7489998,763.5531,719.2308,747.4359,774.0293,572.96704
1694271236.7500002,767.5824,724.4689,748.6447,790.54944,745.0183
1694271236.7510002,771.6117,729.707,751.06226,793.7729,914.65204
1694271236.7510002,773.6264,729.707,748.6447,782.8938,784.5055
1694271236.752,767.5824,724.87177,744.61536,770.40295,558.46155
1694271236.752,773.6264,724.0659,743.4066,778.46155,635.82416
1694271236.753,781.28204,723.2601,745.0183,806.26373,1075.0183
1694271236.753,782.8938,724.4689,746.2271,813.5165,1114.5055
1694271236.754,784.10254,730.5128,746.2271,807.47253,820.3663
1694271236.755,784.5055,731.7216,748.24176,787.72894,626.1539
1694271236.756,787.72894,732.9304,751.4652,780.87915,647.1062
1694271236.756,791.3553,734.5421,753.0769,801.8315,771.6117
1694271236.817,793.36993,735.34796,751.8681,816.337,823.9927
1694271236.8179998,792.5641,737.76556,754.2857,806.26373,821.978
1694271236.819,780.4762,740.18317,756.30035,790.14655,795.78754
1694271236.819,778.0586,740.989,757.50916,792.96704,616.08057
1694271236.82,783.2967,742.6007,757.50916,815.12823,649.5238
1694271236.8209999,779.67035,739.7802,760.32965,829.2308,900.54944
1694271236.8209999,775.64105,738.97437,761.53845,807.47253,1009.7436
1694271236.822,770.80585,740.58606,759.92676,784.10254,813.5165
1694271236.826,784.10254,742.1978,759.5238,786.52014,570.14655
1694271236.8270001,796.5934,744.21246,759.12085,808.68134,743.8095
1694271236.8270001,794.9817,740.58606,757.1062,836.4835,1218.8645
1694271236.828,798.60803,736.55676,757.50916,819.5604,1005.7143
1694271236.852,788.1319,735.34796,760.7326,774.0293,628.97437
1694271236.852,773.6264,733.3333,760.32965,763.95605,603.9927
1694271236.853,782.0879,732.1245,760.7326,792.96704,650.32965
1694271236.854,789.34064,733.73627,759.92676,807.8755,767.1795
1694271236.855,788.5348,738.97437,755.09155,802.23444,836.8865
1694271236.855,786.1172,742.1978,753.47986,784.10254,810.696
1694271236.856,777.25275,742.1978,755.4945,770.0,660.40295
1694271236.8569999,778.0586,743.00366,753.8828,786.52014,609.6337
1694271236.8569999,780.07324,738.97437,753.0769,805.8608,809.0842
1694271236.8579998,785.7143,740.18317,757.50916,808.68134,1060.9158
1694271236.859,789.7436,745.42126,761.13556,802.23444,836.08057
1694271236.859,786.52014,740.989,759.5238,792.1612,533.8828
1694271236.867,780.87915,734.1392,761.13556,813.1135,631.79486
1694271236.868,772.01465,729.304,760.32965,835.6777,864.68866
1694271236.869,767.98535,728.0952,757.50916,829.2308,881.2088
1694271236.8700001,772.8205,730.5128,758.315,806.6667,713.1868
1694271236.872,776.04395,732.1245,755.4945,783.69965,615.2747
1694271236.873,779.2674,734.5421,753.0769,787.326,786.9231
1694271236.875,782.49084,737.76556,756.7033,803.0403,897.326
1694271236.875,790.54944,737.76556,758.315,806.6667,860.65936
1694271236.8769999,794.17584,737.3626,757.50916,794.9817,861.8681
1694271236.8769999,784.90845,739.7802,759.92676,783.69965,792.1612
1694271236.882,777.6557,737.3626,761.53845,784.90845,655.56775
1694271236.8830001,775.2381,732.1245,757.9121,805.8608,701.50183
1694271236.908,780.87915,729.707,755.89746,818.7546,990.40295
1694271236.909,782.0879,731.7216,755.4945,809.4872,1100.8059
1694271236.91,768.7912,732.1245,752.674,780.87915,629.7802
1694271236.911,765.9707,731.31866,750.2564,782.0879,549.59705
1694271236.911,780.07324,732.52747,746.63007,806.6667,929.15753
1694271236.912,783.2967,724.4689,743.00366,808.2784,1000.4762
1694271236.912,776.8498,720.84247,743.4066,782.0879,873.5531
1694271236.9129999,775.2381,725.2747,745.0183,763.1502,676.52014
1694271236.9129999,769.59705,724.0659,745.42126,778.86444,804.65204
1694271236.9139998,771.6117,724.87177,749.0476,801.02563,891.28204
1694271236.9139998,776.04395,726.4835,748.24176,801.02563,814.3223
1694271236.915,775.2381,724.0659,744.61536,791.3553,820.3663
1694271236.9689999,773.6264,723.2601,740.989,782.49084,680.14655
1694271236.9699998,770.80585,725.2747,735.34796,773.22345,615.2747
1694271236.971,779.67035,730.10986,734.1392,780.87915,754.68866
1694271236.971,788.1319,734.1392,732.9304,789.7436,938.022
1694271236.972,780.4762,734.94507,729.707,772.8205,951.7216
1694271236.972,767.98535,738.5714,731.7216,757.9121,775.2381
1694271236.973,770.0,739.7802,732.52747,761.9414,650.32965
1694271236.973,784.10254,739.3773,735.7509,779.67035,868.71796
1694271236.9740002,788.1319,738.1685,739.7802,802.23444,1338.1318
1694271236.9750001,781.28204,738.1685,745.0183,805.05493,1261.978
1694271236.9750001,782.49084,741.39197,749.85345,781.28204,720.0366
1694271236.976,776.8498,739.7802,750.2564,775.64105,610.84247
1694271237.037,773.22345,742.6007,750.65936,792.5641,691.8315
1694271237.038,777.25275,743.4066,747.4359,797.3993,810.293
1694271237.039,780.87915,738.97437,743.00366,790.9524,880.80585
1694271237.039,773.6264,738.5714,743.8095,783.2967,780.4762
1694271237.04,767.5824,739.7802,743.4066,775.64105,603.9927
1694271237.04,764.35895,738.1685,739.3773,784.90845,619.304
1694271237.041,766.3736,738.97437,736.1539,801.02563,819.15753
1694271237.0419998,766.77655,742.1978,738.97437,798.60803,1036.7399
1694271237.0419998,760.32965,739.3773,743.4066,779.67035,851.79486
1694271237.043,762.74725,738.5714,745.42126,776.04395,513.73627
1694271237.043,767.5824,741.39197,744.61536,787.72894,575.78754
1694271237.044,770.40295,742.1978,742.1978,794.17584,889.2674
1694271237.076,770.40295,740.18317,743.8095,789.34064,878.3883
1694271237.077,772.4176,736.55676,746.63007,776.04395,694.2491
1694271237.078,769.19415,729.304,744.21246,760.7326,606.0073
1694271237.079,756.30035,726.08057,743.4066,772.01465,615.2747
1694271237.08,756.30035,726.4835,745.42126,796.99634,793.36993
1694271237.08,763.1502,728.0952,745.0183,788.93774,863.8828
1694271237.0809999,763.95605,727.28937,742.1978,767.5824,887.6557
1694271237.0819998,768.7912,724.0659,739.3773,765.16486,1097.5824
1694271237.0819998,775.2381,728.49817,743.00366,767.98535,872.74725
1694271237.0830002,770.40295,730.10986,746.63007,783.2967,756.30035
1694271237.0830002,767.1795,728.9011,748.24176,799.011,942.4542
1694271237.084,776.8498,732.1245,749.0476,789.34064,895.7143
1694271237.132,782.0879,733.3333,749.85345,774.83514,612.4542
1694271237.133,777.6557,735.34796,754.2857,779.67035,529.85345
1694271237.1369998,782.8938,738.5714,757.9121,799.81683,861.4652
1694271237.1379998,779.67035,737.3626,753.0769,805.4579,958.1685
1694271237.1390002,773.6264,736.55676,748.6447,790.54944,774.43225
1694271237.1390002,780.4762,738.5714,749.0476,772.01465,730.5128
1694271237.14,776.04395,736.55676,749.0476,777.6557,954.94507
1694271237.14,778.0586,733.3333,748.24176,795.38464,951.7216
1694271237.141,784.90845,731.7216,748.24176,793.7729,807.0696
1694271237.1420002,784.90845,733.3333,749.45056,784.90845,805.4579
1694271237.1420002,785.7143,738.97437,751.06226,774.0293,664.83514
1694271237.1430001,785.31134,738.1685,752.674,774.0293,569.7436
1694271237.203,787.72894,737.3626,752.27106,790.14655,660.80585
1694271237.204,781.685,735.34796,745.82416,797.8022,840.10986
1694271237.204,772.4176,732.9304,743.4066,792.1612,906.5934
1694271237.205,765.9707,733.73627,745.82416,783.2967,709.9634
1694271237.206,767.5824,734.1392,745.82416,781.685,538.315
1694271237.206,770.40295,733.3333,745.42126,798.20514,819.9634
1694271237.207,766.77655,730.9158,748.6447,801.4286,1253.5165
1694271237.208,772.8205,732.1245,750.2564,774.83514,1019.011
1694271237.208,779.67035,730.10986,751.06226,759.5238,663.22345
1694271237.2089999,768.3883,730.10986,752.674,765.9707,640.65936
1694271237.211,763.5531,732.52747,753.0769,789.7436,817.1429
1694271237.212,765.9707,732.52747,751.06226,806.26373,876.3736
1694271237.236,768.3883,736.1539,749.85345,803.8461,863.8828
1694271237.2380002,770.80585,739.7802,749.45056,789.7436,796.99634
1694271237.239,767.5824,738.97437,748.24176,780.87915,628.5714
1694271237.239,771.2088,740.989,746.2271,790.54944,605.6044
1694271237.2419999,778.86444,743.4066,748.24176,803.0403,792.96704
1694271237.2419999,774.0293,743.00366,749.85345,805.05493,1066.1538
1694271237.243,770.80585,742.6007,752.674,791.3553,929.5604
1694271237.243,772.8205,743.4066,752.674,770.0,672.49084
1694271237.243,767.5824,740.18317,751.4652,780.4762,703.1135
1694271237.244,774.83514,738.5714,749.45056,814.3223,1065.348
1694271237.244,774.83514,741.79486,751.4652,814.3223,1045.6044
1694271237.244,764.7619,745.42126,752.27106,788.5348,721.6484
1694271237.2499998,755.89746,746.63007,748.6447,770.0,607.619
1694271237.2510002,764.35895,751.06226,750.65936,788.5348,634.61536
1694271237.252,782.8938,754.68866,751.06226,816.7399,776.8498
1694271237.252,782.8938,753.47986,748.6447,803.8461,874.7619
1694271237.253,777.6557,754.2857,747.4359,785.31134,792.1612
1694271237.253,777.6557,753.47986,746.63007,783.2967,717.619
1694271237.2540002,777.25275,753.0769,749.85345,802.6374,732.1245
1694271237.2540002,774.83514,754.2857,751.4652,830.4396,844.5421
1694271237.255,779.67035,747.8388,750.65936,834.0659,1110.4762
1694271237.255,778.86444,747.03296,750.65936,807.8755,1100.403
1694271237.256,777.6557,750.65936,747.8388,769.59705,686.5934
1694271237.256,780.07324,747.03296,745.0183,772.01465,537.50916
1694271237.295,779.2674,744.21246,748.24176,799.81683,880.0
1694271237.297,781.28204,745.42126,749.45056,813.5165,1280.1099
1694271237.299,780.07324,747.8388,747.8388,795.38464,919.0842
1694271237.3,776.4469,747.8388,750.65936,779.2674,561.28204
1694271237.3009999,777.25275,747.03296,753.47986,786.9231,586.26373
1694271237.302,787.326,746.63007,751.8681,802.23444,712.7839
1694271237.3070002,778.86444,743.00366,747.4359,805.05493,821.978
1694271237.308,768.7912,738.97437,743.8095,787.326,743.4066
1694271237.308,775.2381,743.4066,744.61536,782.49084,814.3223
1694271237.309,778.46155,745.42126,747.03296,787.326,718.022
1694271237.3100002,779.2674,742.1978,750.2564,803.0403,688.20514
1694271237.311,782.49084,740.18317,749.0476,815.12823,850.18317
1694271237.364,784.10254,744.61536,751.8681,808.2784,888.86444
1694271237.365,778.46155,746.63007,757.50916,794.57874,658.3883
1694271237.365,778.86444,746.63007,757.50916,792.96704,528.6447
1694271237.3660002,784.5055,751.4652,757.1062,807.8755,655.9707
1694271237.367,783.69965,752.27106,756.7033,817.5458,815.12823
1694271237.367,778.86444,745.42126,755.4945,807.47253,892.0879
1694271237.368,770.80585,743.00366,755.89746,790.9524,703.91943
1694271237.369,760.32965,745.42126,755.09155,790.9524,740.989
1694271237.369,764.7619,744.61536,757.1062,796.5934,1103.2234
1694271237.37,771.2088,744.21246,759.5238,791.75824,994.0293
1694271237.371,771.6117,742.6007,759.5238,779.67035,827.619
1694271237.371,762.3443,740.989,758.315,754.68866,809.89014
1694271237.3980002,756.30035,741.79486,751.8681,740.989,677.72894
1694271237.3990002,758.71796,746.2271,752.674,757.1062,663.22345
1694271237.4,756.7033,746.2271,754.68866,788.5348,770.80585
1694271237.401,757.50916,745.0183,752.27106,800.6227,988.7912
1694271237.402,760.7326,746.2271,752.27106,783.2967,877.1795
1694271237.403,765.9707,747.03296,751.4652,766.77655,553.22345
1694271237.403,768.3883,748.24176,753.8828,767.5824,638.24176
1694271237.404,765.56775,750.65936,753.0769,793.7729,1089.5238
1694271237.409,763.1502,751.06226,749.85345,801.02563,1095.1648
1694271237.4099998,770.0,754.68866,754.2857,780.87915,708.3516
1694271237.411,774.0293,756.7033,757.50916,773.22345,556.04395
1694271237.411,762.74725,749.85345,757.50916,782.0879,583.0403
1694271237.443,768.7912,749.85345,760.7326,800.6227,743.4066
1694271237.444,774.0293,752.27106,763.1502,804.65204,856.2271
1694271237.445,767.5824,753.0769,761.13556,797.8022,757.9121
1694271237.446,773.22345,756.30035,757.9121,780.07324,715.2015
1694271237.446,771.2088,754.68866,757.9121,778.0586,732.9304
1694271237.447,772.4176,754.2857,759.12085,798.60803,808.68134
1694271237.448,784.10254,754.68866,754.68866,804.65204,1045.6044
1694271237.449,781.685,753.8828,752.674,801.4286,1284.5421
1694271237.4499998,772.01465,753.47986,752.27106,788.1319,943.2601
1694271237.4499998,773.22345,754.2857,750.65936,772.01465,539.92676
1694271237.451,787.326,757.50916,752.674,782.49084,694.2491
1694271237.451,790.54944,758.315,754.68866,794.9817,868.315
1694271237.474,784.10254,757.1062,751.8681,767.5824,790.54944
1694271237.474,778.86444,757.9121,749.85345,744.21246,656.3736
1694271237.4750001,784.10254,759.5238,753.8828,751.06226,627.3626
1694271237.4750001,791.75824,759.12085,753.0769,767.1795,705.5311
1694271237.476,792.5641,755.09155,747.8388,787.72894,815.12823
1694271237.477,789.34064,754.2857,745.42126,787.72894,876.3736
1694271237.4780002,788.1319,756.7033,747.8388,781.685,952.9304
1694271237.479,784.10254,754.2857,750.2564,784.10254,863.47986
1694271237.48,784.10254,753.0769,750.2564,790.14655,727.28937
1694271237.481,792.5641,752.27106,750.65936,805.8608,856.63007
1694271237.484,794.17584,749.85345,749.45056,808.68134,1027.4725
1694271237.485,788.5348,753.0769,747.8388,794.17584,779.2674
1694271237.5310001,794.57874,755.09155,748.6447,800.2198,532.27106
1694271237.5310001,805.4579,756.30035,750.2564,816.337,654.35895
1694271237.532,807.0696,753.8828,748.6447,811.9048,862.27106
1694271237.533,797.8022,748.6447,746.63007,799.81683,873.95605
1694271237.5340002,793.36993,748.24176,747.8388,791.3553,689.41394
1694271237.535,788.1319,751.4652,747.03296,787.326,668.86444
1694271237.536,792.5641,753.8828,746.63007,793.36993,837.28937
1694271237.536,802.23444,753.0769,746.63007,803.0403,891.28204
1694271237.537,796.1905,749.85345,745.82416,796.1905,874.35895
1694271237.5379999,790.14655,747.8388,746.2271,774.0293,811.0989
1694271237.539,787.72894,747.03296,745.42126,774.83514,886.04395
1694271237.539,788.93774,747.8388,746.2271,776.8498,740.18317
1694271237.6030002,793.36993,748.24176,746.2271,784.5055,709.5604
1694271237.604,789.7436,747.03296,745.42126,791.75824,843.73627
1694271237.604,779.2674,747.03296,746.63007,772.4176,719.2308
1694271237.605,775.64105,745.42126,743.4066,755.89746,544.7619
1694271237.6060002,775.64105,739.7802,743.00366,767.98535,596.7399
1694271237.607,776.04395,743.4066,746.2271,794.9817,863.8828
1694271237.607,773.22345,745.0183,745.42126,794.17584,935.2015
1694271237.608,763.95605,745.42126,748.24176,777.6557,774.43225
1694271237.608,754.2857,748.24176,749.85345,780.87915,634.21246
1694271237.609,749.45056,749.45056,742.6007,802.23444,850.18317
1694271237.609,758.71796,751.4652,738.97437,819.9634,938.4249
1694271237.61,766.3736,749.0476,739.7802,815.9341,967.8388
1694271237.668,769.59705,749.85345,739.3773,783.69965,952.9304
1694271237.669,774.43225,754.68866,742.6007,756.7033,780.07324
1694271237.67,772.01465,753.0769,746.2271,754.68866,631.79486
1694271237.671,773.22345,751.4652,745.82416,763.95605,697.47253
1694271237.672,770.0,749.85345,741.39197,774.0293,917.8755
1694271237.6729999,758.315,737.3626,737.3626,762.3443,960.18317
1694271237.6729999,747.4359,734.5421,735.34796,747.8388,728.9011
1694271237.6739998,735.7509,738.5714,736.1539,739.3773,601.1722
1694271237.6739998,741.39197,735.7509,741.79486,754.68866,845.34796
1694271237.6739998,735.34796,731.7216,737.3626,766.77655,1099.597
1694271237.675,718.8278,725.2747,728.49817,740.989,883.6264
1694271237.675,711.5751,717.619,732.52747,718.8278,602.381
1694271237.703,702.71063,713.9927,733.73627,718.022,684.57874
1694271237.704,703.1135,706.7399,732.9304,735.7509,931.1722
1694271237.704,702.71063,700.293,729.707,738.5714,935.6044
1694271237.705,697.8755,701.0989,726.08057,730.5128,865.4945
1694271237.7059999,689.011,691.8315,732.1245,719.6337,774.0293
1694271237.707,675.7143,686.1905,726.8865,703.5165,643.8828
1694271237.708,683.7729,688.60803,720.0366,711.1722,722.0513
1694271237.708,688.20514,689.41394,720.0366,714.7985,894.10254
1694271237.7089999,674.90845,685.38464,722.0513,701.9048,939.2308
1694271237.7089999,672.0879,681.75824,730.5128,689.81683,769.19415
1694271237.71,678.5348,684.17584,733.73627,682.96704,589.0842
1694271237.71,692.23444,682.1612,733.3333,688.20514,697.8755
1694271237.7150002,703.91943,683.36993,731.7216,710.7692,1042.7839
1694271237.716,713.9927,691.4286,732.9304,712.7839,925.12823
1694271237.72,726.8865,698.2784,730.9158,703.91943,657.5824
1694271237.721,716.0073,696.6667,730.10986,699.0842,626.9597
1694271237.721,701.0989,694.2491,732.1245,711.978,720.4396
1694271237.722,705.5311,695.8608,730.9158,736.1539,811.50183
1694271237.723,710.7692,696.6667,734.5421,736.9597,883.6264
1694271237.723,716.8132,697.8755,736.9597,736.1539,904.17584
1694271237.724,725.6777,699.89014,734.1392,739.7802,739.3773
1694271237.724,738.1685,703.91943,735.7509,756.30035,648.71796
1694271237.725,751.06226,711.978,738.97437,791.3553,738.5714
1694271237.725,757.50916,716.4103,738.97437,808.68134,972.674
1694271237.766,756.30035,719.2308,738.97437,815.5311,1187.033
1694271237.767,745.42126,723.2601,744.21246,801.4286,793.36993
1694271237.768,747.03296,724.87177,745.0183,788.1319,605.6044
1694271237.768,759.92676,730.10986,740.58606,797.8022,846.9597
1694271237.769,764.7619,731.7216,741.79486,805.05493,925.5311
1694271237.77,768.3883,732.1245,740.18317,791.75824,817.5458
1694271237.77,765.56775,732.1245,734.1392,766.77655,660.80585
1694271237.7710001,770.0,733.73627,732.9304,782.8938,997.25275
1694271237.772,784.90845,737.76556,736.1539,813.5165,1153.9927
1694271237.773,783.69965,736.55676,732.9304,806.26373,884.0293
1694271237.7740002,779.2674,739.7802,727.6923,788.1319,770.40295
1694271237.775,787.326,740.58606,728.0952,788.93774,610.4396
1694271237.8019998,786.1172,739.3773,730.9158,800.2198,539.12085
1694271237.803,786.1172,743.4066,732.9304,809.89014,717.619
1694271237.804,789.7436,743.8095,734.1392,818.7546,888.86444
1694271237.8049998,782.8938,741.79486,734.94507,811.9048,854.21246
1694271237.809,773.22345,744.21246,737.3626,803.44324,678.5348
1694271237.809,766.77655,744.21246,738.97437,811.0989,618.0952
1694271237.81,775.64105,738.1685,734.94507,836.4835,875.56775
1694271237.81,773.6264,736.55676,730.9158,850.58606,1326.4469
1694271237.811,775.64105,737.76556,726.4835,824.3956,1070.989
1694271237.811,786.9231,735.34796,723.663,794.9817,635.42126
1694271237.811,784.5055,735.34796,726.08057,796.99634,694.2491
1694271237.812,781.685,736.1539,726.4835,823.5897,877.1795
1694271237.869,785.7143,732.9304,722.0513,823.5897,838.49817
1694271237.8700001,790.54944,733.3333,720.84247,797.3993,748.24176
1694271237.871,788.93774,733.73627,723.663,777.25275,634.61536
1694271237.871,786.1172,736.1539,723.663,783.2967,529.85345
1694271237.872,792.1612,741.79486,727.28937,801.8315,596.337
1694271237.872,798.20514,740.989,726.4835,812.3077,846.9597
1694271237.873,790.9524,741.39197,724.0659,814.7253,1149.5604
1694271237.873,789.7436,747.4359,725.2747,794.17584,917.47253
1694271237.8739998,790.9524,749.0476,728.49817,787.72894,550.0
1694271237.8739998,799.81683,746.2271,729.304,812.71063,611.6484
1694271237.875,809.89014,749.0476,730.9158,832.4542,809.0842
1694271237.875,801.8315,749.45056,728.49817,825.6044,832.0513
1694271237.907,794.17584,745.42126,727.28937,801.8315,672.0879
1694271237.908,798.60803,746.2271,727.6923,790.14655,582.6374
1694271237.909,802.23444,750.2564,729.707,803.44324,711.5751
1694271237.91,803.8461,750.2564,727.6923,815.12823,817.9487
1694271237.91,806.6667,749.0476,726.08057,817.1429,850.989
1694271237.911,801.02563,749.0476,734.5421,811.0989,801.4286
1694271237.916,795.78754,750.65936,736.1539,802.6374,693.0403
1694271237.9169998,800.6227,752.27106,732.9304,805.4579,748.6447
1694271237.9169998,804.65204,751.8681,730.10986,821.1722,805.8608
1694271237.9180002,801.02563,751.4652,724.0659,837.6923,930.3663
1694271237.9190001,795.78754,751.8681,723.2601,840.9158,1087.1062
1694271237.92,799.81683,748.24176,723.2601,817.9487,718.4249
1694271237.943,804.65204,741.79486,724.0659,806.26373,561.685
1694271237.943,807.0696,743.00366,722.4542,799.011,812.3077
1694271237.944,807.47253,747.03296,726.4835,788.93774,956.55676
1694271237.944,803.44324,744.61536,729.304,782.49084,848.1685
1694271237.945,801.8315,738.1685,725.6777,776.04395,613.663
1694271237.9459999,803.8461,736.55676,722.0513,790.54944,874.35895
1694271237.9459999,797.8022,738.5714,722.0513,813.5165,1026.2638
1694271237.947,796.99634,738.97437,723.663,821.5751,856.63007
1694271237.948,796.5934,740.18317,721.2454,812.71063,802.6374
1694271237.948,791.75824,738.5714,724.87177,796.99634,799.41394
1694271237.949,794.57874,735.34796,726.8865,800.6227,681.75824
1694271237.95,800.2198,736.1539,723.663,804.2491,680.54944
1694271238.0019999,794.9817,737.3626,727.28937,807.0696,861.06226
1694271238.003,790.54944,734.5421,727.28937,802.23444,896.1172
1694271238.004,784.5055,729.707,722.0513,786.9231,691.4286
1694271238.0049999,776.4469,730.9158,722.4542,783.2967,610.4396
1694271238.0049999,786.1172,732.52747,722.8571,803.8461,769.19415
1694271238.006,797.3993,728.9011,722.0513,821.1722,907.3993
1694271238.007,792.5641,725.6777,719.6337,813.5165,894.90845
1694271238.007,778.46155,725.2747,718.4249,790.54944,711.1722
1694271238.0110002,780.4762,725.2747,718.8278,786.1172,703.91943
1694271238.012,781.685,726.08057,725.2747,818.3516,1108.0586
1694271238.012,780.4762,728.9011,727.28937,837.28937,1142.3077
1694271238.013,782.0879,728.9011,724.4689,821.978,871.9414
1694271238.036,782.49084,728.9011,723.663,799.41394,740.18317
1694271238.037,784.5055,730.10986,723.663,778.0586,591.0989
1694271238.037,788.1319,734.1392,724.4689,784.10254,601.5751
1694271238.038,790.14655,733.73627,718.8278,797.8022,799.41394
1694271238.038,784.90845,731.31866,714.7985,792.5641,848.97437
1694271238.039,782.49084,735.34796,717.619,777.6557,705.5311
1694271238.04,785.31134,735.34796,719.2308,772.01465,626.9597
1694271238.041,785.7143,738.1685,720.0366,788.93774,664.43225
1694271238.0419998,786.9231,740.989,720.0366,808.68134,1124.9817
1694271238.043,781.28204,740.989,722.4542,801.8315,1180.586
1694271238.044,780.07324,740.989,726.08057,775.2381,722.8571
1694271238.0449998,780.87915,739.7802,728.49817,766.77655,530.2564
1694271238.141,778.0586,738.97437,725.2747,775.2381,638.6447
1694271238.1420002,792.5641,740.58606,726.4835,785.7143,875.16486
1694271238.1430001,795.38464,739.7802,733.73627,794.9817,880.80585
1694271238.144,790.9524,738.97437,733.3333,789.7436,701.0989
1694271238.144,787.326,742.1978,732.9304,780.87915,615.6777
1694271238.145,776.4469,743.4066,734.1392,792.96704,672.0879
1694271238.146,781.685,740.18317,734.94507,804.65204,747.8388
1694271238.146,785.31134,741.39197,737.76556,804.2491,976.30035
1694271238.147,770.80585,744.21246,735.34796,796.5934,1156.4103
1694271238.148,760.32965,744.61536,729.707,776.4469,738.97437
1694271238.1529999,761.13556,746.63007,729.707,779.67035,549.59705
1694271238.1539998,773.6264,749.85345,728.9011,783.69965,891.28204
1694271238.156,780.4762,749.45056,728.9011,787.72894,936.8132
1694271238.1569998,780.07324,749.45056,731.31866,784.5055,741.39197
1694271238.1580002,778.0586,752.27106,733.3333,779.67035,609.6337
1694271238.1590002,779.2674,755.4945,733.73627,787.326,648.315
1694271238.16,779.2674,751.8681,730.10986,796.1905,790.54944
1694271238.16,776.4469,749.0476,730.9158,798.20514,891.28204
1694271238.161,786.9231,751.06226,731.7216,780.07324,888.0586
1694271238.161,786.9231,749.85345,729.304,766.77655,743.4066
1694271238.162,774.0293,751.4652,728.9011,768.7912,589.0842
1694271238.163,782.0879,752.674,732.1245,776.8498,684.9817
1694271238.163,800.6227,747.8388,733.73627,795.78754,898.93774
1694271238.164,796.99634,745.82416,731.7216,801.02563,1096.7766
1694271238.197,788.93774,747.8388,730.5128,779.2674,816.7399
1694271238.1980002,792.1612,743.8095,731.31866,778.46155,610.4396
1694271238.1990001,787.72894,743.00366,730.10986,791.3553,758.71796
1694271238.2,793.7729,746.2271,733.3333,799.011,947.28937
1694271238.2,801.4286,747.8388,739.7802,792.96704,886.4469
1694271238.201,796.5934,748.6447,741.39197,784.90845,620.9158
1694271238.202,795.78754,745.42126,736.9597,782.8938,694.65204
1694271238.202,799.81683,742.6007,735.34796,796.99634,1139.4872
1694271238.203,792.1612,742.6007,738.1685,806.6667,1032.3077
1694271238.204,795.38464,743.8095,740.58606,796.5934,772.8205
1694271238.204,798.20514,744.21246,742.1978,778.46155,746.63007
1694271238.205,794.57874,743.8095,745.0183,776.04395,633.00366
1694271238.245,797.3993,743.00366,742.6007,789.34064,604.3956
1694271238.246,804.2491,743.8095,741.79486,803.0403,804.2491
1694271238.247,808.68134,740.58606,742.6007,801.02563,942.0513
1694271238.248,804.65204,741.79486,741.39197,786.9231,733.73627
1694271238.2489998,799.011,739.3773,741.79486,784.90845,567.326
1694271238.2499998,802.6374,738.97437,746.63007,790.9524,658.7912
1694271238.2499998,805.4579,741.79486,747.8388,805.8608,1155.2014
1694271238.2510002,807.47253,744.21246,746.2271,812.71063,1373.5897
1694271238.252,811.50183,744.61536,747.03296,789.7436,817.9487
1694271238.252,799.011,740.989,746.63007,776.04395,566.52014
1694271238.253,797.3993,740.989,745.0183,788.5348,678.1319
1694271238.2540002,803.44324,739.3773,740.58606,803.8461,778.46155
1694271238.304,802.23444,739.7802,740.58606,803.8461,820.7692
1694271238.3049998,803.8461,742.1978,739.3773,786.9231,701.0989
1694271238.3059998,805.05493,742.6007,739.7802,776.4469,595.5311
1694271238.3059998,799.81683,739.3773,738.97437,784.10254,622.9304
1694271238.3070002,800.6227,741.79486,737.76556,793.36993,785.7143
1694271238.308,812.3077,744.21246,737.76556,792.5641,926.7399
1694271238.308,808.2784,747.8388,738.1685,772.8205,842.9304
1694271238.309,809.89014,750.2564,737.3626,759.92676,683.36993
1694271238.3100002,807.0696,747.03296,736.9597,777.25275,654.7619
1694271238.3100002,805.8608,745.0183,740.58606,802.23444,874.7619
1694271238.311,809.0842,745.0183,739.3773,820.3663,1270.4396
1694271238.311,799.41394,748.6447,739.7802,817.9487,1106.8499
1694271238.337,794.57874,749.85345,745.82416,796.5934,664.43225
1694271238.3379998,778.46155,743.8095,749.0476,770.40295,598.3516
1694271238.3409998,772.8205,738.1685,747.03296,776.04395,734.94507
1694271238.3420002,780.4762,736.55676,746.2271,796.5934,812.71063
1694271238.3430002,775.64105,738.1685,744.21246,787.326,760.32965
1694271238.3430002,770.0,745.42126,742.6007,778.46155,695.8608
1694271238.344,763.1502,751.06226,744.21246,778.46155,614.0659
1694271238.346,764.35895,746.2271,742.1978,789.7436,669.2674
1694271238.3470001,766.77655,740.989,745.82416,799.41394,813.1135
1694271238.348,761.53845,743.00366,746.63007,801.4286,1035.1282
1694271238.348,759.92676,743.4066,743.4066,799.81683,865.09155
1694271238.349,751.8681,741.39197,744.21246,787.72894,563.69965
1694271238.381,763.1502,741.79486,744.61536,787.72894,699.4872
1694271238.3820002,767.5824,743.4066,740.18317,799.41394,897.72894
1694271238.3830001,761.13556,744.61536,740.989,790.54944,860.2564
1694271238.384,760.32965,748.24176,746.2271,776.8498,661.2088
1694271238.384,758.315,747.4359,747.4359,781.685,622.9304
1694271238.385,759.92676,745.0183,747.4359,800.2198,859.85345
1694271238.386,764.35895,748.24176,748.24176,807.8755,990.80585
1694271238.386,772.8205,749.0476,748.6447,795.78754,939.6337
1694271238.387,770.40295,750.65936,749.85345,789.34064,805.8608
1694271238.388,759.12085,752.27106,753.8828,783.69965,695.05493
1694271238.388,769.19415,753.0769,755.09155,794.9817,674.90845
1694271238.389,781.685,753.0769,751.8681,823.9927,811.9048
1694271238.412,776.8498,753.47986,749.45056,819.15753,1040.3663
1694271238.4129999,775.64105,755.89746,748.6447,802.23444,1138.6813
1694271238.414,776.04395,758.315,748.6447,792.96704,780.4762
1694271238.414,774.43225,759.92676,749.0476,796.99634,630.989
1694271238.418,778.46155,757.9121,747.4359,809.0842,853.8095
1694271238.4190001,780.4762,756.7033,747.03296,811.9048,923.91943
1694271238.4190001,769.59705,754.2857,749.0476,789.34064,792.96704
1694271238.42,767.98535,753.0769,749.85345,772.4176,626.1539
1694271238.421,772.4176,754.68866,751.8681,799.81683,847.76556
1694271238.4220002,776.8498,759.12085,751.4652,824.3956,986.3736
1694271238.4220002,788.5348,764.7619,753.0769,816.7399,826.0073
1694271238.423,784.90845,764.35895,751.4652,796.5934,722.0513
1694271238.4499998,771.6117,759.12085,747.8388,782.8938,618.9011
1694271238.4499998,773.6264,759.5238,747.4359,787.72894,636.63007
1694271238.451,779.2674,760.32965,749.85345,805.8608,808.2784
1694271238.451,777.25275,759.12085,748.24176,811.9048,901.3553
1694271238.452,774.43225,760.32965,747.4359,802.23444,825.2015
1694271238.452,770.40295,758.315,747.4359,779.67035,726.4835
1694271238.4529998,771.6117,754.2857,745.0183,776.4469,662.4176
1694271238.4529998,780.4762,755.4945,745.42126,795.78754,826.0073
1694271238.4540002,778.86444,756.7033,743.00366,807.8755,1268.022
1694271238.4550002,771.6117,753.47986,738.5714,791.3553,1030.6959
1694271238.4550002,772.8205,751.8681,742.1978,774.0293,594.3223
1694271238.456,777.6557,752.674,741.39197,778.86444,588.2784
1694271238.5449998,780.4762,753.8828,739.3773,794.17584,720.84247
1694271238.5459998,776.4469,755.4945,740.18317,798.20514,833.2601
1694271238.5470002,773.22345,752.27106,739.7802,778.0586,798.60803
1694271238.5470002,766.77655,751.06226,739.3773,763.95605,692.23444
1694271238.548,771.6117,753.0769,738.97437,777.25275,631.79486
1694271238.549,774.43225,749.45056,734.94507,798.60803,774.83514
1694271238.554,770.80585,749.45056,734.1392,806.26373,935.6044
1694271238.555,776.4469,751.4652,735.34796,803.8461,1106.8499
1694271238.556,772.4176,748.6447,732.52747,794.57874,967.03296
1694271238.556,766.77655,742.1978,728.9011,784.5055,584.2491
1694271238.557,770.40295,739.7802,730.5128,794.9817,649.92676
1694271238.558,772.01465,738.97437,736.1539,814.3223,870.7326
1694271238.593,766.77655,740.18317,735.7509,801.02563,838.9011
1694271238.5939999,760.32965,736.55676,729.707,765.16486,640.65936
1694271238.595,759.92676,732.52747,731.31866,770.0,564.5055
1694271238.595,768.3883,734.1392,734.94507,797.8022,672.49084
1694271238.596,765.16486,734.1392,734.5421,817.9487,834.4689
1694271238.597,759.5238,732.9304,733.3333,803.0403,856.2271
1694271238.597,764.7619,727.28937,730.5128,770.40295,785.31134
1694271238.598,764.35895,729.707,733.3333,776.04395,951.31866
1694271238.599,767.5824,734.5421,731.31866,782.8938,846.1539
1694271238.599,772.01465,734.1392,728.49817,789.34064,770.0
1694271238.6,773.22345,733.73627,732.52747,793.36993,985.56775
1694271238.6009998,776.4469,733.3333,729.707,783.69965,942.4542
1694271238.624,772.4176,731.31866,722.4542,776.4469,607.2161
1694271238.625,775.64105,730.5128,724.87177,782.0879,612.0513
1694271238.628,776.04395,727.6923,726.8865,792.5641,944.0659
1694271238.629,763.95605,725.6777,726.08057,793.7729,940.4396
1694271238.63,771.2088,727.28937,726.4835,786.9231,695.8608
1694271238.631,766.77655,723.663,724.87177,776.8498,668.86444
1694271238.632,759.5238,723.663,727.6923,790.14655,940.0366
1694271238.633,770.80585,727.6923,728.0952,803.8461,1000.4762
1694271238.6369998,776.8498,729.304,728.49817,806.26373,873.95605
1694271238.638,779.67035,728.0952,732.52747,790.54944,808.68134
1694271238.6390002,776.4469,732.1245,730.10986,765.9707,746.63007
1694271238.6390002,772.01465,735.7509,724.4689,771.6117,655.16486
1694271238.669,784.10254,729.707,722.4542,782.0879,728.49817
1694271238.67,792.5641,728.49817,723.2601,786.52014,900.14655
1694271238.671,782.8938,732.52747,726.8865,780.4762,850.18317
1694271238.672,767.98535,726.8865,725.2747,758.71796,584.65204
1694271238.6729999,758.71796,712.381,718.022,753.0769,547.98535
1694271238.6739998,764.7619,712.381,719.6337,774.83514,788.93774
1694271238.675,763.5531,720.0366,721.2454,783.69965,962.1978
1694271238.675,756.30035,713.1868,719.6337,765.16486,914.65204
1694271238.676,739.7802,709.15753,716.4103,746.63007,720.0366
1694271238.677,727.28937,708.3516,711.978,736.55676,681.75824
1694271238.677,725.2747,702.71063,708.7546,751.8681,1103.2234
1694271238.6780002,713.5897,699.0842,709.15753,753.0769,1124.9817
1694271238.708,705.5311,691.8315,709.15753,726.4835,769.19415
1694271238.7089999,709.5604,683.7729,707.9487,718.022,709.9634
1694271238.71,714.7985,681.3553,709.15753,727.28937,619.304
1694271238.711,715.6044,680.54944,706.7399,739.3773,645.89746
1694271238.711,718.8278,680.54944,709.9634,755.89746,849.7802
1694271238.712,728.49817,681.3553,714.7985,762.3443,998.0586
1694271238.7129998,740.58606,684.57874,713.1868,756.30035,784.90845
1694271238.7129998,741.79486,682.5641,714.7985,751.4652,566.52014
1694271238.714,747.03296,678.5348,716.4103,773.22345,732.1245
1694271238.7150002,762.74725,676.1172,714.3956,813.91943,1113.6996
1694271238.719,762.74725,678.93774,713.9927,809.0842,1029.0842
1694271238.72,758.315,684.57874,717.619,781.28204,668.86444
1694271238.752,768.3883,684.17584,721.6484,790.9524,588.2784
1694271238.753,774.83514,682.1612,721.6484,812.3077,717.2161
1694271238.754,774.83514,684.57874,718.8278,813.5165,839.304
1694271238.754,776.4469,686.1905,716.0073,806.6667,805.05493
1694271238.755,785.31134,687.3993,713.5897,788.5348,711.1722
1694271238.755,782.8938,689.011,707.1429,783.69965,703.5165
1694271238.756,784.90845,685.38464,704.3223,801.02563,701.50183
1694271238.756,797.8022,688.20514,708.7546,822.381,772.4176
1694271238.757,801.8315,694.2491,711.978,834.0659,929.15753
1694271238.757,806.26373,700.696,713.1868,832.8571,1025.0549
1694271238.7580001,798.60803,701.0989,711.1722,812.3077,691.4286
1694271238.759,795.78754,697.8755,710.7692,814.7253,504.46887
1694271238.7859998,803.44324,700.696,710.7692,846.9597,926.7399
1694271238.7870002,795.78754,701.50183,707.9487,856.63007,1193.4799
1694271238.788,790.14655,703.1135,707.5458,832.8571,775.2381
1694271238.788,794.17584,706.7399,710.3663,823.1868,516.55676
1694271238.789,797.8022,705.5311,710.7692,836.8865,663.22345
1694271238.7900002,801.8315,701.50183,706.337,842.52747,885.2381
1694271238.7900002,801.4286,701.0989,704.7253,838.49817,941.6484
1694271238.7910001,796.99634,702.3077,711.978,828.4249,821.1722
1694271238.7910001,793.7729,702.3077,711.5751,827.619,910.6227
1694271238.792,790.14655,705.9341,708.7546,840.10986,915.8608
1694271238.792,786.9231,708.7546,707.9487,844.1392,751.4652
1694271238.793,789.34064,707.1429,705.12823,840.9158,805.4579
1694271238.8899999,793.7729,709.15753,705.5311,827.619,789.34064
1694271238.891,794.57874,710.3663,700.293,800.6227,590.696
1694271238.892,797.8022,710.3663,699.89014,808.2784,548.3883
1694271238.892,799.41394,707.5458,703.1135,834.0659,740.18317
1694271238.893,795.78754,707.5458,703.1135,832.0513,890.07324
1694271238.894,789.7436,707.9487,701.0989,820.3663,865.09155
1694271238.895,787.326,706.337,702.71063,815.12823,706.7399
1694271238.895,788.5348,707.9487,700.696,818.7546,674.90845
1694271238.896,792.1612,704.7253,700.696,842.9304,1127.8022
1694271238.8969998,802.6374,702.71063,702.3077,847.76556,1230.1465
1694271238.8979998,791.3553,701.9048,701.50183,825.6044,814.7253
1694271238.8979998,783.69965,699.4872,698.68134,815.12823,701.0989
1694271238.9,794.57874,700.293,699.4872,819.5604,641.06226
1694271238.901,800.2198,698.2784,700.696,829.2308,628.5714
1694271238.9020002,809.4872,698.2784,704.3223,838.49817,817.9487
1694271238.903,809.89014,697.8755,706.7399,835.2747,855.42126
1694271238.904,805.8608,697.0696,706.337,821.1722,630.58606
1694271238.905,804.65204,697.47253,703.1135,808.2784,538.71796
1694271238.905,805.8608,696.6667,698.68134,822.381,689.41394
1694271238.906,805.4579,695.05493,699.0842,846.9597,1017.8022
1694271238.907,813.1135,698.68134,701.50183,830.84247,979.92676
1694271238.907,815.9341,702.71063,700.696,802.23444,616.4835
1694271238.908,815.12823,699.0842,701.9048,800.6227,544.35895
1694271238.909,811.50183,693.8461,702.71063,815.12823,781.685
1694271238.9390001,808.68134,695.4579,702.3077,830.0366,860.2564
1694271238.94,814.7253,697.0696,705.12823,827.2161,814.7253
1694271238.947,808.68134,697.0696,709.15753,810.293,736.9597
1694271238.948,800.2198,698.2784,711.1722,807.8755,685.38464
1694271238.952,800.6227,699.4872,712.7839,813.5165,716.8132
1694271238.9529998,801.02563,698.2784,712.381,825.6044,826.4103
1694271238.9539998,789.34064,695.05493,713.9927,835.6777,954.1392
1694271238.9550002,768.7912,697.47253,716.4103,830.0366,1138.6813
1694271238.957,751.06226,701.50183,710.7692,813.5165,772.01465
1694271238.9580002,738.97437,695.8608,706.7399,813.91943,562.8938
1694271238.961,735.7509,689.011,703.1135,830.84247,882.4176
1694271238.963,728.0952,692.23444,705.12823,828.022,963.4066
1694271238.99,711.1722,690.2198,707.5458,813.1135,742.1978
1694271238.9910002,708.3516,687.3993,707.5458,808.68134,610.84247
1694271238.992,703.5165,693.0403,708.7546,805.05493,738.5714
1694271238.993,697.8755,697.0696,709.9634,820.7692,867.50916
1694271238.993,711.1722,700.696,710.7692,834.4689,888.0586
1694271238.994,709.9634,699.4872,707.5458,810.696,835.6777
1694271238.994,693.8461,696.26373,705.12823,800.2198,956.1539
1694271238.9950001,696.6667,699.89014,709.9634,817.9487,906.99634
1694271238.996,698.68134,701.9048,709.5604,819.9634,767.5824
1694271238.996,692.23444,699.89014,705.9341,809.89014,872.74725
1694271238.997,684.9817,699.4872,705.5311,789.7436,801.8315
1694271238.997,694.2491,703.91943,706.337,784.10254,601.5751
1694271239.028,703.5165,709.5604,707.9487,798.60803,599.5604
1694271239.029,707.5458,714.3956,708.7546,811.9048,755.4945
1694271239.029,715.6044,715.2015,706.7399,823.5897,879.19415
1694271239.0300002,722.4542,714.3956,705.12823,818.3516,846.55676
1694271239.034,731.31866,716.0073,708.3516,800.6227,643.8828
1694271239.034,736.1539,714.3956,709.15753,811.9048,697.8755
1694271239.035,744.21246,713.1868,710.3663,834.4689,1082.2711
1694271239.035,756.7033,713.5897,710.7692,828.8278,1045.2014
1694271239.036,760.7326,714.3956,709.9634,812.3077,882.8205
1694271239.036,755.4945,715.2015,706.7399,796.5934,760.32965
1694271239.037,750.2564,714.3956,705.12823,802.23444,675.31134
1694271239.038,766.3736,711.978,703.91943,819.5604,724.87177
1694271239.0649998,780.87915,711.5751,701.50183,823.5897,818.7546
1694271239.066,771.6117,713.9927,701.50183,819.15753,974.2857
1694271239.0670002,763.95605,715.6044,703.91943,812.3077,902.5641
1694271239.0670002,761.53845,713.5897,705.5311,805.8608,588.2784
1694271239.068,761.13556,716.4103,708.7546,814.7253,666.04395
1694271239.068,763.5531,716.0073,715.2015,836.8865,949.707
1694271239.069,766.77655,706.337,714.7985,842.9304,928.3516
1694271239.069,763.95605,700.293,712.7839,818.7546,735.7509
1694271239.0700002,763.95605,700.696,717.2161,796.1905,626.9597
1694271239.0700002,777.6557,702.71063,715.6044,815.5311,931.978
1694271239.071,787.326,703.5165,713.1868,841.31866,1203.1501
1694271239.071,780.87915,704.3223,719.2308,839.707,903.7729
1694271239.1260002,773.6264,707.9487,724.87177,825.2015,652.3443
1694271239.127,782.49084,715.2015,726.08057,816.337,592.3077
1694271239.128,788.5348,714.7985,728.49817,830.84247,608.8278
1694271239.129,789.7436,713.1868,730.9158,845.34796,779.67035
1694271239.129,788.93774,715.2015,730.5128,837.28937,857.4359
1694271239.1299999,784.90845,714.7985,730.10986,813.5165,755.89746
1694271239.134,782.49084,711.978,728.49817,806.6667,618.9011
1694271239.134,780.4762,709.5604,730.9158,813.5165,627.3626
1694271239.135,793.7729,709.9634,732.9304,838.9011,923.91943
1694271239.135,794.17584,715.2015,733.73627,865.09155,1263.9927
1694271239.136,779.67035,719.6337,735.7509,841.31866,959.3773
1694271239.136,789.7436,722.4542,730.5128,805.4579,562.8938
1694271239.16,792.96704,724.87177,729.304,816.7399,697.47253
1694271239.161,775.64105,724.4689,737.3626,826.0073,887.6557
1694271239.161,766.77655,725.2747,737.3626,821.978,889.67035
1694271239.162,769.19415,730.10986,736.55676,817.5458,769.19415
1694271239.162,776.04395,737.3626,736.9597,807.8755,663.6264
1694271239.163,787.72894,745.42126,739.7802,820.7692,690.6227
1694271239.163,787.326,748.6447,742.6007,835.6777,804.2491
1694271239.164,783.2967,748.24176,743.00366,832.4542,892.49084
1694271239.164,784.90845,751.06226,742.1978,823.9927,876.77655
1694271239.165,776.8498,756.30035,745.42126,817.9487,680.9524
1694271239.165,769.19415,757.50916,749.85345,826.0073,570.14655
1694271239.1660001,768.3883,753.0769,749.0476,844.1392,740.18317
1694271239.26,778.0586,755.89746,750.65936,859.85345,1167.2894
1694271239.262,774.83514,762.74725,753.8828,855.42126,1043.5897
1694271239.262,762.3443,759.92676,752.674,825.6044,593.5165
1694271239.263,755.4945,758.71796,748.24176,818.7546,545.56775
1694271239.264,766.77655,763.95605,747.4359,828.8278,693.44324
1694271239.2649999,783.2967,769.19415,752.674,816.7399,895.31134
1694271239.2659998,780.87915,772.4176,751.06226,809.0842,878.7912
1694271239.267,777.6557,774.0293,753.8828,801.8315,750.65936
1694271239.2710001,782.8938,773.6264,757.9121,812.3077,974.2857
1694271239.272,790.14655,772.8205,756.7033,834.4689,868.71796
1694271239.273,784.5055,775.2381,761.13556,835.6777,715.6044
1694271239.274,781.28204,777.6557,761.53845,815.9341,811.0989
1694271239.276,787.72894,777.25275,758.315,790.54944,665.64105
1694271239.277,784.90845,782.0879,763.5531,792.1612,495.6044
1694271239.278,781.685,780.4762,765.16486,815.9341,615.6777
1694271239.279,771.2088,774.83514,761.9414,832.4542,904.9817
1694271239.28,770.40295,776.8498,763.95605,834.0659,903.7729
1694271239.28,779.2674,782.0879,767.98535,819.15753,699.4872
1694271239.281,784.5055,786.52014,772.01465,805.4579,601.978
1694271239.2819998,778.86444,787.326,778.0586,827.2161,901.3553
1694271239.283,784.10254,795.78754,786.52014,855.42126,1063.7362
1694271239.284,798.20514,807.47253,792.96704,847.76556,860.65936
1694271239.284,794.9817,808.68134,796.1905,833.663,754.2857
1694271239.2849998,790.14655,805.8608,794.57874,832.4542,677.326
1694271239.344,790.9524,807.47253,791.3553,843.73627,662.01465
1694271239.345,799.011,807.8755,788.93774,862.674,813.91943
1694271239.345,798.60803,808.68134,790.14655,864.2857,904.17584
1694271239.346,793.36993,812.71063,792.1612,845.34796,817.5458
1694271239.346,793.7729,811.0989,788.93774,831.2454,675.31134
1694271239.3470001,789.7436,809.4872,782.49084,836.08057,645.09155
1694271239.3470001,790.54944,811.9048,779.67035,844.1392,888.86444
1694271239.348,796.1905,811.9048,778.0586,830.4396,1240.6227
1694271239.348,794.57874,812.3077,778.46155,796.99634,984.7619
1694271239.349,793.7729,812.71063,784.5055,782.49084,599.15753
1694271239.351,798.20514,809.0842,790.14655,807.47253,672.49084
1694271239.352,785.7143,801.8315,783.2967,830.4396,934.3956
1694271239.401,778.46155,799.011,777.25275,825.2015,897.326
1694271239.402,780.87915,802.6374,777.6557,811.9048,745.82416
1694271239.402,785.31134,803.8461,776.04395,802.23444,636.2271
1694271239.403,778.86444,800.2198,778.46155,805.4579,600.7692
1694271239.403,774.43225,805.4579,784.90845,827.619,761.53845
1694271239.403,782.0879,805.05493,784.90845,838.0952,913.0403
1694271239.404,782.0879,802.23444,780.4762,821.978,1062.1245
1694271239.404,777.6557,801.02563,779.2674,809.89014,859.45056
1694271239.404,778.46155,801.02563,779.67035,810.293,596.7399
1694271239.405,778.86444,804.2491,778.0586,819.15753,763.1502
1694271239.405,783.69965,808.2784,778.86444,831.2454,1008.1319
1694271239.405,776.04395,807.47253,781.28204,822.381,867.1062
1694271239.459,773.6264,807.47253,781.28204,808.2784,583.8461
1694271239.46,771.2088,809.0842,782.0879,812.71063,553.22345
1694271239.46,763.1502,812.71063,784.5055,837.6923,744.61536
1694271239.461,780.4762,811.9048,786.9231,858.6447,917.47253
1694271239.4620001,784.5055,810.696,788.1319,840.10986,872.3443
1694271239.4620001,779.2674,811.50183,788.1319,816.337,851.79486
1694271239.463,781.28204,813.1135,786.52014,815.9341,839.304
1694271239.463,786.52014,812.71063,782.49084,832.0513,785.7143
1694271239.464,791.75824,810.293,782.0879,842.9304,889.67035
1694271239.464,787.326,815.12823,784.90845,825.6044,888.46155
1694271239.465,775.64105,814.7253,784.10254,803.8461,702.71063
1694271239.465,778.0586,813.91943,786.52014,813.1135,648.71796
1694271239.5059998,790.14655,816.7399,786.9231,839.304,712.7839
1694271239.507,794.57874,815.5311,782.0879,844.94507,952.52747
1694271239.507,796.1905,818.7546,778.86444,839.707,1223.2968
1694271239.508,788.93774,817.9487,780.87915,816.7399,809.0842
1694271239.508,780.4762,817.1429,782.49084,813.1135,524.21246
1694271239.5089998,786.1172,819.15753,781.28204,829.2308,740.58606
1694271239.5089998,794.17584,815.9341,782.49084,832.4542,902.5641
1694271239.5100002,796.99634,818.3516,782.49084,829.2308,840.9158
1694271239.5100002,792.96704,821.5751,779.67035,824.7985,712.7839
1694271239.5110002,781.685,821.978,780.07324,834.0659,775.2381
1694271239.5110002,781.685,823.5897,778.0586,828.8278,736.55676
1694271239.512,784.10254,823.1868,781.685,836.08057,776.8498
1694271239.5180001,786.1172,824.3956,786.9231,846.55676,878.7912
1694271239.5180001,792.1612,826.4103,786.1172,828.4249,770.80585
1694271239.519,780.4762,830.4396,789.34064,826.0073,618.49817
1694271239.52,784.5055,832.4542,789.7436,835.2747,604.3956
1694271239.521,803.8461,832.8571,787.326,835.2747,834.87177
1694271239.521,798.60803,833.663,786.1172,828.4249,1054.8718
1694271239.5219998,781.28204,828.4249,784.5055,808.2784,909.011
1694271239.5219998,772.8205,823.9927,783.69965,803.0403,646.30035
1694271239.5219998,780.87915,827.2161,787.326,818.7546,670.87915
1694271239.523,782.8938,830.4396,788.1319,830.84247,871.53845
1694271239.523,771.2088,825.2015,783.2967,829.2308,899.34064
1694271239.524,774.43225,822.381,779.67035,815.12823,712.7839
1694271239.57,779.2674,825.2015,780.07324,814.3223,716.0073
1694271239.571,774.0293,827.2161,781.685,830.0366,956.55676
1694271239.5740001,788.93774,830.4396,782.8938,836.08057,879.59705
1694271239.575,801.8315,828.8278,785.31134,841.7216,843.3333
1694271239.575,796.5934,828.022,786.1172,833.2601,889.2674
1694271239.576,801.8315,829.6337,784.10254,814.3223,746.2271
1694271239.576,801.02563,829.2308,789.34064,819.15753,645.4945
1694271239.577,798.60803,830.84247,790.54944,831.6484,733.3333
1694271239.577,808.2784,828.8278,786.9231,846.1539,1072.1978
1694271239.5779998,811.0989,827.619,788.93774,846.9597,1069.7803
1694271239.5779998,809.4872,829.6337,790.14655,817.9487,671.685
1694271239.579,798.20514,828.4249,786.52014,807.47253,559.67035
1694271239.6060002,797.3993,827.2161,790.54944,829.2308,674.5055
1694271239.607,802.23444,823.9927,794.57874,841.7216,802.23444
1694271239.608,799.011,826.0073,794.9817,836.08057,776.04395
1694271239.608,798.20514,827.2161,797.8022,817.5458,624.1392
1694271239.609,802.23444,823.5897,794.9817,805.8608,555.2381
1694271239.61,797.8022,821.1722,788.93774,816.7399,720.0366
1694271239.61,796.99634,821.5751,789.7436,830.84247,878.7912
1694271239.611,798.20514,823.5897,790.9524,833.663,911.4286
1694271239.611,796.99634,825.2015,795.78754,832.8571,1103.6263
1694271239.612,796.99634,824.3956,795.78754,826.8132,986.3736
1694271239.612,800.6227,823.9927,789.7436,826.4103,682.96704
1694271239.613,807.47253,821.978,788.5348,840.5128,811.50183
1694271239.635,815.5311,823.5897,787.326,831.2454,878.3883
1694271239.636,813.1135,827.2161,787.326,807.8755,672.8938
1694271239.6369998,803.0403,826.0073,788.5348,790.54944,560.4762
1694271239.6369998,804.65204,830.84247,789.7436,801.02563,723.2601
1694271239.641,810.293,834.87177,796.5934,817.1429,867.9121
1694271239.641,821.5751,846.55676,813.91943,827.2161,884.0293
1694271239.642,827.619,859.85345,825.6044,831.6484,790.14655
1694271239.642,833.2601,863.47986,828.022,836.08057,850.989
1694271239.6430001,831.6484,866.30035,832.0513,853.00366,850.989
1694271239.6430001,828.8278,867.1062,831.2454,869.12085,815.5311
1694271239.644,835.6777,868.71796,832.0513,873.95605,950.9158
1694271239.644,824.7985,870.7326,832.8571,863.0769,925.5311
1694271239.6729999,817.9487,873.1502,828.022,848.1685,681.3553
1694271239.6739998,831.2454,877.1795,826.0073,844.1392,595.9341
1694271239.6739998,828.8278,876.3736,828.8278,856.2271,793.36993
1694271239.675,813.91943,873.95605,827.2161,859.45056,917.8755
1694271239.675,808.68134,871.13556,820.7692,838.0952,759.5238
1694271239.675,817.1429,871.53845,817.1429,825.2015,593.91943
1694271239.676,830.0366,874.7619,818.7546,840.9158,780.87915
1694271239.676,821.978,871.13556,819.9634,863.47986,1156.4103
1694271239.677,806.6667,866.7033,818.7546,849.7802,1056.4835
1694271239.677,800.2198,868.315,815.9341,823.5897,784.90845
1694271239.677,788.5348,871.13556,815.5311,808.2784,697.8755
1694271239.6780002,794.17584,871.13556,817.9487,811.9048,699.0842
1694271239.739,799.011,869.92676,816.7399,831.2454,793.36993
1694271239.74,792.96704,868.315,813.5165,838.9011,875.56775
1694271239.74,801.02563,861.4652,814.3223,832.4542,892.8938
1694271239.741,799.011,858.24176,814.3223,827.619,684.57874
1694271239.742,798.20514,858.24176,815.5311,830.84247,561.685
1694271239.742,813.91943,854.61536,819.5604,838.0952,751.4652
1694271239.7459998,807.8755,849.7802,815.12823,843.3333,1138.2784
1694271239.7459998,797.3993,847.76556,810.293,840.10986,1207.5824
1694271239.747,802.23444,850.989,813.5165,822.7839,695.8608
1694271239.748,800.2198,850.58606,816.337,816.7399,497.61905
1694271239.748,799.011,848.1685,811.9048,829.6337,705.9341
1694271239.7489998,798.20514,843.73627,807.47253,834.4689,824.7985
1694271239.789,792.1612,842.52747,809.89014,831.6484,774.0293
1694271239.7900002,793.7729,848.97437,812.71063,819.5604,609.2308
1694271239.7900002,798.20514,846.1539,809.0842,814.7253,547.5824
1694271239.792,796.99634,839.707,808.2784,829.2308,693.44324
1694271239.793,794.17584,841.31866,807.8755,842.9304,797.8022
1694271239.794,786.52014,840.10986,807.8755,840.5128,908.20514
1694271239.794,789.7436,837.6923,810.293,827.619,1058.9011
1694271239.795,783.2967,834.87177,805.8608,804.65204,761.53845
1694271239.795,773.6264,830.0366,801.4286,814.3223,527.8388
1694271239.796,788.1319,833.2601,804.65204,836.08057,817.1429
1694271239.797,791.75824,838.49817,804.65204,833.2601,1027.8755
1694271239.797,781.28204,834.0659,796.99634,800.2198,703.91943
1694271239.824,779.67035,833.663,794.9817,783.2967,485.93405
1694271239.825,782.8938,836.08057,797.8022,805.05493,639.0476
1694271239.825,793.36993,833.2601,799.011,826.0073,819.5604
1694271239.826,784.90845,830.0366,799.41394,822.381,835.2747
1694271239.8270001,775.64105,829.2308,799.81683,809.0842,731.31866
1694271239.8270001,788.1319,826.8132,802.23444,802.23444,726.08057
1694271239.828,788.1319,823.9927,803.0403,810.696,765.9707
1694271239.828,784.90845,825.2015,803.44324,823.9927,830.0366
1694271239.832,789.7436,829.2308,803.44324,822.381,886.4469
1694271239.832,778.0586,826.4103,799.81683,819.15753,1041.5751
1694271239.833,768.3883,825.6044,794.9817,814.3223,887.25275
1694271239.8339999,774.43225,828.4249,794.9817,810.696,652.3443
1694271239.894,776.8498,824.3956,793.36993,813.5165,786.9231
1694271239.895,778.86444,819.15753,792.1612,821.5751,891.685
1694271239.895,770.80585,819.15753,794.9817,803.8461,753.8828
1694271239.896,770.0,817.5458,798.20514,776.4469,577.8022
1694271239.8969998,776.04395,818.3516,797.3993,780.87915,632.1978
1694271239.8969998,773.22345,821.1722,795.78754,798.60803,827.619
1694271239.8979998,762.74725,819.15753,792.5641,815.9341,911.4286
1694271239.8979998,761.53845,819.15753,792.1612,806.6667,833.663
1694271239.8990002,778.0586,821.1722,793.7729,792.1612,813.1135
1694271239.9,786.9231,826.0073,794.57874,800.6227,1008.93774
1694271239.9,792.1612,824.7985,797.3993,809.89014,916.6667
1694271239.901,796.99634,822.7839,799.011,813.5165,832.8571
1694271239.927,795.78754,823.1868,794.9817,805.4579,931.1722
1694271239.929,778.46155,817.9487,789.34064,792.1612,813.91943
1694271239.929,775.64105,819.5604,789.7436,780.4762,603.5897
1694271239.9299998,778.86444,820.7692,790.54944,790.54944,694.65204
1694271239.931,774.83514,816.337,792.1612,806.26373,916.26373
1694271239.932,777.25275,817.5458,793.36993,796.5934,942.0513
1694271239.932,767.1795,821.5751,791.3553,783.69965,702.71063
1694271239.9329998,766.3736,825.6044,792.96704,780.87915,596.337
1694271239.934,785.31134,827.619,796.99634,805.4579,908.20514
1694271239.9350002,801.4286,828.022,801.4286,825.6044,1056.4835
1694271239.9390001,799.011,832.4542,801.02563,806.6667,805.8608
1694271239.9390001,783.2967,833.663,798.20514,778.46155,681.3553
1694271239.968,784.90845,833.663,798.20514,772.4176,729.304
1694271239.9689999,800.2198,834.4689,800.2198,790.54944,684.57874
1694271239.9699998,795.78754,835.6777,807.47253,805.4579,763.1502
1694271239.971,792.1612,834.4689,808.68134,794.17584,812.3077
1694271239.972,792.5641,830.4396,807.47253,776.4469,661.2088
1694271239.972,791.75824,830.84247,809.4872,779.67035,598.3516
1694271239.973,793.7729,835.2747,808.68134,796.1905,693.44324
1694271239.973,794.17584,834.4689,805.05493,810.696,916.26373
1694271239.9740002,787.72894,830.0366,801.8315,815.5311,1251.5018
1694271239.9740002,780.07324,834.87177,807.0696,809.4872,940.0366
1694271239.9750001,784.90845,838.9011,812.3077,794.57874,529.45056
1694271239.9750001,784.10254,834.87177,810.696,792.96704,632.6007
1694271239.999,780.07324,830.4396,806.6667,805.8608,822.381
1694271240.0,781.28204,828.8278,803.0403,802.6374,910.2198
1694271240.0,767.5824,825.2015,798.20514,788.93774,809.4872
1694271240.001,760.32965,827.2161,798.20514,790.9524,734.1392
1694271240.0019999,759.92676,832.0513,803.44324,793.36993,728.0952
1694271240.0019999,756.7033,833.2601,806.6667,808.2784,783.2967
1694271240.003,756.7033,832.0513,807.47253,821.5751,852.1978
1694271240.003,771.2088,832.4542,811.0989,819.5604,984.35895
1694271240.004,755.89746,830.84247,811.50183,806.6667,867.1062
1694271240.004,740.989,825.2015,807.47253,792.96704,652.74725
1694271240.0049999,764.7619,827.619,804.65204,789.7436,793.7729
1694271240.006,768.3883,827.2161,805.8608,788.93774,941.6484
1694271240.088,763.1502,824.7985,805.05493,782.0879,834.87177
1694271240.089,757.1062,822.7839,803.44324,772.4176,641.4652
1694271240.089,755.4945,819.5604,804.65204,770.80585,610.0366
1694271240.09,765.9707,816.7399,801.8315,790.14655,777.6557
1694271240.091,768.3883,816.7399,796.99634,801.02563,962.1978
1694271240.091,761.53845,821.978,801.8315,796.1905,886.4469
1694271240.092,749.85345,820.7692,801.02563,787.72894,796.5934
1694271240.092,749.85345,818.3516,798.60803,796.99634,1106.044
1694271240.093,766.77655,819.9634,802.6374,808.2784,1179.3773
1694271240.093,769.19415,814.3223,804.65204,805.4579,918.68134
1694271240.094,757.9121,806.26373,805.8608,803.8461,811.0989
1694271240.095,753.0769,807.0696,807.47253,794.17584,646.7033
1694271240.119,757.50916,810.293,802.23444,789.7436,529.0476
1694271240.12,763.1502,805.4579,800.2198,811.9048,657.98535
1694271240.12,761.9414,800.6227,804.2491,821.1722,904.17584
1694271240.12,766.3736,802.6374,810.293,820.7692,924.3223
1694271240.121,776.8498,807.0696,813.1135,814.7253,687.3993
1694271240.121,780.07324,806.6667,808.68134,801.02563,629.3773
1694271240.122,766.77655,799.41394,807.8755,822.381,977.50916
1694271240.122,765.9707,801.4286,810.696,822.381,1054.4689
1694271240.122,772.8205,801.8315,808.2784,801.8315,830.4396
1694271240.1230001,777.6557,799.81683,804.2491,792.1612,653.95605
1694271240.1230001,785.7143,803.0403,804.65204,789.34064,781.685
1694271240.124,794.17584,803.44324,806.6667,793.36993,863.47986
1694271240.174,792.5641,802.23444,803.8461,782.49084,824.7985
1694271240.175,787.72894,798.20514,801.8315,774.83514,849.7802
1694271240.1790001,784.90845,799.011,801.4286,772.4176,721.2454
1694271240.18,781.685,801.4286,801.8315,775.64105,570.54944
1694271240.181,763.95605,799.81683,802.6374,790.14655,620.9158
1694271240.181,754.68866,799.011,798.20514,807.0696,917.8755
1694271240.1820002,764.7619,800.2198,799.41394,811.0989,1068.5714
1694271240.1820002,759.12085,805.4579,804.65204,794.57874,803.44324
1694271240.183,738.1685,808.68134,799.81683,785.7143,589.4872
1694271240.183,732.52747,807.0696,797.8022,803.8461,782.8938
1694271240.184,740.989,812.3077,799.81683,836.08057,1227.7289
1694271240.185,733.73627,814.7253,798.20514,828.4249,1071.7949
1694271240.208,720.4396,810.293,795.78754,804.65204,746.2271
1694271240.2099998,731.31866,805.05493,798.20514,811.0989,653.95605
1694271240.211,745.0183,805.8608,799.81683,832.8571,657.98535
1694271240.212,735.34796,813.1135,801.8315,841.31866,764.7619
1694271240.2129998,739.7802,816.337,804.2491,822.7839,878.7912
1694271240.2150002,749.0476,821.1722,803.44324,788.1319,934.3956
1694271240.217,748.6447,825.2015,802.6374,770.0,707.9487
1694271240.218,759.92676,828.022,800.6227,781.685,595.9341
1694271240.219,763.1502,828.022,797.8022,799.011,794.57874
1694271240.22,765.16486,826.0073,795.78754,807.8755,1105.641
1694271240.221,774.0293,828.022,798.20514,801.02563,949.707
1694271240.2220001,767.98535,827.619,795.78754,788.5348,560.07324
1694271240.2649999,766.77655,823.9927,785.7143,789.34064,562.0879
1694271240.2659998,763.5531,828.022,783.2967,800.2198,830.4396
1694271240.268,758.315,825.2015,782.0879,799.011,913.0403
1694271240.269,763.95605,820.7692,783.2967,791.3553,742.1978
1694271240.274,762.74725,825.6044,787.72894,787.326,590.696
1694271240.275,762.3443,828.022,782.8938,784.5055,668.46155
1694271240.275,762.3443,823.1868,780.4762,796.99634,782.8938
1694271240.276,763.1502,820.7692,782.8938,809.4872,825.6044
1694271240.276,759.92676,819.9634,783.2967,805.8608,869.12085
1694271240.277,763.5531,821.1722,788.1319,806.6667,1023.44324
1694271240.278,762.74725,826.8132,786.9231,801.4286,805.8608
1694271240.278,757.50916,826.4103,784.5055,809.0842,694.65204
1694271240.33,767.98535,823.9927,780.07324,816.7399,918.68134
1694271240.331,769.59705,826.4103,774.43225,802.6374,872.74725
1694271240.332,772.01465,827.2161,775.64105,788.1319,681.3553
1694271240.333,772.8205,831.6484,776.4469,784.5055,603.1868
1694271240.333,774.83514,835.6777,776.04395,792.5641,792.5641
1694271240.334,786.9231,836.8865,782.0879,805.4579,940.4396
1694271240.335,781.685,828.022,781.28204,795.38464,888.86444
1694271240.335,761.53845,823.9927,782.0879,782.49084,693.8461
1694271240.336,758.71796,825.6044,777.6557,795.38464,761.13556
1694271240.336,765.56775,823.1868,766.77655,809.0842,827.2161
1694271240.337,751.8681,813.1135,767.5824,789.7436,825.6044
1694271240.3379998,740.18317,808.68134,772.01465,762.74725,873.1502
1694271240.369,724.0659,814.3223,767.1795,734.94507,751.06226
1694271240.37,703.91943,804.2491,763.95605,718.4249,626.55676
1694271240.371,695.4579,790.54944,761.13556,716.4103,664.43225
1694271240.372,688.60803,778.46155,757.1062,716.4103,837.28937
1694271240.373,682.96704,773.22345,762.74725,718.022,907.8022
1694271243.224,767.98535,486.337,877.5824,757.9121,627.3626
1694271243.2289999,781.28204,504.8718,878.3883,781.28204,759.5238
1694271243.23,786.52014,520.58606,878.7912,783.69965,854.21246
1694271243.231,783.2967,536.7033,875.9707,772.8205,808.2784
1694271243.231,783.69965,554.83514,876.3736,773.6264,862.27106
1694271243.232,779.67035,571.75824,873.5531,776.4469,858.24176
1694271243.233,783.2967,591.0989,871.53845,787.326,792.96704
1694271243.233,787.326,610.4396,869.12085,801.8315,893.69965
1694271243.234,784.10254,627.76556,860.2564,791.75824,1043.1868
1694271243.2350001,780.07324,638.6447,853.00366,770.80585,859.85345
1694271243.236,787.326,654.35895,849.3773,767.5824,578.60803
1694271243.2710001,792.5641,673.2967,844.5421,775.2381,704.3223
1694271243.272,794.9817,694.65204,839.707,790.9524,865.89746
1694271243.272,787.326,709.15753,830.84247,794.17584,799.41394
1694271243.273,778.0586,720.0366,826.4103,784.90845,637.8388
1694271243.274,782.0879,736.1539,824.7985,778.86444,596.7399
1694271243.274,786.1172,749.45056,819.5604,784.10254,781.685
1694271243.275,792.96704,761.9414,813.91943,792.1612,886.04395
1694271243.275,790.54944,769.59705,805.8608,774.0293,832.8571
1694271243.276,780.87915,776.4469,800.2198,764.35895,778.0586
1694271243.276,784.5055,789.7436,796.99634,767.5824,721.6484
1694271243.277,794.57874,803.8461,794.57874,777.25275,721.6484
1694271243.278,795.78754,811.0989,786.1172,785.7143,827.2161
1694271243.304,787.72894,818.7546,780.07324,779.2674,923.91943
1694271243.3049998,807.8755,847.3626,788.1319,792.96704,1077.033
1694271243.3059998,823.9927,878.7912,800.2198,804.65204,815.5311
1694271243.3059998,826.0073,892.0879,798.20514,803.8461,631.79486
1694271243.3100002,828.4249,895.31134,788.5348,814.3223,845.7509
1694271243.311,821.978,900.14655,783.69965,813.91943,918.68134
1694271243.312,830.0366,909.81683,782.0879,803.44324,789.7436
1694271243.313,832.4542,912.6374,779.2674,805.05493,682.1612
1694271243.313,828.022,910.2198,776.8498,807.47253,763.5531
1694271243.314,833.2601,916.6667,769.19415,813.5165,864.2857
1694271243.315,831.2454,919.4872,763.1502,815.9341,865.09155
1694271243.315,828.8278,921.50183,761.53845,807.0696,705.5311
1694271243.3420002,822.381,925.5311,762.74725,814.7253,837.6923
1694271243.3430002,819.15753,927.9487,765.56775,824.3956,959.3773
1694271243.344,817.5458,931.5751,767.1795,824.7985,796.1905
1694271243.344,815.5311,929.9634,769.19415,820.7692,840.10986
1694271243.345,817.5458,929.15753,768.3883,798.20514,773.6264
1694271243.345,811.0989,928.3516,764.35895,785.7143,655.9707
1694271243.346,800.6227,929.15753,759.12085,795.78754,716.0073
1694271243.346,793.7729,926.7399,755.4945,819.9634,933.5897
1694271243.3470001,799.81683,924.3223,755.89746,815.9341,1110.8792
1694271243.3470001,798.60803,928.3516,761.13556,796.1905,783.69965
1694271243.3470001,795.78754,925.9341,759.12085,787.326,489.56042
1694271243.348,804.65204,929.5604,758.71796,786.9231,662.01465
1694271243.4329998,807.8755,930.3663,756.7033,812.3077,1178.1685
1694271243.4339998,805.8608,930.7692,749.45056,814.7253,1066.9597
1694271243.4350002,800.2198,934.7985,753.47986,786.9231,708.3516
1694271243.436,792.96704,930.7692,759.92676,774.0293,610.84247
1694271243.436,786.9231,921.0989,759.12085,779.67035,528.24176
1694271243.437,786.1172,917.0696,761.53845,798.60803,738.5714
1694271243.441,783.2967,914.65204,758.315,803.0403,958.1685
1694271243.442,773.6264,912.6374,755.89746,798.60803,999.67035
1694271243.443,766.77655,915.4579,760.32965,786.1172,843.73627
1694271243.443,770.40295,911.8315,756.7033,768.3883,543.95605
1694271243.444,772.8205,914.2491,752.674,776.8498,614.0659
1694271243.445,767.98535,917.47253,753.47986,787.326,898.5348
1694271243.4540002,765.9707,916.26373,755.4945,780.07324,848.97437
1694271243.4550002,767.5824,915.8608,757.1062,765.16486,571.75824
1694271243.456,767.98535,912.6374,754.68866,761.9414,561.685
1694271243.457,781.28204,916.26373,756.30035,772.8205,795.38464
1694271243.457,780.87915,917.8755,759.5238,786.1172,880.80585
1694271243.458,769.59705,913.44324,760.32965,780.87915,835.6777
1694271243.459,767.1795,912.23444,763.1502,762.74725,749.45056
1694271243.46,770.40295,909.011,761.53845,758.315,752.674
1694271243.46,774.83514,910.6227,762.74725,776.8498,821.978
1694271243.461,776.4469,911.8315,766.3736,791.3553,851.79486
1694271243.4620001,776.4469,913.8461,764.35895,789.34064,896.52014
1694271243.463,772.8205,911.02563,763.95605,769.59705,1028.6813
1694271243.5180001,766.3736,904.57874,762.74725,752.674,752.674
1694271243.519,770.0,902.1612,763.1502,759.5238,621.31866
1694271243.52,775.2381,899.7436,767.1795,774.43225,861.06226
1694271243.521,768.7912,897.72894,769.59705,780.07324,870.7326
1694271243.5219998,762.74725,896.52014,765.56775,759.92676,653.1502
1694271243.5219998,768.7912,896.1172,765.56775,745.0183,473.84616
1694271243.523,770.40295,893.69965,767.98535,761.13556,805.4579
1694271243.524,759.92676,890.87915,768.3883,776.4469,1113.6996
1694271243.528,769.59705,888.0586,769.19415,775.64105,901.75824
1694271243.529,775.64105,886.4469,771.6117,767.98535,738.5714
1694271243.53,773.22345,884.43225,774.43225,765.9707,739.3773
1694271243.5310001,772.01465,882.4176,772.8205,771.6117,689.011
1694271243.541,776.04395,879.19415,772.01465,786.1172,738.1685
1694271243.542,781.28204,875.9707,775.2381,781.28204,889.2674
1694271243.543,778.46155,875.9707,776.4469,758.71796,837.28937
1694271243.543,772.8205,881.2088,780.07324,753.47986,629.3773
1694271243.544,771.2088,879.59705,780.87915,762.74725,571.75824
1694271243.5449998,777.25275,874.35895,776.8498,779.2674,836.08057
1694271243.5449998,778.0586,872.3443,774.83514,789.34064,1085.8975
1694271243.5459998,779.67035,872.3443,774.83514,776.4469,833.2601
1694271243.5470002,776.8498,871.53845,775.64105,764.35895,635.0183
1694271243.5470002,778.86444,867.50916,775.64105,769.59705,716.8132
1694271243.548,785.7143,867.50916,775.2381,788.5348,843.3333
1694271243.548,791.75824,868.71796,776.8498,797.8022,891.28204
1694271243.5740001,793.7729,867.1062,782.49084,781.28204,809.89014
1694271243.575,785.7143,865.89746,784.5055,762.3443,734.94507
1694271243.575,775.64105,862.27106,786.52014,768.3883,699.4872
1694271243.576,773.22345,858.24176,788.1319,788.93774,742.1978
1694271243.576,787.326,860.2564,792.5641,790.9524,845.7509
1694271243.577,791.3553,867.50916,800.2198,789.7436,1008.93774
1694271243.5779998,780.07324,869.5238,797.8022,780.4762,1173.3334
1694271243.5779998,782.49084,867.9121,796.1905,773.22345,969.0476
1694271243.579,784.10254,868.71796,798.60803,776.04395,757.50916
1694271243.58,789.7436,870.32965,801.4286,780.07324,865.09155
1694271243.584,795.38464,869.12085,803.0403,787.326,863.8828
1694271243.585,785.31134,868.315,802.23444,774.43225,693.8461
1694271243.615,780.07324,870.7326,803.44324,773.6264,607.2161
1694271243.616,791.75824,869.5238,801.8315,790.9524,807.47253
1694271243.616,793.7729,869.12085,796.1905,795.38464,904.17584
1694271243.6169999,790.54944,866.7033,794.9817,784.90845,828.8278
1694271243.6169999,790.14655,861.06226,793.36993,768.7912,660.40295
1694271243.6179998,783.2967,861.4652,789.34064,761.13556,640.65936
1694271243.6179998,780.87915,864.2857,786.9231,775.64105,747.8388
1694271243.619,780.4762,861.4652,785.31134,796.5934,810.696
1694271243.619,786.52014,858.24176,783.69965,784.90845,872.74725
1694271243.62,776.4469,857.03296,786.1172,773.22345,1019.41394
1694271243.62,771.2088,855.82416,786.52014,767.5824,805.05493
1694271243.621,776.8498,857.4359,787.326,763.5531,596.7399
1694271243.6899998,786.52014,858.6447,791.3553,778.0586,798.60803
1694271243.691,794.17584,857.8388,791.75824,779.2674,912.23444
1694271243.692,789.34064,857.8388,790.14655,753.47986,754.68866
1694271243.692,799.011,857.8388,792.1612,745.42126,561.28204
1694271243.6929998,801.02563,861.4652,792.96704,763.1502,725.6777
1694271243.6940002,790.54944,863.0769,790.14655,779.67035,923.5165
1694271243.6950002,791.3553,862.27106,788.93774,781.685,873.95605
1694271243.696,788.93774,862.674,789.34064,771.2088,702.71063
1694271243.696,779.67035,859.0476,784.10254,767.5824,758.315
1694271243.697,772.8205,856.2271,784.5055,769.19415,848.1685
1694271243.698,774.83514,858.6447,792.1612,777.6557,801.02563
1694271243.698,781.685,855.82416,794.57874,783.69965,852.6007
1694271243.733,783.69965,849.3773,795.38464,774.43225,800.2198
1694271243.7350001,790.54944,849.3773,796.1905,766.77655,643.47986
1694271243.7350001,792.96704,848.1685,794.57874,774.0293,604.7985
1694271243.736,788.1319,843.73627,796.99634,783.2967,785.7143
1694271243.737,787.326,846.55676,796.5934,770.40295,1007.72894
1694271243.738,786.1172,852.6007,792.96704,758.315,876.77655
1694271243.739,788.1319,852.6007,790.54944,751.4652,564.10254
1694271243.74,788.1319,850.18317,787.326,748.6447,675.31134
1694271243.741,792.1612,848.97437,785.7143,772.4176,1174.5421
1694271243.741,796.5934,853.8095,786.9231,781.28204,1108.0586
1694271243.742,795.78754,855.42126,784.10254,764.7619,716.8132
1694271243.743,795.38464,848.97437,786.1172,758.315,667.25275
1694271243.7649999,785.7143,840.9158,788.5348,764.7619,828.4249
1694271243.766,782.0879,839.304,784.90845,774.43225,787.326
1694271243.767,794.57874,838.0952,784.10254,781.28204,807.8755
1694271243.767,791.3553,834.4689,785.31134,768.3883,839.304
1694271243.768,796.99634,831.6484,784.90845,755.4945,699.0842
1694271243.768,804.65204,831.2454,784.5055,759.5238,630.18317
1694271243.769,794.9817,832.8571,784.10254,770.40295,743.8095
1694271243.769,786.52014,831.2454,780.87915,784.90845,1141.9048
1694271243.77,792.96704,831.2454,782.8938,795.38464,1249.8901
1694271243.77,797.8022,830.4396,788.93774,776.04395,763.95605
1694271243.77,795.78754,828.8278,788.93774,759.5238,554.0293
1694271243.7710001,796.99634,830.0366,787.326,774.83514,706.7399
1694271243.804,796.5934,830.84247,785.7143,780.87915,868.71796
1694271243.8049998,782.49084,829.2308,787.72894,774.83514,842.52747
1694271243.809,766.3736,830.4396,788.5348,763.95605,649.5238
1694271243.81,772.01465,828.4249,785.7143,746.63007,545.16486
1694271243.811,773.6264,826.8132,785.31134,757.50916,682.5641
1694271243.811,777.6557,830.0366,785.31134,778.46155,869.92676
1694271243.812,786.9231,827.2161,783.69965,782.49084,905.78754
1694271243.812,790.14655,822.381,784.10254,767.5824,893.2967
1694271243.813,784.5055,823.9927,788.1319,762.74725,643.8828
1694271243.813,784.90845,826.8132,788.93774,771.6117,599.9634
1694271243.8140001,786.52014,824.3956,786.9231,789.7436,837.28937
1694271243.8140001,778.86444,823.1868,786.9231,796.5934,1185.4213
1694271243.903,771.2088,826.0073,790.14655,768.7912,985.9707
1694271243.903,777.25275,826.4103,791.75824,749.85345,548.3883
1694271243.904,780.87915,826.8132,790.54944,760.32965,591.9048
1694271243.904,784.10254,829.6337,789.7436,784.10254,736.55676
1694271243.905,787.72894,832.8571,788.93774,791.3553,787.72894
1694271243.905,787.72894,836.8865,786.9231,768.3883,733.3333
1694271243.905,791.3553,832.4542,788.93774,759.92676,856.2271
1694271243.906,792.96704,826.4103,790.14655,770.80585,881.6117
1694271243.906,786.9231,827.619,786.52014,776.04395,788.1319
1694271243.906,778.0586,830.84247,782.8938,778.86444,865.89746
1694271243.907,781.685,833.2601,780.87915,777.6557,798.60803
1694271243.908,773.6264,832.4542,780.87915,771.2088,590.293
1694271243.9139998,766.3736,830.4396,780.4762,773.22345,583.0403
1694271243.915,777.25275,830.4396,780.07324,784.90845,751.4652
1694271243.915,780.87915,830.4396,781.28204,786.1172,960.18317
1694271243.916,774.43225,826.8132,785.31134,769.59705,818.3516
1694271243.9180002,767.98535,826.4103,784.90845,757.1062,564.90845
1694271243.9180002,768.3883,827.2161,784.90845,764.7619,662.01465
1694271243.9190001,776.04395,827.619,786.1172,779.67035,991.6117
1694271243.9190001,784.10254,832.0513,785.31134,780.87915,1039.1575
1694271243.9190001,782.0879,832.4542,786.52014,766.3736,831.6484
1694271243.92,775.2381,833.2601,788.5348,758.315,638.6447
1694271243.92,774.0293,836.08057,787.326,761.13556,649.92676
1694271243.92,783.69965,826.8132,784.90845,762.74725,811.9048
1694271243.973,792.1612,823.9927,783.69965,770.40295,862.674
1694271243.9740002,779.67035,827.619,782.0879,774.0293,914.2491
1694271243.9750001,780.07324,821.1722,782.49084,774.0293,1062.1245
1694271243.9750001,786.1172,822.381,786.1172,768.7912,725.6777
1694271243.976,785.7143,825.2015,787.72894,780.87915,637.4359
1694271243.976,788.5348,821.978,788.5348,792.5641,1033.1135
1694271243.977,783.2967,819.15753,784.10254,774.83514,1015.38464
1694271243.978,790.14655,818.7546,780.07324,755.89746,680.14655
1694271243.978,796.5934,818.7546,786.9231,763.95605,530.2564
1694271243.979,806.6667,816.7399,788.1319,784.10254,797.8022
1694271243.979,807.8755,820.7692,787.326,793.36993,928.7546
1694271243.98,808.68134,821.5751,791.3553,791.3553,809.89014
1694271244.0089998,803.8461,816.7399,795.78754,773.6264,711.5751
1694271244.01,790.9524,816.7399,799.41394,759.5238,612.8571
1694271244.0110002,782.8938,813.91943,795.38464,772.4176,664.0293
1694271244.0110002,779.2674,812.71063,790.54944,793.7729,828.022
1694271244.012,780.4762,817.5458,790.9524,800.2198,895.7143
1694271244.013,777.25275,821.5751,792.96704,786.9231,788.5348
1694271244.018,767.1795,819.15753,793.7729,773.6264,661.2088
1694271244.019,763.95605,817.5458,791.75824,774.83514,729.707
1694271244.02,774.0293,833.2601,792.96704,791.75824,958.97437
1694271244.021,780.07324,840.5128,795.78754,803.44324,1287.3627
1694271244.022,765.16486,838.49817,789.7436,782.49084,1112.4908
1694271244.022,761.13556,839.707,789.34064,756.7033,630.58606
1694271244.0470002,763.95605,836.4835,790.14655,768.3883,620.9158
1694271244.049,758.315,834.4689,786.9231,786.52014,810.696
1694271244.049,759.92676,834.4689,785.31134,776.8498,871.13556
1694271244.05,771.2088,831.2454,781.685,762.74725,792.96704
1694271244.051,763.95605,825.2015,781.28204,753.47986,636.2271
1694271244.051,765.56775,823.9927,780.07324,749.45056,624.94507
1694271244.052,763.95605,822.7839,781.685,769.19415,804.2491
1694271244.052,759.92676,820.7692,784.10254,775.2381,887.6557
1694271244.053,757.1062,819.15753,784.10254,767.98535,990.80585
1694271244.053,757.1062,821.978,785.7143,776.04395,912.6374
1694271244.0540001,767.98535,823.1868,781.28204,776.04395,606.8132
1694271244.0540001,764.35895,821.5751,780.87915,776.04395,700.696
1694271244.0819998,762.3443,823.5897,784.5055,779.2674,906.5934
1694271244.0830002,764.35895,821.978,788.1319,760.7326,790.54944
1694271244.0830002,759.12085,820.7692,787.72894,743.00366,589.0842
1694271244.084,752.674,822.7839,786.52014,753.8828,614.87177
1694271244.085,756.7033,818.7546,787.72894,771.2088,792.96704
1694271244.085,761.53845,814.7253,786.9231,783.69965,926.7399
1694271244.0860002,754.68866,811.0989,783.69965,772.8205,913.0403
1694271244.0860002,754.2857,807.47253,782.0879,760.7326,809.0842
1694271244.089,757.50916,808.2784,782.8938,763.5531,952.52747
1694271244.09,755.4945,808.68134,781.685,779.2674,882.4176
1694271244.091,759.12085,808.68134,784.5055,785.7143,783.69965
1694271244.091,751.06226,808.2784,786.1172,769.59705,836.08057
1694271244.116,734.5421,804.65204,782.0879,764.35895,859.85345
1694271244.1169999,739.3773,805.4579,777.25275,763.5531,620.9158
1694271244.1169999,741.39197,804.2491,775.2381,770.40295,593.5165
1694271244.118,741.39197,803.0403,778.0586,792.1612,867.1062
1694271244.118,747.03296,807.47253,781.28204,788.5348,889.67035
1694271244.119,750.65936,809.89014,780.4762,761.9414,695.05493
1694271244.12,751.4652,809.0842,778.46155,755.89746,626.55676
1694271244.12,755.89746,809.0842,777.6557,783.69965,957.76556
1694271244.121,753.0769,814.3223,773.6264,794.9817,1168.9011
1694271244.122,747.4359,817.1429,774.0293,776.8498,920.293
1694271244.122,749.45056,814.3223,777.25275,764.35895,699.4872
1694271244.1230001,756.7033,814.3223,776.4469,770.40295,606.8132
1694271244.185,763.5531,817.1429,778.46155,780.87915,665.64105
1694271244.1859999,765.56775,819.15753,780.87915,780.4762,844.94507
1694271244.1859999,767.1795,820.7692,777.6557,761.53845,871.53845
1694271244.187,762.74725,821.978,773.6264,745.0183,783.2967
1694271244.188,759.92676,819.15753,770.40295,745.42126,623.73627
1694271244.188,769.19415,822.7839,772.4176,755.09155,646.7033
1694271244.189,773.6264,827.2161,775.2381,779.2674,909.81683
1694271244.19,778.86444,826.0073,779.67035,799.81683,1240.2197
1694271244.192,771.2088,824.3956,782.0879,778.0586,1006.52014
1694271244.1929998,766.77655,821.5751,778.86444,759.5238,575.38464
1694271244.197,762.3443,816.7399,779.2674,775.64105,650.7326
1694271244.1980002,770.0,817.5458,783.2967,798.60803,894.10254
1694271244.2220001,779.67035,822.7839,782.8938,796.1905,881.6117
1694271244.223,776.4469,821.1722,782.49084,774.83514,740.18317
1694271244.224,775.64105,822.7839,784.90845,767.1795,617.6923
1694271244.224,767.5824,827.2161,785.31134,779.67035,640.2564
1694271244.225,769.59705,825.2015,784.10254,796.99634,823.9927
1694271244.2259998,779.2674,823.1868,781.685,795.38464,858.6447
1694271244.227,772.4176,823.9927,780.07324,785.7143,1033.1135
1694271244.227,773.22345,821.1722,780.07324,782.49084,1031.9048
1694271244.228,779.67035,823.1868,780.07324,774.0293,656.3736
1694271244.2289999,767.1795,823.9927,780.4762,782.49084,713.1868
1694271244.23,768.7912,819.5604,782.8938,796.5934,915.8608
1694271244.23,766.77655,818.7546,784.5055,791.75824,792.5641
1694271244.295,764.35895,820.7692,787.72894,773.6264,585.4579
1694271244.297,767.1795,821.1722,793.36993,768.7912,576.99634
1694271244.2979999,765.56775,821.978,792.1612,789.7436,739.3773
1694271244.2979999,765.9707,821.5751,793.7729,798.60803,851.79486
1694271244.299,767.5824,820.3663,792.5641,781.28204,819.9634
1694271244.3,762.3443,819.9634,786.9231,771.6117,835.2747
1694271244.3009999,756.7033,817.5458,786.1172,774.43225,905.78754
1694271244.302,757.1062,811.50183,784.5055,783.2967,876.77655
1694271244.303,759.5238,808.2784,784.5055,800.2198,904.9817
1694271244.304,758.315,807.0696,786.52014,795.78754,933.1868
1694271244.3049998,751.4652,805.05493,789.7436,780.4762,991.6117
1694271244.3059998,755.09155,803.8461,786.9231,775.2381,756.30035
1694271244.339,763.5531,802.6374,783.69965,790.54944,635.42126
1694271244.34,766.77655,805.4579,784.10254,800.2198,849.3773
1694271244.3409998,767.5824,805.8608,783.69965,778.86444,866.7033
1694271244.3420002,774.43225,802.6374,782.8938,767.5824,663.22345
1694271244.3420002,781.685,807.0696,782.8938,763.5531,529.45056
1694271244.3430002,785.7143,811.9048,785.31134,774.0293,748.24176
1694271244.3430002,787.326,813.91943,786.1172,782.0879,966.2271
1694271244.344,787.72894,817.5458,786.52014,777.6557,908.60803
1694271244.345,788.93774,820.3663,785.31134,770.0,691.02563
1694271244.345,776.4469,818.3516,782.49084,764.35895,852.1978
1694271244.346,772.01465,819.9634,782.0879,771.2088,974.68866
1694271244.3470001,786.52014,823.1868,783.2967,781.685,838.0952
1694271244.384,796.99634,819.9634,782.49084,788.1319,848.5714
1694271244.385,789.34064,818.3516,782.49084,779.67035,750.65936
1694271244.386,778.86444,820.7692,785.31134,763.95605,548.7912
1694271244.387,778.0586,824.3956,788.1319,774.83514,562.49084
1694271244.387,779.67035,822.381,788.93774,803.0403,756.7033
1694271244.388,778.46155,821.1722,788.5348,807.47253,879.19415
1694271244.389,774.0293,821.978,787.326,789.34064,815.9341
1694271244.39,772.8205,821.5751,785.7143,771.2088,649.92676
1694271244.39,768.3883,819.9634,784.10254,785.31134,685.38464
1694271244.391,761.53845,819.5604,782.8938,812.71063,1137.8755
1694271244.391,765.56775,819.15753,782.8938,806.26373,1126.1904
1694271244.392,760.7326,816.7399,785.31134,785.7143,748.6447
1694271244.451,768.3883,819.9634,788.5348,768.7912,670.4762
1694271244.452,784.90845,819.5604,790.54944,766.77655,685.38464
1694271244.456,778.86444,817.5458,789.34064,781.685,725.6777
1694271244.457,770.0,818.7546,787.326,783.69965,831.6484
1694271244.458,758.71796,820.3663,788.1319,774.43225,792.5641
1694271244.459,756.7033,822.7839,788.1319,766.77655,604.3956
1694271244.459,764.7619,820.3663,784.5055,760.7326,578.20514
1694271244.46,761.53845,817.5458,784.5055,770.80585,730.10986
1694271244.461,759.92676,818.7546,785.7143,775.64105,929.5604
1694271244.4620001,753.0769,818.3516,782.8938,751.8681,866.30035
1694271244.463,739.7802,814.7253,779.67035,734.5421,660.80585
1694271244.464,742.1978,814.3223,781.685,751.8681,664.43225
1694271244.5059998,740.58606,814.3223,782.8938,776.4469,1013.7729
1694271244.507,730.10986,814.7253,779.67035,779.2674,1091.9414
1694271244.508,724.87177,813.1135,778.46155,766.3736,833.663
1694271244.5089998,731.7216,813.91943,781.28204,758.71796,664.43225
1694271244.5100002,728.9011,818.3516,781.28204,758.71796,625.7509
1694271244.5110002,738.5714,820.7692,782.49084,773.22345,725.6777
1694271244.512,747.8388,820.7692,783.69965,784.90845,895.7143
1694271244.512,743.00366,816.337,782.0879,772.8205,988.3883
1694271244.513,741.39197,815.5311,778.46155,749.85345,998.0586
1694271244.514,746.2271,818.7546,775.64105,736.55676,699.89014
1694271244.515,753.0769,819.9634,780.87915,746.63007,633.4066
1694271244.515,755.4945,825.2015,790.54944,764.7619,864.68866
1694271244.516,750.2564,826.8132,789.34064,757.9121,929.5604
1694271244.517,739.3773,821.978,784.90845,743.8095,703.1135
1694271244.5180001,740.58606,820.7692,784.5055,743.4066,514.94507
1694271244.519,745.82416,817.1429,781.685,761.9414,751.8681
1694271244.5219998,746.63007,816.7399,779.67035,779.2674,1097.9854
1694271244.523,750.65936,820.3663,782.0879,770.80585,950.5128
1694271244.524,754.2857,817.1429,783.2967,758.315,714.7985
1694271244.5249999,752.27106,816.337,785.31134,755.89746,837.6923
1694271244.5249999,753.0769,819.15753,787.326,770.0,1024.249
1694271244.526,753.8828,820.7692,786.1172,778.0586,898.93774
1694271244.527,755.89746,818.3516,784.90845,773.22345,875.16486
1694271244.528,751.8681,813.91943,786.1172,766.3736,777.6557
1694271244.614,752.27106,813.5165,787.326,754.68866,562.0879
1694271244.616,756.30035,811.0989,788.93774,763.5531,584.2491
1694271244.6169999,756.30035,803.8461,790.9524,785.7143,772.01465
1694271244.6179998,753.0769,803.0403,787.72894,787.326,903.36993
1694271244.619,763.95605,806.26373,787.326,778.0586,775.2381
1694271244.62,758.71796,805.05493,787.326,766.77655,623.3333
1694271244.62,746.63007,805.8608,784.10254,759.92676,726.08057
1694271244.621,743.4066,805.05493,786.1172,779.2674,1179.3773
1694271244.6230001,743.00366,805.05493,785.7143,780.4762,1213.2234
1694271244.625,749.0476,807.47253,789.34064,760.7326,815.5311
1694271244.626,745.0183,807.0696,789.34064,752.674,650.32965
1694271244.627,740.989,805.8608,786.9231,764.7619,789.34064
1694271244.629,748.24176,807.0696,786.52014,778.0586,825.2015
1694271244.63,738.97437,805.8608,785.7143,775.2381,880.0
1694271244.631,734.94507,803.0403,785.7143,763.5531,854.21246
1694271244.632,732.1245,805.8608,785.7143,763.95605,639.0476
1694271244.633,728.49817,807.47253,784.5055,771.2088,566.1172
1694271244.6339998,736.55676,805.4579,783.69965,771.2088,813.5165
1694271244.6390002,738.5714,805.4579,784.5055,776.4469,1081.0623
1694271244.64,744.61536,805.8608,784.90845,771.2088,881.6117
1694271244.641,741.79486,804.65204,782.8938,753.47986,536.30035
1694271244.642,744.61536,808.68134,782.8938,745.0183,544.35895
1694271244.642,750.2564,810.293,779.67035,759.5238,939.6337
1694271244.6430001,746.63007,811.0989,780.07324,773.6264,1016.99634
1694271244.676,741.79486,812.71063,782.0879,763.5531,762.74725
1694271244.677,744.21246,809.0842,776.4469,754.2857,635.82416
1694271244.6790001,745.0183,807.47253,777.6557,774.0293,753.47986
1694271244.6790001,742.1978,803.8461,782.0879,784.10254,786.9231
1694271244.68,745.82416,799.011,782.49084,773.6264,784.90845
1694271244.68,744.61536,800.2198,779.2674,763.95605,867.1062
1694271244.681,736.55676,801.02563,776.4469,744.21246,879.19415
1694271244.682,738.5714,802.23444,776.4469,734.94507,694.2491
1694271244.682,753.8828,807.0696,777.25275,750.65936,688.60803
1694271244.683,755.89746,804.65204,778.86444,766.3736,906.5934
1694271244.683,755.09155,802.23444,778.86444,770.80585,1116.1172
1694271244.684,757.1062,803.0403,783.2967,753.0769,760.7326
1694271244.7089999,739.7802,798.20514,783.2967,747.03296,529.0476
1694271244.71,728.49817,798.60803,782.0879,763.1502,769.59705
1694271244.71,752.27106,800.2198,785.31134,779.2674,931.1722
1694271244.711,759.12085,799.41394,784.90845,770.80585,868.315
1694271244.712,751.8681,802.6374,785.7143,756.30035,660.80585
1694271244.712,753.47986,800.6227,786.1172,757.1062,635.82416
1694271244.7129998,755.89746,801.02563,784.90845,759.12085,778.0586
1694271244.7129998,758.71796,805.05493,786.9231,767.1795,835.2747
1694271244.717,764.7619,806.6667,791.3553,766.77655,823.5897
1694271244.7180002,757.9121,806.6667,786.52014,761.13556,886.4469
1694271244.719,755.09155,805.05493,780.4762,760.7326,706.7399
1694271244.72,756.30035,803.44324,780.07324,763.95605,564.10254
1694271244.759,753.47986,804.2491,778.0586,774.0293,751.8681
1694271244.76,758.71796,804.65204,774.83514,775.2381,866.7033
1694271244.761,749.85345,803.0403,774.0293,756.30035,757.50916
1694271244.7619998,747.03296,798.60803,774.83514,743.00366,545.56775
1694271244.763,750.2564,797.8022,774.83514,755.89746,591.50183
1694271244.763,750.65936,797.3993,776.04395,779.67035,998.0586
1694271244.764,751.8681,798.60803,775.2381,788.5348,1014.17584
1694271244.7649999,766.3736,799.81683,776.8498,782.8938,749.0476
1694271244.766,756.30035,793.7729,784.5055,766.77655,598.7546
1694271244.767,743.00366,790.54944,783.69965,770.80585,839.304
1694271244.769,759.12085,790.54944,777.6557,789.34064,924.7253
1694271244.77,767.98535,792.96704,775.2381,799.81683,847.76556
1694271244.82,770.0,795.38464,778.0586,791.3553,804.65204
1694271244.8209999,766.3736,795.78754,780.4762,785.31134,641.8681
1694271244.822,759.5238,794.9817,781.685,786.52014,529.85345
1694271244.823,760.32965,795.78754,779.67035,785.7143,669.2674
1694271244.823,756.30035,797.3993,779.2674,794.57874,867.50916
1694271244.824,753.47986,798.60803,777.6557,779.2674,814.3223
1694271244.825,747.03296,794.9817,772.01465,753.8828,645.4945
1694271244.825,743.4066,794.17584,774.43225,754.2857,612.0513
1694271244.826,748.6447,794.9817,778.0586,779.2674,931.1722
1694271244.8270001,749.85345,796.99634,778.0586,789.34064,1207.9854
1694271244.832,753.8828,800.2198,778.46155,769.59705,881.6117
1694271244.833,768.3883,799.41394,780.4762,755.89746,637.8388
1694271244.869,760.32965,796.5934,784.5055,756.7033,639.0476
1694271244.8700001,756.7033,792.96704,781.28204,779.67035,743.8095
1694271244.871,766.3736,792.96704,781.28204,793.7729,908.20514
1694271244.872,761.13556,792.96704,786.52014,783.2967,905.38464
1694271244.872,761.9414,788.93774,788.5348,772.8205,772.8205
1694271244.873,771.6117,792.96704,790.14655,769.19415,714.7985
1694271244.8739998,776.8498,791.75824,787.326,776.8498,770.0
1694271244.8739998,774.83514,781.685,782.0879,788.1319,895.7143
1694271244.875,772.4176,786.1172,784.5055,790.54944,1237.8022
1694271244.875,770.40295,794.57874,787.72894,779.67035,1094.762
1694271244.876,770.80585,796.5934,787.326,766.3736,604.7985
1694271244.876,778.86444,796.1905,790.54944,779.67035,619.707
1694271244.9020002,784.90845,797.8022,790.54944,793.7729,805.4579
1694271244.903,782.49084,798.60803,788.1319,782.8938,832.8571
1694271244.904,780.87915,800.6227,789.34064,768.3883,722.4542
1694271244.904,781.28204,802.23444,784.90845,754.68866,633.00366
1694271244.905,784.5055,800.6227,781.28204,755.4945,684.17584
1694271244.906,782.8938,800.6227,784.10254,772.01465,844.1392
1694271244.907,773.6264,800.2198,783.2967,776.4469,885.2381
1694271244.907,767.98535,800.6227,785.7143,777.6557,896.52014
1694271244.908,765.56775,803.44324,790.14655,767.1795,792.1612
1694271244.909,772.01465,805.8608,787.72894,755.4945,665.64105
1694271244.909,781.685,802.23444,789.7436,780.87915,808.2784
1694271244.91,795.38464,802.23444,796.99634,804.2491,1117.7289
1694271244.957,799.41394,807.47253,795.38464,778.46155,940.4396
1694271244.9580002,773.6264,811.50183,791.3553,750.65936,589.89014
1694271244.959,765.16486,810.696,792.1612,754.68866,652.74725
1694271244.96,781.28204,811.9048,793.7729,772.8205,1004.90845
1694271244.961,781.28204,809.0842,793.36993,777.6557,1003.2967
1694271244.961,772.01465,800.2198,790.54944,763.95605,782.49084
1694271244.962,763.1502,802.6374,788.5348,750.2564,723.663
1694271244.963,766.3736,805.05493,787.72894,760.7326,732.9304
1694271244.964,770.80585,803.0403,786.1172,770.80585,787.326
1694271244.966,777.6557,805.4579,788.93774,772.4176,833.2601
1694271244.966,776.8498,803.0403,790.14655,761.9414,837.28937
1694271244.967,764.7619,800.2198,784.10254,758.71796,982.3443
1694271245.022,767.98535,805.05493,786.9231,759.92676,810.696
1694271245.023,778.0586,809.89014,788.1319,751.8681,699.4872
1694271245.024,776.04395,810.293,786.52014,759.5238,926.337
1694271245.0259998,772.01465,806.26373,788.1319,755.89746,870.32965
1694271245.027,767.5824,801.8315,789.34064,739.7802,609.2308
1694271245.028,766.3736,803.8461,790.54944,742.1978,537.9121
1694271245.0300002,773.22345,806.26373,788.5348,767.5824,864.68866
1694271245.0310001,777.6557,803.0403,787.326,787.326,1095.5677
1694271245.032,770.40295,802.23444,787.72894,775.2381,830.4396
1694271245.032,769.19415,806.26373,786.1172,762.74725,618.9011
1694271245.033,770.40295,807.47253,786.9231,770.80585,625.34796
1694271245.034,774.0293,807.8755,787.72894,776.04395,726.4835
1694271245.064,782.0879,811.9048,789.7436,771.2088,801.8315
1694271245.0649998,780.87915,816.7399,787.72894,765.56775,804.65204
1694271245.071,781.685,812.71063,784.10254,754.68866,734.5421
1694271245.071,775.2381,809.4872,785.31134,758.71796,604.3956
1694271245.072,764.7619,811.0989,784.90845,768.7912,693.8461
1694271245.073,768.7912,814.3223,785.7143,777.25275,944.87177
1694271245.074,771.2088,813.5165,792.1612,789.34064,1293.8096
1694271245.075,766.3736,805.4579,788.5348,771.2088,991.6117
1694271245.075,760.32965,803.44324,787.72894,755.09155,519.7802
1694271245.076,760.7326,809.0842,795.78754,763.95605,639.85345
1694271245.077,769.59705,810.696,796.5934,774.43225,874.35895
1694271245.078,764.35895,809.4872,794.57874,770.80585,840.9158
1694271245.08,757.1062,809.0842,791.3553,761.53845,684.17584
1694271245.0809999,755.09155,809.89014,787.72894,763.95605,697.47253
1694271245.0819998,754.68866,812.3077,787.326,780.4762,828.022
1694271245.0830002,755.4945,812.71063,788.93774,793.7729,841.7216
1694271245.0830002,759.5238,812.71063,788.1319,786.52014,862.27106
1694271245.084,752.674,810.293,786.9231,770.0,865.89746
1694271245.085,745.42126,808.2784,786.9231,754.2857,752.27106
1694271245.085,747.4359,807.47253,784.90845,757.50916,665.2381
1694271245.0860002,754.68866,809.89014,786.1172,782.0879,777.6557
1694271245.0870001,762.3443,814.3223,788.5348,799.011,1088.7179
1694271245.0870001,758.315,810.293,790.54944,786.1172,1048.4249
1694271245.088,752.674,810.696,795.38464,766.3736,633.00366
1694271245.118,755.4945,811.0989,797.8022,767.1795,579.41394
1694271245.119,757.9121,807.0696,796.5934,789.34064,766.3736
1694271245.12,764.35895,806.26373,794.17584,794.57874,824.7985
1694271245.12,769.19415,807.0696,788.5348,765.56775,696.6667
1694271245.125,763.95605,805.8608,787.72894,743.4066,555.64105
1694271245.125,769.19415,808.2784,792.96704,745.82416,591.9048
1694271245.1260002,786.9231,813.1135,791.3553,759.5238,812.71063
1694271245.127,790.9524,812.3077,792.96704,774.43225,978.315
1694271245.127,784.10254,813.91943,799.011,780.07324,867.50916
1694271245.128,780.07324,814.7253,796.5934,783.69965,1013.7729
1694271245.129,780.87915,817.1429,796.99634,789.7436,1008.1319
1694271245.129,782.0879,815.5311,800.2198,787.326,727.6923
1694271245.156,782.49084,812.71063,798.60803,790.54944,818.7546
1694271245.1569998,782.0879,812.3077,795.38464,774.83514,850.989
1694271245.1569998,779.2674,812.71063,792.5641,751.8681,636.63007
1694271245.1580002,776.8498,815.9341,794.57874,757.50916,549.19415
1694271245.1580002,774.83514,815.5311,796.5934,782.0879,734.94507
1694271245.1590002,770.80585,815.5311,794.17584,794.17584,921.0989
1694271245.16,775.64105,815.9341,792.96704,778.0586,896.52014
1694271245.16,772.8205,811.50183,792.5641,765.16486,705.5311
1694271245.161,759.92676,805.05493,789.34064,773.6264,782.49084
1694271245.161,778.86444,810.696,784.90845,796.1905,912.23444
1694271245.162,792.1612,816.337,789.34064,819.5604,855.42126
1694271245.162,778.0586,813.91943,795.38464,796.99634,873.1502
1694271245.219,770.80585,811.9048,795.78754,766.3736,773.22345
1694271245.22,770.80585,809.89014,792.5641,754.2857,619.304
1694271245.22,767.98535,810.696,788.93774,754.2857,666.4469
1694271245.221,773.6264,813.91943,792.1612,763.95605,869.5238
1694271245.221,777.25275,814.3223,793.7729,769.19415,1036.337
1694271245.2220001,773.6264,813.1135,792.96704,754.2857,785.31134
1694271245.2259998,781.28204,812.3077,792.5641,751.4652,573.7729
1694271245.227,793.36993,811.9048,791.75824,766.3736,695.8608
1694271245.227,799.011,809.4872,793.7729,793.36993,1183.0037
1694271245.228,818.7546,813.91943,795.78754,811.0989,1180.989
1694271245.2289999,835.2747,822.381,795.38464,780.4762,680.54944
1694271245.2289999,823.9927,826.0073,790.9524,754.2857,511.72162
1694271245.252,807.8755,827.2161,792.1612,763.95605,610.0366
1694271245.253,803.8461,824.7985,790.14655,778.46155,750.2564
1694271245.253,792.96704,820.3663,782.8938,780.4762,844.1392
1694271245.2540002,783.2967,819.5604,778.0586,767.1795,841.7216
1694271245.255,782.49084,820.3663,782.0879,758.315,668.46155
1694271245.255,777.6557,815.5311,783.2967,767.5824,676.9231
1694271245.256,781.685,812.71063,780.4762,774.43225,849.7802
1694271245.256,778.86444,811.50183,782.8938,777.25275,1063.3334
1694271245.257,763.95605,812.71063,784.90845,765.56775,1011.75824
1694271245.258,755.89746,817.1429,781.28204,738.97437,625.7509
1694271245.258,769.59705,817.1429,782.0879,733.3333,601.5751
1694271245.259,779.2674,818.7546,784.5055,755.4945,812.71063
1694271245.2870002,768.7912,815.5311,783.69965,766.3736,886.04395
1694271245.288,773.22345,813.1135,779.67035,751.4652,759.5238
1694271245.289,775.2381,814.7253,777.6557,745.0183,602.381
1694271245.29,772.8205,814.7253,781.28204,760.7326,596.337
1694271245.29,781.28204,811.0989,781.685,780.4762,764.35895
1694271245.2910001,789.34064,811.0989,785.7143,789.34064,904.9817
1694271245.292,781.685,810.696,788.5348,784.5055,885.2381
1694271245.292,773.6264,810.293,784.5055,767.5824,1049.2307
1694271245.297,771.6117,809.4872,782.49084,760.32965,901.75824
1694271245.297,760.32965,805.05493,780.4762,772.01465,683.7729
1694271245.2979999,760.7326,805.4579,781.28204,781.28204,856.2271
1694271245.299,761.9414,809.4872,784.10254,774.0293,942.4542
1694271245.356,753.8828,810.696,780.87915,757.9121,664.0293
1694271245.358,759.5238,810.293,780.4762,752.674,551.6117
1694271245.358,772.01465,810.696,782.49084,767.98535,736.9597
1694271245.359,777.6557,812.71063,783.69965,780.07324,900.54944
1694271245.359,767.5824,815.9341,782.49084,768.7912,827.2161
1694271245.36,771.2088,816.7399,782.8938,747.8388,673.69965
1694271245.36,770.0,813.1135,780.07324,741.39197,850.989
1694271245.3609998,754.2857,808.68134,776.4469,764.7619,973.47986
1694271245.362,751.8681,808.68134,776.8498,769.59705,866.7033
1694271245.362,754.2857,806.6667,774.43225,753.0769,864.68866
1694271245.3630002,755.09155,802.23444,774.43225,748.6447,838.49817
1694271245.3630002,757.50916,800.6227,777.25275,745.42126,676.52014
1694271245.424,747.8388,805.05493,780.87915,753.8828,661.2088
1694271245.4259999,745.82416,809.0842,784.90845,767.98535,824.3956
1694271245.427,751.8681,806.6667,782.49084,761.9414,859.0476
1694271245.428,754.2857,806.26373,780.87915,754.68866,699.4872
1694271245.429,762.74725,807.47253,783.69965,750.65936,541.9414
1694271245.43,769.59705,805.8608,786.52014,761.53845,644.2857
1694271245.431,784.5055,811.50183,785.31134,783.69965,991.6117
1694271245.431,783.69965,812.3077,784.5055,778.86444,1054.0659
1694271245.432,760.7326,805.8608,788.93774,746.63007,786.52014
1694271245.4329998,757.50916,803.44324,789.34064,730.9158,606.0073
1694271245.437,777.25275,802.6374,790.14655,756.30035,1016.1905
1694271245.4380002,781.28204,803.44324,790.9524,778.86444,1112.8938
1694271245.4620001,770.80585,808.68134,787.326,775.2381,826.0073
1694271245.463,764.7619,807.8755,785.7143,760.32965,736.9597
1694271245.464,768.7912,807.0696,785.7143,745.0183,597.9487
1694271245.465,763.5531,807.47253,784.5055,743.8095,554.83514
1694271245.4659998,761.9414,809.89014,784.10254,759.12085,759.12085
1694271245.4659998,765.9707,809.89014,784.5055,769.19415,1033.9194
1694271245.467,753.8828,804.65204,786.52014,756.7033,890.07324
1694271245.467,753.8828,802.6374,788.1319,745.42126,545.9707
1694271245.468,759.92676,800.6227,783.2967,753.0769,583.44324
1694271245.4689999,761.53845,798.20514,780.87915,768.7912,927.5458
1694271245.47,768.3883,800.6227,786.52014,774.83514,986.3736
1694271245.47,768.3883,803.0403,789.7436,764.35895,755.4945
1694271245.52,760.32965,801.4286,787.326,756.7033,643.47986
1694271245.521,761.13556,801.02563,786.1172,761.9414,941.2454
1694271245.5219998,765.56775,798.20514,784.90845,778.46155,996.8498
1694271245.5219998,770.0,795.38464,784.5055,784.90845,863.8828
1694271245.523,779.2674,796.5934,787.72894,774.83514,811.9048
1694271245.524,783.69965,798.60803,791.75824,753.8828,699.4872
1694271245.524,781.685,799.011,794.17584,751.06226,711.5751
1694271245.5249999,788.93774,799.011,798.60803,774.83514,815.9341
1694271245.5249999,792.5641,796.1905,794.57874,790.14655,955.34796
1694271245.526,784.90845,792.5641,789.7436,784.10254,1169.7069
1694271245.527,776.04395,796.5934,790.54944,765.9707,913.8461
1694271245.527,777.6557,799.41394,788.93774,752.674,587.8755
1694271245.553,786.52014,798.20514,788.93774,771.2088,727.6923
1694271245.554,793.7729,798.60803,787.326,786.9231,870.32965
1694271245.555,796.1905,799.41394,784.90845,782.8938,792.96704
1694271245.555,781.685,796.5934,781.685,764.7619,628.97437
1694271245.556,775.64105,796.99634,785.31134,760.32965,742.6007
1694271245.556,787.326,801.8315,790.9524,780.4762,829.6337
1694271245.557,785.7143,802.6374,792.5641,790.14655,866.30035
1694271245.558,780.4762,796.5934,792.5641,777.6557,906.1905
1694271245.558,778.46155,792.1612,792.96704,769.59705,892.8938
1694271245.559,774.83514,796.1905,795.78754,772.4176,777.6557
1694271245.56,781.28204,798.60803,796.5934,787.326,670.07324
1694271245.56,785.31134,796.99634,794.57874,798.60803,844.94507
1694271245.61,786.1172,796.5934,795.78754,793.7729,1060.1099
1694271245.611,787.326,799.41394,795.38464,773.6264,804.65204
1694271245.612,790.54944,797.3993,794.9817,763.5531,536.7033
1694271245.612,799.011,796.1905,797.8022,780.87915,663.22345
1694271245.613,811.9048,800.2198,797.8022,792.96704,874.7619
1694271245.614,811.9048,802.23444,798.20514,798.20514,942.0513
1694271245.615,805.4579,805.4579,799.41394,784.5055,810.293
1694271245.615,811.50183,807.0696,796.99634,770.80585,693.44324
1694271245.616,811.50183,800.2198,794.57874,791.75824,1067.7656
1694271245.6169999,813.1135,796.1905,794.9817,813.1135,1275.2748
1694271245.6169999,816.337,795.38464,792.96704,799.81683,910.6227
1694271245.6179998,818.7546,793.36993,786.1172,761.9414,736.55676
1694271245.655,809.0842,792.5641,784.5055,750.2564,597.9487
1694271245.656,805.8608,797.3993,784.90845,770.80585,541.53845
1694271245.6620002,815.9341,805.4579,786.9231,782.49084,710.3663
1694271245.663,815.9341,806.26373,787.326,781.28204,901.3553
1694271245.663,804.2491,799.81683,790.9524,769.59705,810.696
1694271245.664,797.8022,791.75824,794.9817,758.315,638.6447
1694271245.665,807.47253,791.75824,789.7436,771.6117,656.3736
1694271245.666,821.5751,803.0403,784.5055,789.34064,938.8278
1694271245.666,813.91943,810.696,782.8938,785.7143,1078.6447
1694271245.667,807.47253,804.65204,788.5348,772.8205,773.22345
1694271245.668,817.5458,800.2198,793.36993,767.1795,579.011
1694271245.669,832.8571,804.2491,790.54944,774.43225,664.83514
1694271245.707,844.1392,805.4579,789.7436,797.3993,805.05493
1694271245.7089999,840.5128,804.2491,790.9524,799.81683,865.09155
1694271245.7089999,834.0659,805.4579,792.5641,786.9231,830.0366
1694271245.71,829.2308,805.8608,791.3553,773.22345,736.1539
1694271245.711,827.619,802.6374,788.93774,756.30035,594.7253
1694271245.712,831.2454,803.44324,791.3553,772.8205,676.52014
1694271245.7129998,825.6044,803.0403,790.54944,787.326,889.67035
1694271245.7150002,823.9927,801.4286,789.34064,789.34064,1158.8279
1694271245.716,823.1868,801.8315,787.72894,777.6557,941.2454
1694271245.717,826.8132,804.2491,787.72894,761.53845,540.7326
1694271245.7180002,825.6044,806.26373,790.54944,772.01465,667.25275
1694271245.719,812.71063,804.2491,788.1319,789.34064,917.47253
1694271245.747,808.2784,804.2491,788.5348,786.9231,926.7399
1694271245.748,815.12823,803.44324,789.34064,771.2088,657.1795
1694271245.7510002,817.1429,799.011,784.5055,776.4469,594.7253
1694271245.753,817.5458,797.3993,784.10254,788.5348,736.9597
1694271245.759,822.381,799.011,788.5348,799.81683,838.49817
1694271245.76,818.3516,799.41394,792.96704,797.8022,859.0476
1694271245.761,815.12823,799.41394,793.36993,783.2967,923.91943
1694271245.7619998,808.68134,800.2198,788.93774,775.2381,875.9707
1694271245.763,810.696,801.4286,784.90845,772.8205,662.8205
1694271245.764,814.3223,801.02563,781.685,788.93774,817.1429
1694271245.764,797.8022,795.78754,783.69965,784.5055,986.77655
1694271245.7649999,799.011,796.5934,785.7143,765.9707,751.4652
1694271245.798,806.6667,800.2198,784.90845,765.9707,527.03296
1694271245.799,804.65204,791.3553,785.31134,784.5055,639.85345
1694271245.8,802.6374,784.10254,788.1319,789.7436,919.89014
1694271245.8009999,796.5934,784.5055,788.93774,781.685,942.8571
1694271245.8009999,799.41394,787.72894,788.1319,772.4176,740.58606
1694271245.8019998,808.68134,786.1172,787.72894,764.35895,669.67035
1694271245.803,805.8608,772.01465,787.72894,777.6557,1067.7656
1694271245.803,802.6374,765.9707,787.72894,786.9231,1187.4359
1694271245.804,806.6667,761.9414,782.8938,765.16486,881.2088
1694271245.804,797.8022,755.4945,776.04395,736.9597,762.3443
1694271245.8049998,789.34064,757.1062,771.6117,730.9158,822.381
1694271245.8049998,796.99634,759.5238,771.6117,736.1539,664.83514
1694271245.8860002,794.9817,761.9414,770.0,749.0476,721.6484
1694271245.887,795.38464,764.7619,770.40295,755.4945,859.85345
1694271245.888,793.36993,763.1502,770.0,746.2271,734.5421
1694271245.889,783.69965,767.5824,771.6117,735.7509,543.1502
1694271245.8899999,792.5641,774.0293,775.64105,751.06226,541.53845
1694271245.891,794.57874,773.22345,778.0586,770.80585,877.5824
1694271245.895,796.1905,775.2381,781.28204,777.6557,1022.23444
1694271245.895,794.9817,776.4469,780.87915,766.3736,839.304
1694271245.896,792.96704,775.2381,778.46155,742.1978,620.9158
1694271245.8969998,791.75824,777.6557,780.4762,755.89746,765.16486
1694271245.8969998,785.7143,780.4762,787.72894,790.14655,1064.9451
1694271245.8979998,790.54944,781.28204,790.14655,786.1172,891.28204
1694271245.905,803.0403,782.49084,786.9231,769.19415,710.7692
1694271245.906,804.65204,780.87915,784.10254,754.68866,593.91943
1694271245.907,800.2198,778.0586,784.10254,757.9121,506.0806
1694271245.907,809.89014,779.67035,784.90845,778.0586,624.1392
1694271245.908,822.7839,781.685,787.326,784.90845,862.674
1694271245.908,821.1722,783.69965,787.326,777.6557,965.0183
1694271245.909,815.5311,781.685,784.10254,763.1502,743.8095
1694271245.91,825.2015,785.7143,787.326,759.12085,564.90845
1694271245.91,842.9304,791.75824,788.1319,780.87915,765.56775
1694271245.911,846.9597,792.96704,787.72894,796.5934,1139.8901
1694271245.912,837.6923,795.38464,785.31134,773.22345,931.978
1694271245.912,838.49817,796.1905,785.7143,754.68866,606.0073
1694271245.952,836.8865,793.7729,788.1319,751.4652,606.4103
1694271245.952,831.6484,796.1905,784.5055,751.8681,730.10986
1694271245.9529998,833.663,794.9817,783.2967,765.9707,873.5531
1694271245.9539998,833.2601,794.9817,786.52014,768.3883,857.03296
1694271245.9539998,831.2454,797.3993,783.69965,753.0769,887.6557
1694271245.9550002,834.0659,794.9817,781.685,753.47986,1122.5641
1694271245.9550002,835.2747,796.5934,783.69965,762.74725,960.989
1694271245.956,841.7216,795.78754,784.90845,767.98535,839.707
1694271245.96,845.34796,797.3993,787.326,775.64105,1023.0403
1694271245.96,835.2747,803.8461,786.9231,760.7326,824.7985
1694271245.961,829.6337,805.05493,785.7143,749.0476,572.96704
1694271245.961,827.619,801.8315,790.54944,765.56775,657.5824
1694271246.0019999,834.4689,799.011,788.5348,791.75824,935.2015
1694271246.003,842.52747,801.8315,782.0879,782.8938,959.3773
1694271246.003,838.0952,803.44324,780.87915,747.4359,716.0073
1694271246.004,834.4689,801.8315,782.8938,747.4359,552.4176
1694271246.004,838.9011,803.44324,781.685,768.7912,630.58606
1694271246.0049999,840.10986,806.6667,783.2967,780.4762,832.8571
1694271246.006,838.0952,807.8755,784.5055,780.07324,879.59705
