timestamp,RAW_TP9,RAW_AF7,RAW_AF8,RAW_TP10,AUX_RIGHT
1694130828.0300002,776.4469,792.5641,792.96704,789.7436,824.3956
1694130828.0310001,783.2967,797.8022,786.1172,778.0586,720.0366
1694130828.0310001,791.75824,801.02563,792.1612,779.2674,617.6923
1694130828.032,796.99634,799.41394,798.20514,799.81683,685.78754
1694130828.032,784.90845,796.99634,783.69965,806.26373,889.2674
1694130828.032,781.28204,793.36993,776.4469,788.93774,840.9158
1694130828.033,799.81683,792.96704,798.20514,782.49084,695.8608
1694130828.033,780.4762,788.1319,798.60803,796.99634,721.2454
1694130828.033,783.2967,784.10254,782.49084,812.71063,992.01465
1694130828.034,809.0842,802.23444,808.2784,811.9048,839.707
1694130828.034,787.326,801.8315,811.0989,796.1905,629.3773
1694130828.035,779.2674,786.52014,785.31134,777.25275,701.50183
1694130828.068,788.5348,797.3993,793.36993,788.5348,711.5751
1694130828.069,787.326,805.8608,807.47253,796.99634,695.05493
1694130828.069,779.2674,798.20514,793.36993,800.6227,723.2601
1694130828.0700002,777.25275,793.36993,778.0586,791.75824,815.12823
1694130828.074,780.87915,790.9524,789.34064,786.1172,796.99634
1694130828.075,786.52014,792.96704,800.6227,797.8022,733.73627
1694130828.076,794.9817,803.0403,801.4286,797.8022,794.57874
1694130828.077,809.0842,807.47253,801.02563,805.05493,1036.337
1694130828.078,806.26373,803.0403,792.96704,825.6044,1260.3663
1694130828.078,791.75824,799.81683,784.10254,813.1135,933.9927
1694130828.079,795.78754,809.89014,794.9817,802.23444,657.98535
1694130828.08,808.2784,813.5165,805.8608,803.0403,678.5348
1694130828.119,800.6227,805.8608,793.7729,809.89014,701.0989
1694130828.12,792.1612,801.4286,791.75824,806.26373,743.00366
1694130828.12,794.17584,792.5641,791.75824,801.02563,751.06226
1694130828.121,799.011,795.38464,791.75824,804.65204,762.3443
1694130828.121,792.96704,801.4286,800.2198,801.4286,757.1062
1694130828.122,790.14655,807.8755,794.9817,800.6227,761.9414
1694130828.122,803.0403,812.71063,798.60803,802.23444,877.98535
1694130828.122,788.93774,807.47253,798.20514,801.02563,1253.1135
1694130828.1230001,785.7143,805.05493,793.36993,802.23444,1002.8938
1694130828.1230001,792.1612,804.2491,791.75824,817.5458,583.0403
1694130828.1230001,784.10254,792.5641,789.34064,816.337,666.04395
1694130828.124,793.36993,780.87915,796.5934,797.3993,720.84247
1694130828.152,805.8608,780.87915,804.65204,801.4286,672.0879
1694130828.1529999,801.02563,792.1612,797.8022,809.0842,654.7619
1694130828.1539998,797.3993,809.4872,797.8022,817.5458,701.50183
1694130828.1539998,786.1172,808.2784,784.10254,804.2491,726.08057
1694130828.155,780.4762,803.44324,768.7912,790.14655,734.94507
1694130828.156,782.0879,803.0403,793.36993,793.7729,720.84247
1694130828.1590002,778.46155,796.99634,801.8315,790.14655,1029.4872
1694130828.16,788.1319,786.9231,794.17584,799.011,1262.7839
1694130828.16,796.5934,792.96704,796.99634,803.44324,829.2308
1694130828.16,778.46155,789.7436,794.57874,804.65204,705.9341
1694130828.161,791.3553,779.67035,784.5055,817.5458,965.0183
1694130828.161,811.9048,804.65204,794.17584,827.619,819.5604
1694130828.2129998,795.78754,798.20514,793.36993,806.26373,605.6044
1694130828.2129998,772.8205,779.2674,784.10254,780.07324,634.21246
1694130828.2140002,775.64105,790.54944,786.9231,788.1319,717.619
1694130828.2140002,784.90845,788.1319,784.5055,788.93774,730.5128
1694130828.2150002,791.3553,787.72894,792.5641,779.67035,656.3736
1694130828.2150002,786.9231,790.54944,797.8022,789.34064,774.83514
1694130828.216,786.1172,790.54944,790.54944,793.7729,1003.69965
1694130828.216,790.9524,797.3993,784.90845,787.72894,882.4176
1694130828.217,795.38464,805.4579,791.3553,790.9524,716.4103
1694130828.217,810.293,793.7729,796.5934,797.8022,744.21246
1694130828.218,816.337,790.9524,795.38464,805.4579,841.7216
1694130828.218,790.9524,799.81683,788.1319,805.4579,707.9487
1694130828.245,779.2674,805.05493,790.54944,805.8608,684.17584
1694130828.246,793.7729,806.26373,805.4579,808.68134,786.9231
1694130828.247,792.1612,795.78754,801.8315,792.5641,796.5934
1694130828.248,785.7143,786.52014,790.14655,788.93774,662.8205
1694130828.248,781.685,787.72894,791.75824,802.23444,635.0183
1694130828.2489998,796.99634,794.17584,801.02563,804.2491,839.304
1694130828.2489998,801.8315,796.1905,798.20514,811.50183,865.4945
1694130828.2499998,782.49084,788.5348,782.0879,805.05493,830.4396
1694130828.252,786.9231,790.9524,780.07324,796.99634,737.3626
1694130828.253,793.7729,800.6227,784.10254,818.7546,917.47253
1694130828.253,799.011,791.3553,782.49084,823.5897,1135.8608
1694130828.2540002,811.9048,794.9817,796.99634,805.8608,823.5897
1694130828.292,806.6667,813.5165,807.0696,802.23444,672.49084
1694130828.293,795.38464,802.6374,798.60803,794.9817,653.95605
1694130828.293,792.1612,787.72894,792.5641,787.326,636.63007
1694130828.2940001,791.75824,794.17584,788.93774,789.7436,641.4652
1694130828.295,788.1319,795.78754,785.31134,795.78754,675.7143
1694130828.295,790.14655,796.5934,790.14655,809.4872,920.696
1694130828.296,800.2198,801.8315,788.1319,804.2491,848.97437
1694130828.297,805.4579,811.50183,786.1172,799.41394,662.01465
1694130828.297,800.6227,813.5165,800.2198,811.0989,684.17584
1694130828.2979999,799.81683,805.8608,800.2198,827.2161,757.9121
1694130828.299,814.7253,796.99634,791.3553,823.1868,757.1062
1694130828.3,817.5458,791.75824,796.99634,804.65204,709.15753
1694130828.3379998,810.696,790.54944,792.96704,795.78754,747.03296
1694130828.3379998,797.8022,796.5934,783.69965,797.8022,826.4103
1694130828.339,781.685,801.8315,784.5055,801.4286,759.12085
1694130828.34,786.1172,797.8022,792.5641,804.65204,713.5897
1694130828.34,788.1319,795.38464,793.7729,791.3553,824.3956
1694130828.3409998,775.2381,788.93774,779.67035,780.87915,823.5897
1694130828.3420002,784.10254,794.17584,776.8498,790.9524,779.2674
1694130828.3420002,790.54944,801.8315,778.46155,793.7729,830.84247
1694130828.3430002,782.49084,801.4286,799.41394,802.6374,1102.4176
1694130828.344,785.7143,801.8315,805.05493,817.5458,1268.022
1694130828.3470001,790.54944,796.5934,790.54944,802.6374,866.7033
1694130828.3470001,786.1172,795.78754,794.17584,792.1612,635.42126
1694130828.391,784.90845,794.9817,794.57874,793.7729,734.1392
1694130828.391,795.78754,799.011,793.36993,801.4286,760.32965
1694130828.392,799.011,783.69965,796.99634,805.8608,732.1245
1694130828.392,784.5055,772.01465,790.9524,803.0403,695.8608
1694130828.393,776.8498,798.20514,786.9231,789.7436,694.65204
1694130828.393,781.685,803.8461,788.93774,792.1612,815.9341
1694130828.3939998,783.2967,799.81683,780.07324,803.44324,857.4359
1694130828.3939998,779.67035,797.3993,776.8498,792.5641,806.26373
1694130828.395,794.17584,793.36993,785.31134,801.8315,1050.0366
1694130828.395,801.4286,802.6374,787.326,813.5165,893.2967
1694130828.396,780.4762,798.60803,793.7729,794.57874,650.32965
1694130828.396,788.1319,787.72894,801.8315,784.90845,759.12085
1694130828.443,786.1172,794.17584,797.3993,776.04395,757.50916
1694130828.444,786.9231,800.6227,805.05493,785.31134,658.7912
1694130828.444,802.23444,803.0403,809.0842,786.9231,623.3333
1694130828.445,786.1172,801.8315,790.14655,783.69965,665.64105
1694130828.447,782.0879,801.02563,790.9524,790.14655,765.9707
1694130828.448,784.90845,804.65204,794.57874,799.81683,807.47253
1694130828.448,807.8755,796.1905,781.28204,814.7253,763.95605
1694130828.449,827.2161,799.011,780.07324,815.5311,868.315
1694130828.4499998,819.15753,806.26373,784.90845,807.47253,767.5824
1694130828.451,786.9231,805.4579,789.7436,788.5348,655.9707
1694130828.451,780.4762,803.0403,800.2198,794.9817,755.4945
1694130828.452,793.36993,790.14655,803.8461,809.0842,1020.2198
1694130828.4950001,799.011,784.5055,803.0403,813.1135,1166.4835
1694130828.496,797.3993,803.44324,795.38464,815.5311,873.5531
1694130828.496,791.75824,809.89014,786.9231,805.8608,706.7399
1694130828.496,784.90845,798.20514,785.31134,808.2784,770.40295
1694130828.497,776.8498,797.8022,801.4286,815.5311,737.76556
1694130828.497,773.6264,794.9817,802.23444,802.23444,691.4286
1694130828.497,773.6264,786.1172,790.54944,804.2491,839.304
1694130828.498,773.6264,786.9231,790.14655,815.9341,1058.0952
1694130828.498,784.90845,796.1905,796.99634,806.6667,873.1502
1694130828.498,780.87915,801.8315,794.17584,801.8315,713.9927
1694130828.499,775.2381,804.65204,791.3553,807.0696,744.61536
1694130828.499,782.8938,799.81683,792.1612,795.38464,718.022
1694130828.5,780.87915,800.2198,794.17584,780.87915,753.47986
1694130828.5,786.9231,792.1612,792.96704,793.7729,807.0696
1694130828.5,814.7253,802.23444,798.60803,814.7253,811.9048
1694130828.501,793.36993,809.0842,786.52014,800.2198,738.1685
1694130828.501,759.12085,783.2967,780.07324,782.8938,691.8315
1694130828.501,762.3443,773.6264,801.4286,790.9524,744.21246
1694130828.502,776.04395,788.1319,803.0403,798.60803,983.95605
1694130828.502,785.7143,805.8608,797.8022,807.47253,1149.1575
1694130828.502,784.5055,809.4872,791.3553,800.2198,735.7509
1694130828.502,788.5348,790.54944,796.1905,804.65204,612.0513
1694130828.503,794.17584,782.0879,802.6374,812.71063,863.47986
1694130828.503,787.326,796.1905,798.60803,793.7729,829.6337
1694130828.5609999,777.6557,799.011,798.60803,789.7436,677.326
1694130828.5619998,788.5348,799.81683,799.81683,790.14655,630.58606
1694130828.5649998,805.8608,807.47253,794.9817,786.52014,660.0
1694130828.5649998,796.5934,809.89014,794.57874,788.5348,714.3956
1694130828.5660002,796.5934,817.9487,796.5934,791.3553,711.978
1694130828.5660002,795.38464,811.50183,787.72894,801.4286,769.59705
1694130828.5670002,780.87915,795.38464,782.8938,807.47253,1097.1794
1694130828.5670002,782.0879,799.41394,797.8022,805.05493,980.32965
1694130828.5670002,802.23444,805.4579,811.0989,812.3077,694.2491
1694130828.568,811.9048,797.8022,801.02563,799.011,737.76556
1694130828.568,783.2967,791.3553,792.96704,792.5641,774.43225
1694130828.569,782.49084,795.78754,784.90845,787.72894,724.0659
1694130828.611,790.9524,809.89014,778.46155,774.43225,660.80585
1694130828.612,782.0879,806.6667,776.8498,786.1172,699.89014
1694130828.612,790.14655,797.8022,781.685,788.93774,756.30035
1694130828.613,797.8022,800.6227,788.5348,790.14655,712.7839
1694130828.613,792.96704,796.5934,784.90845,792.5641,708.3516
1694130828.614,799.41394,796.99634,794.9817,803.0403,882.4176
1694130828.614,791.75824,801.8315,802.23444,811.9048,894.5055
1694130828.615,778.46155,800.6227,794.57874,803.0403,806.6667
1694130828.615,780.4762,792.5641,785.31134,786.1172,829.6337
1694130828.615,776.4469,793.36993,782.49084,789.34064,1037.5458
1694130828.616,781.28204,789.7436,775.64105,793.36993,1170.1099
1694130828.616,798.20514,788.1319,781.685,780.87915,761.53845
1694130828.649,799.81683,799.011,797.3993,782.49084,648.315
1694130828.6499999,805.8608,817.9487,817.1429,816.7399,875.56775
1694130828.651,811.9048,817.5458,803.8461,810.293,755.09155
1694130828.767,797.3993,807.0696,790.54944,790.9524,772.01465
1694130828.7710001,791.3553,804.2491,793.7729,796.1905,770.0
1694130828.772,784.10254,801.4286,796.5934,810.293,793.7729
1694130828.773,786.9231,796.99634,796.5934,810.696,1030.2931
1694130828.773,786.9231,798.60803,801.8315,797.3993,886.8498
1694130828.7740002,784.10254,796.99634,805.8608,796.5934,622.52747
1694130828.7740002,783.69965,796.99634,805.05493,810.696,652.3443
1694130828.8060002,796.99634,799.41394,798.60803,816.7399,714.3956
1694130828.8070002,802.23444,799.41394,796.1905,813.1135,737.3626
1694130828.808,803.0403,808.68134,792.96704,816.7399,780.87915
1694130828.808,797.3993,805.4579,790.9524,826.0073,824.3956
1694130828.809,806.6667,797.8022,801.8315,809.0842,798.20514
1694130828.809,798.60803,794.57874,807.8755,780.4762,750.2564
1694130828.81,776.4469,796.99634,807.8755,791.75824,762.3443
1694130828.812,792.96704,800.2198,800.2198,807.47253,1033.5165
1694130828.813,790.14655,805.8608,797.8022,831.6484,1214.0293
1694130828.813,792.5641,809.4872,801.02563,826.8132,788.5348
1694130828.8140001,803.0403,798.20514,797.8022,816.337,655.56775
1694130828.815,790.54944,798.20514,796.5934,820.7692,861.06226
1694130828.8460002,790.54944,806.26373,799.41394,811.9048,753.0769
1694130828.8470001,790.9524,799.41394,799.81683,801.8315,647.50916
1694130828.848,787.72894,794.57874,798.60803,797.8022,633.4066
1694130828.848,787.72894,786.9231,784.5055,801.4286,715.2015
1694130828.849,808.68134,784.5055,788.1319,802.23444,771.2088
1694130828.849,833.663,799.41394,813.1135,815.9341,758.315
1694130828.85,792.1612,804.65204,805.05493,810.293,827.619
1694130828.85,766.3736,799.011,796.5934,804.2491,1113.6996
1694130828.854,787.72894,803.44324,806.6667,813.1135,920.696
1694130828.854,800.2198,800.6227,807.47253,820.7692,647.50916
1694130828.855,795.38464,796.5934,800.2198,825.2015,697.47253
1694130828.855,802.23444,799.011,802.23444,807.8755,705.12823
1694130828.88,807.47253,799.41394,807.0696,796.5934,641.8681
1694130828.881,792.96704,790.14655,790.9524,800.2198,616.4835
1694130828.881,792.96704,784.5055,780.87915,797.8022,747.03296
1694130828.882,791.3553,802.23444,780.07324,807.47253,788.5348
1694130828.8830001,793.36993,808.2784,783.2967,815.5311,699.4872
1694130828.8830001,801.02563,799.81683,795.78754,811.0989,624.5421
1694130828.884,795.38464,801.8315,799.81683,818.7546,973.8828
1694130828.884,784.90845,800.2198,805.05493,821.5751,1195.4945
1694130828.885,798.60803,799.41394,815.12823,809.89014,816.7399
1694130828.8860002,809.4872,799.011,815.12823,813.1135,657.98535
1694130828.8860002,791.3553,793.36993,803.8461,798.20514,781.685
1694130828.887,788.93774,794.17584,793.36993,781.685,712.381
1694130828.9529998,784.5055,794.17584,792.5641,793.36993,628.5714
1694130828.9550002,787.72894,795.38464,801.8315,809.89014,737.3626
1694130828.9550002,803.0403,791.3553,787.72894,805.8608,857.03296
1694130828.956,798.20514,797.8022,770.80585,805.4579,709.5604
1694130828.957,794.17584,809.89014,792.5641,805.05493,606.0073
1694130828.9580002,786.52014,799.011,800.6227,796.5934,786.9231
1694130828.959,782.0879,796.99634,793.7729,783.69965,897.72894
1694130828.959,782.8938,796.1905,791.3553,783.69965,770.80585
1694130828.96,788.5348,795.78754,792.1612,790.14655,659.59705
1694130828.961,777.6557,796.99634,796.1905,791.3553,730.5128
1694130828.965,769.19415,788.93774,794.9817,795.78754,1131.0256
1694130828.966,779.67035,796.99634,786.9231,800.6227,1021.02563
1694130828.993,779.67035,797.3993,785.31134,790.54944,696.6667
1694130828.994,780.87915,800.6227,785.31134,782.49084,670.07324
1694130828.994,786.1172,806.26373,783.69965,798.60803,679.7436
1694130828.9950001,782.0879,794.17584,787.72894,790.9524,694.2491
1694130828.996,782.49084,792.5641,786.1172,791.75824,728.9011
1694130828.997,803.44324,786.52014,782.0879,796.99634,951.31866
1694130828.9980001,791.75824,782.8938,784.5055,792.96704,954.1392
1694130828.999,782.8938,796.1905,791.3553,802.6374,770.40295
1694130829.0,784.90845,805.4579,796.1905,802.6374,728.9011
1694130829.0,787.72894,802.6374,788.93774,808.2784,991.2088
1694130829.001,787.326,802.23444,788.5348,798.60803,1112.4908
1694130829.0019999,786.9231,805.05493,794.57874,785.31134,751.06226
1694130829.0419998,795.78754,800.2198,790.9524,786.52014,708.3516
1694130829.043,804.65204,803.8461,794.57874,801.8315,883.6264
1694130829.044,812.71063,803.44324,801.02563,807.47253,757.50916
1694130829.0449998,787.326,797.3993,795.78754,803.0403,646.7033
1694130829.0460002,783.69965,803.8461,789.34064,812.71063,684.57874
1694130829.0470002,790.9524,800.6227,786.9231,812.3077,738.97437
1694130829.048,788.93774,799.41394,798.60803,809.0842,758.315
1694130829.049,802.6374,806.26373,801.02563,804.65204,767.1795
1694130829.049,796.5934,799.41394,784.10254,799.41394,755.09155
1694130829.05,790.54944,799.011,777.6557,802.6374,702.3077
1694130829.051,788.93774,807.0696,786.9231,801.8315,644.68866
1694130829.052,780.4762,811.0989,799.011,804.2491,650.7326
1694130829.085,793.7729,802.23444,794.9817,807.8755,813.5165
1694130829.0870001,788.5348,793.7729,780.87915,801.02563,1126.5934
1694130829.088,788.93774,799.81683,789.7436,793.7729,873.5531
1694130829.089,811.50183,801.8315,796.5934,786.52014,653.1502
1694130829.09,812.71063,794.9817,795.78754,785.7143,807.8755
1694130829.091,792.96704,798.60803,801.8315,802.23444,854.21246
1694130829.092,794.17584,794.57874,792.1612,801.4286,800.2198
1694130829.092,794.57874,794.9817,780.4762,786.9231,833.663
1694130829.093,778.0586,803.8461,781.685,784.90845,949.707
1694130829.094,774.43225,798.60803,796.1905,795.38464,1153.5897
1694130829.095,789.34064,794.17584,808.68134,812.71063,930.7692
1694130829.095,789.34064,782.49084,801.02563,787.72894,708.7546
1694130829.125,777.6557,780.87915,795.78754,781.685,777.25275
1694130829.1260002,802.23444,794.57874,800.2198,801.02563,735.34796
1694130829.127,796.99634,794.9817,798.60803,788.5348,660.0
1694130829.127,790.14655,799.011,794.9817,787.72894,667.25275
1694130829.128,785.7143,803.0403,781.28204,794.57874,732.52747
1694130829.128,768.7912,801.8315,778.46155,795.78754,757.9121
1694130829.129,781.685,792.96704,788.1319,796.5934,680.9524
1694130829.129,794.57874,801.4286,793.7729,796.1905,749.45056
1694130829.1299999,789.7436,808.68134,793.7729,798.20514,1072.6007
1694130829.131,772.01465,800.6227,791.3553,796.1905,977.50916
1694130829.131,776.8498,800.6227,803.0403,794.57874,716.4103
1694130829.132,781.28204,807.8755,807.8755,793.7729,676.52014
1694130829.16,776.04395,809.4872,803.44324,799.011,663.6264
1694130829.161,780.87915,796.5934,799.011,810.696,689.41394
1694130829.164,792.96704,792.96704,790.9524,803.8461,728.9011
1694130829.164,808.2784,803.0403,784.10254,796.5934,762.3443
1694130829.165,795.38464,806.26373,788.1319,802.23444,779.2674
1694130829.165,782.8938,797.8022,794.57874,794.57874,780.4762
1694130829.1660001,780.87915,800.6227,799.011,784.5055,712.381
1694130829.1660001,790.9524,809.89014,794.9817,801.4286,1022.6374
1694130829.167,792.1612,807.8755,793.36993,812.71063,1341.3553
1694130829.167,796.5934,801.4286,793.7729,791.75824,910.6227
1694130829.169,802.23444,792.96704,788.1319,793.7729,630.58606
1694130829.169,782.49084,801.02563,784.10254,803.0403,732.9304
1694130829.23,777.6557,809.89014,780.87915,794.17584,732.9304
1694130829.231,772.01465,803.44324,787.72894,795.38464,668.46155
1694130829.232,774.83514,796.99634,792.1612,792.1612,659.59705
1694130829.232,785.7143,799.41394,787.326,777.6557,677.326
1694130829.233,780.4762,801.8315,775.2381,784.90845,689.41394
1694130829.233,789.7436,800.6227,771.2088,800.2198,707.1429
1694130829.234,803.44324,804.65204,783.2967,788.93774,765.16486
1694130829.234,811.0989,804.65204,787.326,803.0403,1005.31134
1694130829.2350001,792.5641,796.99634,791.75824,812.3077,801.4286
1694130829.2350001,776.04395,797.8022,782.49084,803.8461,618.49817
1694130829.236,788.93774,799.41394,780.4762,802.23444,736.9597
1694130829.236,793.7729,802.6374,801.8315,811.0989,824.7985
1694130829.2649999,782.0879,800.2198,797.3993,799.81683,792.5641
1694130829.2659998,774.83514,792.96704,788.1319,782.0879,686.99634
1694130829.267,778.46155,787.326,790.14655,798.60803,810.696
1694130829.268,792.1612,784.10254,794.57874,811.9048,915.8608
1694130829.2710001,791.75824,792.5641,794.17584,801.8315,784.90845
1694130829.272,779.67035,801.4286,792.1612,795.78754,742.1978
1694130829.272,779.67035,801.02563,780.07324,802.23444,996.4469
1694130829.273,784.10254,789.7436,760.7326,797.8022,1124.5787
1694130829.274,794.17584,798.60803,780.07324,797.8022,796.1905
1694130829.274,795.78754,804.65204,799.81683,807.8755,707.5458
1694130829.275,775.64105,799.011,789.7436,813.5165,864.2857
1694130829.275,786.1172,799.41394,788.1319,799.81683,767.98535
1694130829.302,788.93774,793.7729,803.0403,795.38464,633.00366
1694130829.303,781.28204,791.3553,809.4872,811.0989,690.6227
1694130829.303,782.8938,792.5641,802.23444,819.9634,792.96704
1694130829.304,768.7912,795.38464,795.78754,808.68134,765.9707
1694130829.304,766.77655,796.5934,790.9524,801.02563,719.2308
1694130829.3049998,796.5934,793.7729,794.57874,823.9927,830.84247
1694130829.3049998,800.2198,794.57874,796.1905,823.5897,1108.0586
1694130829.3059998,790.14655,801.8315,786.9231,801.8315,919.4872
1694130829.3070002,795.78754,800.6227,791.75824,792.1612,683.36993
1694130829.3070002,803.8461,794.9817,798.60803,794.17584,702.71063
1694130829.3070002,804.65204,797.3993,800.6227,805.8608,672.0879
1694130829.308,805.05493,811.50183,804.65204,811.50183,662.01465
1694130829.3569999,798.20514,806.26373,802.6374,809.0842,699.89014
1694130829.359,789.7436,801.4286,809.89014,813.1135,773.22345
1694130829.36,784.90845,806.26373,803.8461,814.7253,777.6557
1694130829.36,787.72894,794.57874,791.75824,792.1612,733.73627
1694130829.3609998,780.4762,787.72894,799.011,781.685,767.5824
1694130829.3609998,781.685,790.14655,804.2491,803.0403,1052.0513
1694130829.3660002,796.5934,797.3993,797.3993,808.68134,1151.978
1694130829.367,805.05493,803.44324,796.5934,795.78754,810.293
1694130829.367,783.69965,796.5934,792.1612,784.90845,629.7802
1694130829.368,769.59705,787.72894,782.0879,790.14655,856.63007
1694130829.368,796.1905,792.5641,787.326,813.5165,929.15753
1694130829.369,780.87915,801.8315,788.93774,796.99634,715.2015
1694130829.465,759.12085,800.2198,787.72894,792.96704,722.4542
1694130829.4659998,794.9817,796.5934,795.78754,813.1135,778.0586
1694130829.467,813.1135,803.0403,802.6374,806.6667,754.68866
1694130829.468,788.1319,804.2491,793.36993,784.10254,740.989
1694130829.4689999,781.28204,805.4579,794.57874,795.78754,764.7619
1694130829.4689999,795.78754,808.68134,801.8315,805.4579,753.8828
1694130829.47,814.3223,812.3077,800.6227,792.1612,732.52747
1694130829.471,799.011,811.0989,799.41394,799.011,715.2015
1694130829.471,773.22345,801.02563,798.20514,801.8315,725.6777
1694130829.472,785.31134,796.1905,795.38464,813.1135,1031.0989
1694130829.473,807.0696,818.3516,802.6374,826.8132,927.9487
1694130829.473,809.89014,811.9048,791.75824,812.3077,655.56775
1694130829.4750001,800.2198,786.52014,770.80585,805.8608,669.2674
1694130829.476,804.65204,794.9817,780.87915,820.7692,702.3077
1694130829.477,802.23444,801.8315,791.3553,802.6374,700.293
1694130829.4780002,793.7729,804.65204,799.41394,789.34064,685.38464
1694130829.479,798.60803,805.8608,805.4579,794.17584,706.7399
1694130829.48,780.4762,794.17584,791.75824,796.5934,714.3956
1694130829.48,778.86444,791.3553,793.7729,808.2784,791.3553
1694130829.481,791.3553,797.8022,794.17584,813.5165,851.79486
1694130829.487,789.7436,796.99634,789.34064,811.0989,1014.17584
1694130829.487,789.7436,810.293,799.41394,817.5458,1070.989
1694130829.488,788.1319,805.05493,793.7729,796.5934,757.1062
1694130829.488,796.99634,788.5348,788.1319,786.9231,670.4762
1694130829.521,803.44324,797.3993,791.75824,818.3516,996.4469
1694130829.523,802.23444,801.4286,797.3993,807.47253,1046.0073
1694130829.523,796.1905,792.96704,796.1905,782.49084,732.9304
1694130829.524,795.78754,799.41394,790.54944,794.17584,684.17584
1694130829.524,796.5934,808.68134,789.34064,790.14655,739.3773
1694130829.5249999,778.46155,804.2491,786.1172,783.69965,777.25275
1694130829.5249999,777.25275,805.8608,779.2674,796.1905,746.2271
1694130829.526,785.31134,805.4579,784.90845,799.011,714.3956
1694130829.526,785.7143,794.9817,789.7436,810.293,956.55676
1694130829.527,790.14655,802.6374,800.2198,802.6374,849.3773
1694130829.527,792.1612,808.68134,801.4286,784.5055,697.8755
1694130829.528,787.72894,799.81683,796.5934,790.9524,794.17584
1694130829.552,784.5055,804.2491,807.8755,803.0403,779.2674
1694130829.553,781.28204,813.91943,801.02563,797.8022,682.5641
1694130829.554,785.31134,815.9341,787.326,793.7729,645.89746
1694130829.554,802.23444,805.05493,789.7436,804.65204,776.04395
1694130829.555,803.44324,796.1905,789.34064,814.3223,799.81683
1694130829.555,784.10254,792.96704,784.5055,801.8315,684.57874
1694130829.556,771.2088,793.36993,784.90845,781.685,750.2564
1694130829.556,783.69965,796.99634,789.34064,786.9231,954.5421
1694130829.557,792.96704,799.011,793.7729,800.6227,829.6337
1694130829.558,786.9231,798.20514,795.78754,805.4579,633.00366
1694130829.5609999,785.7143,797.3993,801.02563,810.696,669.2674
1694130829.5619998,786.9231,790.9524,802.6374,814.3223,927.9487
1694130829.5939999,798.20514,788.93774,801.4286,823.1868,1099.1941
1694130829.595,796.1905,800.2198,790.54944,807.47253,763.95605
1694130829.596,799.81683,804.65204,780.87915,790.14655,677.72894
1694130829.596,807.47253,794.9817,784.5055,787.326,871.13556
1694130829.597,804.2491,792.5641,790.9524,785.31134,760.32965
1694130829.598,790.9524,799.011,790.14655,787.72894,678.1319
1694130829.598,780.4762,799.011,782.8938,786.1172,846.55676
1694130829.599,780.4762,793.36993,790.54944,803.8461,1125.3846
1694130829.599,797.8022,799.011,802.6374,804.65204,932.381
1694130829.6,803.44324,804.65204,804.2491,802.23444,635.42126
1694130829.6,789.34064,801.4286,795.78754,800.6227,627.3626
1694130829.6009998,790.14655,794.57874,788.1319,793.36993,663.22345
1694130829.6220002,797.8022,794.17584,792.1612,801.02563,702.71063
1694130829.6230001,797.3993,792.1612,799.41394,800.6227,722.8571
1694130829.624,796.5934,792.1612,794.17584,800.2198,737.3626
1694130829.624,791.3553,801.8315,789.34064,813.1135,716.8132
1694130829.624,783.2967,797.8022,786.9231,813.91943,721.2454
1694130829.625,780.87915,792.5641,784.5055,807.0696,776.4469
1694130829.625,780.4762,794.57874,785.7143,802.23444,1008.5348
1694130829.625,788.1319,803.0403,794.17584,806.6667,1183.8096
1694130829.626,813.1135,815.5311,801.8315,801.02563,786.9231
1694130829.626,797.8022,807.47253,788.5348,797.3993,561.28204
1694130829.627,796.5934,800.2198,792.1612,818.3516,834.87177
1694130829.627,784.10254,801.8315,801.4286,798.60803,849.7802
1694130829.719,773.6264,802.6374,795.78754,775.2381,649.92676
1694130829.72,784.10254,795.78754,794.17584,783.69965,641.8681
1694130829.72,782.0879,786.9231,796.99634,796.99634,712.7839
1694130829.721,785.7143,799.81683,801.4286,790.9524,734.1392
1694130829.721,792.5641,806.26373,794.57874,783.69965,688.60803
1694130829.722,799.81683,790.14655,786.1172,784.10254,773.22345
1694130829.723,796.5934,800.2198,789.7436,790.9524,1012.96704
1694130829.723,781.685,811.50183,791.3553,803.8461,836.8865
1694130829.724,781.685,811.50183,792.96704,796.1905,756.30035
1694130829.724,778.46155,804.65204,799.011,792.96704,820.3663
1694130829.725,775.2381,796.99634,796.99634,799.011,810.696
1694130829.725,789.34064,798.20514,796.99634,795.38464,669.2674
1694130829.748,801.02563,797.8022,794.17584,792.96704,627.3626
1694130829.7489998,786.9231,803.0403,789.34064,796.99634,749.85345
1694130829.7489998,787.72894,807.47253,792.96704,808.2784,797.8022
1694130829.7500002,784.5055,802.6374,796.99634,807.47253,745.42126
1694130829.7510002,779.67035,800.6227,793.36993,805.4579,725.2747
1694130829.7510002,782.8938,801.02563,790.14655,809.4872,850.58606
1694130829.752,792.1612,797.3993,787.72894,808.2784,860.65936
1694130829.752,804.2491,804.2491,800.2198,793.7729,873.95605
1694130829.753,796.5934,803.0403,807.47253,796.99634,827.2161
1694130829.753,779.67035,795.78754,796.5934,798.20514,921.0989
1694130829.754,772.8205,791.3553,790.9524,795.38464,1035.9341
1694130829.754,776.4469,790.14655,793.7729,799.011,795.78754
1694130829.8019998,784.5055,790.14655,795.38464,805.05493,743.4066
1694130829.803,805.8608,799.41394,799.81683,810.293,842.52747
1694130829.808,808.68134,809.4872,805.8608,801.8315,686.99634
1694130829.808,780.4762,802.6374,796.5934,794.17584,565.7143
1694130829.809,779.2674,801.02563,786.9231,796.5934,655.56775
1694130829.809,787.72894,799.41394,778.0586,801.8315,798.60803
1694130829.81,792.1612,804.2491,793.36993,801.8315,850.58606
1694130829.811,782.8938,801.4286,804.2491,796.5934,696.6667
1694130829.811,791.75824,797.3993,788.93774,815.12823,689.011
1694130829.812,795.38464,803.0403,788.1319,836.4835,1016.99634
1694130829.812,791.3553,799.011,794.9817,807.47253,882.4176
1694130829.813,805.4579,809.4872,801.02563,795.38464,676.1172
1694130829.867,799.81683,800.6227,802.6374,815.12823,745.42126
1694130829.868,783.2967,787.326,792.5641,800.6227,796.5934
1694130829.869,778.46155,800.2198,800.2198,799.41394,745.42126
1694130829.869,792.96704,812.3077,806.6667,816.337,694.65204
1694130829.8700001,796.1905,802.23444,784.10254,813.1135,866.30035
1694130829.871,794.9817,799.011,777.6557,801.8315,914.2491
1694130829.871,796.1905,807.0696,796.99634,782.0879,727.28937
1694130829.872,791.3553,807.0696,807.0696,779.67035,736.55676
1694130829.873,778.86444,799.011,798.20514,787.72894,971.4652
1694130829.873,776.4469,794.17584,796.5934,804.2491,1187.4359
1694130829.8739998,790.14655,797.8022,796.1905,799.81683,832.8571
1694130829.875,801.8315,790.54944,797.3993,786.52014,625.7509
1694130829.9180002,797.3993,784.90845,792.1612,802.23444,709.15753
1694130829.92,781.685,799.81683,789.7436,805.8608,703.1135
1694130829.921,777.6557,812.3077,792.1612,794.17584,682.5641
1694130829.921,785.7143,801.02563,795.78754,792.1612,682.1612
1694130829.927,793.36993,793.7729,798.20514,789.7436,734.1392
1694130829.928,795.78754,801.4286,790.54944,794.9817,711.1722
1694130829.928,801.4286,806.26373,793.7729,806.26373,728.49817
1694130829.929,794.9817,806.6667,801.02563,814.3223,834.87177
1694130829.9299998,790.14655,801.02563,799.011,813.1135,1081.8682
1694130829.931,800.6227,802.6374,799.011,799.011,911.8315
1694130829.932,805.4579,798.20514,787.326,793.7729,612.0513
1694130829.9329998,790.9524,794.57874,775.64105,795.38464,706.7399
1694130829.934,786.1172,791.75824,779.2674,804.65204,759.5238
1694130829.9350002,790.14655,793.7729,793.36993,801.8315,710.3663
1694130829.936,783.2967,795.78754,793.7729,791.75824,703.5165
1694130829.936,788.93774,794.17584,785.7143,796.5934,728.0952
1694130829.937,800.6227,801.02563,787.326,796.1905,753.47986
1694130829.938,796.5934,811.9048,801.8315,805.4579,774.0293
1694130829.938,792.5641,809.89014,803.44324,803.44324,722.4542
1694130829.9390001,795.78754,800.6227,795.38464,804.65204,946.08057
1694130829.94,790.54944,797.8022,792.1612,811.50183,1277.2894
1694130829.94,783.2967,794.57874,788.1319,799.41394,975.09155
1694130829.941,799.41394,803.44324,788.5348,801.8315,695.05493
1694130829.9420002,793.36993,807.47253,780.07324,811.9048,752.674
1694130829.9740002,780.07324,800.2198,786.52014,811.50183,688.60803
1694130829.976,808.2784,803.0403,802.23444,808.68134,638.6447
1694130829.977,804.2491,796.5934,788.1319,788.93774,686.99634
1694130829.978,772.4176,788.5348,780.87915,788.5348,730.9158
1694130829.979,788.93774,799.011,798.20514,806.26373,753.47986
1694130829.979,808.68134,813.5165,793.7729,806.6667,735.34796
1694130829.984,809.4872,811.50183,784.90845,807.0696,768.7912
1694130829.984,808.2784,806.26373,787.72894,813.5165,1008.93774
1694130829.985,809.89014,809.4872,788.5348,802.6374,879.59705
1694130829.987,790.9524,803.44324,789.34064,784.5055,668.86444
1694130829.988,768.3883,799.011,791.75824,775.64105,682.96704
1694130829.9889998,760.7326,804.65204,789.34064,777.6557,736.55676
1694130830.013,774.0293,800.6227,785.7143,786.52014,730.5128
1694130830.0140002,806.6667,805.05493,789.7436,801.4286,713.1868
1694130830.016,820.3663,812.3077,796.1905,806.6667,789.34064
1694130830.017,806.6667,814.3223,805.8608,807.47253,752.674
1694130830.018,804.65204,811.0989,807.8755,817.9487,681.75824
1694130830.019,797.3993,799.81683,805.8608,817.1429,694.2491
1694130830.02,794.57874,798.20514,799.41394,808.68134,1031.9048
1694130830.02,802.23444,805.8608,777.6557,816.7399,1259.9634
1694130830.021,807.0696,808.68134,786.1172,808.68134,824.3956
1694130830.022,788.93774,803.8461,805.8608,799.81683,647.50916
1694130830.022,765.16486,798.20514,802.6374,808.2784,790.54944
1694130830.023,772.01465,797.3993,797.8022,807.0696,772.01465
1694130830.057,776.4469,800.2198,799.41394,795.78754,730.5128
1694130830.0579998,795.78754,801.8315,795.78754,801.02563,722.0513
1694130830.059,821.5751,798.60803,781.28204,807.47253,849.3773
1694130830.06,797.3993,801.8315,788.1319,805.05493,759.92676
1694130830.06,768.7912,804.65204,799.011,809.4872,698.68134
1694130830.0609999,768.3883,798.20514,788.5348,811.50183,872.74725
1694130830.0609999,771.2088,797.3993,779.67035,796.99634,942.8571
1694130830.0609999,777.25275,799.011,787.326,790.9524,786.1172
1694130830.066,792.96704,802.23444,793.7729,797.8022,665.64105
1694130830.066,780.4762,796.1905,795.38464,796.5934,748.24176
1694130830.0670002,754.2857,784.10254,793.36993,774.0293,1062.9304
1694130830.0670002,745.42126,785.31134,794.57874,755.89746,906.99634
1694130830.12,731.7216,789.7436,796.99634,746.63007,657.1795
1694130830.121,725.6777,788.93774,786.9231,738.1685,684.17584
1694130830.122,726.08057,788.1319,761.13556,747.4359,741.79486
1694130830.1230001,739.7802,785.31134,774.83514,758.315,773.6264
1694130830.124,744.61536,788.93774,813.91943,745.0183,728.9011
1694130830.124,725.6777,788.5348,807.8755,738.5714,929.15753
1694130830.125,708.7546,785.31134,803.8461,730.10986,1073.4066
1694130830.1260002,707.9487,790.9524,803.8461,722.8571,832.8571
1694130830.1260002,715.2015,798.20514,798.20514,740.989,707.1429
1694130830.127,733.73627,796.99634,796.1905,751.4652,856.2271
1694130830.128,727.6923,778.46155,795.38464,733.3333,807.0696
1694130830.128,721.2454,775.2381,796.5934,718.022,596.7399
1694130830.161,730.10986,790.14655,796.99634,722.8571,647.1062
1694130830.162,722.0513,784.5055,794.9817,729.707,753.0769
1694130830.162,720.84247,786.9231,790.9524,730.5128,759.92676
1694130830.163,745.82416,803.8461,796.99634,745.82416,710.7692
1694130830.163,768.3883,791.3553,807.0696,762.3443,732.9304
1694130830.164,767.98535,802.23444,817.1429,774.83514,853.00366
1694130830.165,752.27106,805.05493,798.60803,761.53845,838.9011
1694130830.1660001,761.9414,775.2381,782.8938,756.30035,803.44324
1694130830.167,782.8938,794.9817,792.5641,773.22345,771.6117
1694130830.168,766.77655,808.2784,782.8938,773.22345,756.7033
1694130830.172,750.2564,794.17584,778.0586,767.98535,723.663
1694130830.172,776.4469,790.54944,794.17584,791.3553,689.41394
1694130830.1939998,807.47253,790.9524,798.60803,812.3077,832.0513
1694130830.1939998,809.89014,788.93774,810.293,807.8755,1089.1208
1694130830.1950002,792.1612,792.5641,816.7399,796.99634,819.5604
1694130830.1950002,783.69965,786.52014,801.8315,795.78754,627.76556
1694130830.196,787.72894,788.1319,803.44324,807.8755,807.8755
1694130830.196,787.72894,788.5348,802.6374,811.0989,890.87915
1694130830.197,794.9817,784.10254,799.011,812.71063,846.55676
1694130830.197,797.3993,786.52014,800.2198,809.4872,769.19415
1694130830.1980002,794.57874,786.9231,782.49084,805.4579,962.6007
1694130830.1980002,813.1135,804.65204,755.89746,823.9927,1217.2528
1694130830.1990001,795.38464,805.05493,773.6264,817.5458,955.7509
1694130830.1990001,788.1319,782.49084,818.7546,795.38464,687.8022
1694130830.2870002,803.44324,784.5055,809.4872,801.02563,688.20514
1694130830.288,808.2784,804.65204,789.34064,814.7253,657.98535
1694130830.288,804.65204,810.293,805.05493,811.50183,647.50916
1694130830.289,791.75824,802.23444,799.81683,816.337,709.15753
1694130830.289,808.2784,796.99634,781.685,831.6484,761.13556
1694130830.29,820.7692,801.02563,800.2198,832.0513,738.5714
1694130830.2910001,829.6337,808.2784,813.91943,821.1722,688.60803
1694130830.2910001,817.9487,791.3553,797.3993,812.3077,778.0586
1694130830.292,805.4579,786.1172,794.57874,820.3663,1051.6483
1694130830.292,825.2015,799.41394,796.1905,824.7985,871.9414
1694130830.293,819.15753,783.69965,790.9524,813.5165,694.65204
1694130830.293,825.6044,788.5348,792.1612,816.7399,729.304
1694130830.3219998,822.381,820.3663,795.38464,827.619,750.65936
1694130830.323,820.3663,822.7839,799.011,819.15753,731.7216
1694130830.323,812.71063,809.89014,815.5311,827.619,712.7839
1694130830.324,798.20514,799.41394,807.47253,819.15753,742.1978
1694130830.324,795.78754,799.011,794.9817,798.20514,731.7216
1694130830.325,796.99634,796.1905,807.0696,805.05493,764.7619
1694130830.3260002,813.91943,810.696,825.2015,839.707,822.381
1694130830.3260002,811.50183,797.8022,798.20514,824.7985,1034.7252
1694130830.3270001,808.2784,780.4762,776.04395,808.68134,985.9707
1694130830.3270001,810.696,788.93774,781.685,813.91943,688.60803
1694130830.328,813.91943,803.44324,778.0586,818.3516,661.2088
1694130830.328,804.65204,815.9341,794.17584,819.9634,987.5824
1694130830.334,808.68134,809.4872,809.89014,814.3223,1145.9341
1694130830.335,814.7253,802.6374,808.2784,798.60803,779.67035
1694130830.336,801.02563,802.6374,807.8755,805.8608,622.1245
1694130830.336,799.81683,799.011,796.1905,828.022,772.8205
1694130830.337,813.5165,800.6227,790.14655,817.5458,742.1978
1694130830.337,818.3516,799.011,799.41394,810.293,703.5165
1694130830.3379998,810.293,793.7729,802.23444,828.4249,804.2491
1694130830.339,809.4872,794.57874,801.8315,836.8865,989.19415
1694130830.339,807.8755,811.0989,795.38464,830.84247,833.2601
1694130830.3409998,806.6667,809.0842,782.0879,815.5311,657.98535
1694130830.3420002,799.81683,792.5641,786.1172,812.3077,705.9341
1694130830.3420002,821.5751,796.5934,806.26373,810.293,713.5897
1694130830.364,823.9927,804.2491,814.3223,814.3223,660.0
1694130830.3660002,791.3553,814.3223,802.23444,825.2015,612.8571
1694130830.37,782.8938,807.8755,791.75824,819.5604,674.10254
1694130830.371,803.0403,788.93774,780.4762,807.8755,770.40295
1694130830.371,809.4872,792.5641,786.9231,803.0403,764.35895
1694130830.372,805.8608,802.6374,802.23444,816.7399,735.7509
1694130830.372,826.8132,802.6374,803.44324,822.381,980.32965
1694130830.373,843.3333,803.0403,800.2198,832.0513,1350.2197
1694130830.374,819.5604,801.8315,784.90845,823.5897,1052.4542
1694130830.374,800.2198,801.4286,784.10254,813.91943,683.36993
1694130830.375,797.3993,803.8461,789.34064,813.1135,701.50183
1694130830.375,798.20514,807.0696,794.57874,821.978,670.07324
1694130830.442,801.4286,807.0696,797.3993,821.5751,647.9121
1694130830.443,807.47253,800.6227,796.5934,815.9341,717.2161
1694130830.443,805.8608,790.54944,791.3553,813.1135,765.16486
1694130830.444,798.20514,799.41394,787.326,821.978,732.9304
1694130830.445,807.8755,800.2198,795.78754,826.4103,635.0183
1694130830.445,822.381,786.1172,803.8461,815.12823,740.58606
1694130830.446,821.5751,795.78754,798.20514,818.7546,1078.2417
1694130830.446,804.65204,802.23444,790.9524,813.91943,915.4579
1694130830.447,813.5165,794.57874,805.05493,809.89014,675.7143
1694130830.447,816.7399,788.93774,810.696,808.2784,720.84247
1694130830.448,817.5458,799.41394,801.4286,818.7546,986.77655
1694130830.448,812.71063,799.011,803.8461,814.7253,850.58606
1694130830.4780002,799.81683,796.1905,809.89014,809.0842,689.41394
1694130830.479,794.17584,799.011,804.2491,806.26373,718.4249
1694130830.48,811.0989,793.36993,798.20514,805.8608,709.15753
1694130830.481,828.8278,799.011,799.81683,832.4542,691.02563
1694130830.486,813.1135,807.0696,799.41394,822.381,708.7546
1694130830.487,797.3993,795.38464,788.93774,794.57874,836.08057
1694130830.487,794.9817,781.685,784.10254,796.99634,841.31866
1694130830.488,804.2491,783.2967,792.96704,794.17584,774.83514
1694130830.488,805.05493,793.7729,796.5934,781.28204,767.5824
1694130830.4889998,790.9524,799.41394,785.31134,791.3553,993.22345
1694130830.4899998,799.41394,801.02563,783.2967,811.50183,1236.5934
1694130830.4899998,811.0989,799.41394,790.54944,818.7546,953.73627
1694130830.526,804.2491,804.65204,809.4872,825.6044,737.76556
1694130830.527,794.17584,804.2491,812.3077,805.05493,776.8498
1694130830.527,794.57874,797.8022,794.9817,786.9231,728.0952
1694130830.528,797.3993,795.38464,788.1319,796.1905,723.2601
1694130830.528,790.9524,791.3553,793.36993,801.02563,728.9011
1694130830.529,816.337,805.4579,810.293,824.3956,736.55676
1694130830.53,807.47253,810.696,803.8461,826.4103,741.39197
1694130830.53,788.93774,809.4872,783.2967,810.293,687.3993
1694130830.5310001,816.7399,814.3223,787.326,817.9487,761.53845
1694130830.5310001,809.0842,804.2491,806.6667,819.9634,1030.6959
1694130830.532,791.3553,794.17584,801.4286,790.14655,834.0659
1694130830.532,787.326,792.5641,791.75824,773.22345,668.46155
1694130830.558,782.8938,799.41394,789.7436,784.10254,753.0769
1694130830.559,780.4762,801.4286,783.69965,783.2967,792.5641
1694130830.56,792.96704,792.96704,782.8938,791.3553,711.978
1694130830.56,794.57874,797.3993,793.36993,795.78754,622.9304
1694130830.5609999,803.8461,812.71063,799.011,803.8461,722.0513
1694130830.5609999,812.71063,808.2784,799.41394,813.1135,846.55676
1694130830.5649998,803.44324,801.8315,803.44324,806.26373,822.381
1694130830.5660002,799.011,805.8608,808.68134,814.7253,730.10986
1694130830.5670002,798.20514,798.60803,805.05493,811.9048,875.56775
1694130830.5670002,796.1905,791.3553,791.3553,806.26373,1042.7839
1694130830.568,792.5641,803.0403,783.69965,789.34064,748.24176
1694130830.568,786.52014,805.8608,785.31134,782.8938,682.5641
1694130830.655,797.8022,801.4286,803.0403,800.6227,758.315
1694130830.656,800.2198,797.3993,804.65204,798.60803,655.9707
1694130830.6569998,805.8608,792.5641,797.8022,799.81683,614.87177
1694130830.6579998,814.3223,789.7436,796.5934,815.12823,662.4176
1694130830.6579998,800.2198,802.23444,792.1612,821.978,829.6337
1694130830.6590002,796.1905,808.2784,793.36993,801.02563,860.2564
1694130830.6590002,801.8315,807.47253,803.0403,800.6227,679.7436
1694130830.66,812.3077,808.68134,799.41394,807.47253,643.0769
1694130830.661,807.47253,798.60803,798.60803,802.23444,939.6337
1694130830.661,774.83514,793.7729,799.81683,810.293,849.3773
1694130830.6620002,758.315,788.93774,791.75824,800.6227,700.293
1694130830.6620002,789.7436,788.5348,798.20514,793.36993,735.34796
1694130830.663,808.2784,791.3553,805.8608,808.68134,709.15753
1694130830.664,815.12823,797.8022,800.6227,814.3223,666.4469
1694130830.665,812.3077,800.6227,791.75824,805.8608,694.65204
1694130830.665,807.8755,792.5641,796.99634,809.89014,780.4762
1694130830.666,819.15753,792.96704,803.8461,816.7399,768.7912
1694130830.666,808.2784,789.34064,798.20514,800.2198,709.5604
1694130830.667,789.7436,786.9231,784.90845,795.78754,783.2967
1694130830.667,792.96704,803.44324,788.93774,806.26373,990.80585
1694130830.672,789.7436,801.4286,794.9817,796.1905,916.26373
1694130830.672,788.5348,791.3553,800.2198,789.34064,710.3663
1694130830.6729999,780.07324,796.99634,794.9817,796.99634,638.6447
1694130830.6729999,782.8938,790.14655,788.5348,801.4286,882.4176
1694130830.74,796.99634,789.34064,800.2198,821.1722,1172.1245
1694130830.742,794.57874,801.02563,800.2198,828.8278,918.2784
1694130830.742,796.99634,798.60803,795.38464,821.1722,701.0989
1694130830.743,804.2491,801.4286,800.2198,817.9487,703.91943
1694130830.744,803.0403,803.8461,796.1905,818.7546,661.2088
1694130830.744,794.57874,797.3993,782.49084,817.9487,746.63007
1694130830.745,797.3993,799.011,782.8938,811.50183,906.99634
1694130830.7459998,802.6374,791.3553,787.326,808.2784,1170.9158
1694130830.748,791.3553,794.9817,790.14655,794.9817,975.4945
1694130830.7489998,805.8608,808.68134,800.2198,797.3993,623.3333
1694130830.7500002,796.1905,791.75824,797.8022,803.44324,649.5238
1694130830.7510002,786.9231,784.10254,786.9231,796.99634,701.0989
1694130830.7870002,790.14655,794.57874,782.8938,794.9817,689.81683
1694130830.788,772.01465,795.38464,782.0879,796.99634,639.85345
1694130830.788,790.54944,804.2491,794.57874,796.99634,671.28204
1694130830.789,804.65204,803.0403,802.6374,794.9817,694.65204
1694130830.7900002,793.7729,787.72894,797.8022,789.7436,660.40295
1694130830.7900002,799.81683,800.6227,794.17584,798.20514,658.3883
1694130830.7910001,797.3993,805.8608,786.9231,802.6374,956.55676
1694130830.792,802.6374,797.3993,782.0879,801.02563,1214.8352
1694130830.792,805.05493,806.26373,783.2967,804.2491,788.5348
1694130830.793,804.2491,805.4579,785.31134,802.23444,655.56775
1694130830.797,816.7399,814.7253,788.93774,807.47253,909.41394
1694130830.798,812.3077,815.12823,784.90845,808.68134,783.2967
1694130830.856,801.02563,794.57874,782.0879,795.38464,595.5311
1694130830.8569999,819.5604,801.8315,794.57874,808.68134,678.5348
1694130830.8579998,817.5458,807.8755,798.60803,838.49817,918.2784
1694130830.8579998,809.4872,807.47253,805.8608,838.0952,836.4835
1694130830.859,796.99634,794.9817,795.38464,810.696,638.24176
1694130830.86,776.4469,796.1905,790.54944,788.93774,719.6337
1694130830.86,778.46155,801.02563,791.3553,802.6374,1019.81683
1694130830.8609998,801.4286,794.9817,776.4469,809.4872,817.5458
1694130830.8620002,810.696,803.0403,784.5055,809.4872,653.95605
1694130830.8620002,805.05493,809.0842,799.41394,813.91943,747.03296
1694130830.8630002,794.57874,811.0989,806.6667,807.47253,761.13556
1694130830.864,792.1612,809.4872,811.9048,801.02563,705.12823
1694130830.887,790.54944,792.1612,803.8461,805.4579,673.2967
1694130830.888,792.1612,799.41394,785.7143,808.2784,770.80585
1694130830.889,794.17584,807.0696,784.5055,808.2784,808.2784
1694130830.8899999,800.2198,803.44324,796.99634,803.44324,679.34064
1694130830.8899999,804.65204,796.99634,793.36993,791.3553,674.10254
1694130830.891,797.8022,788.93774,783.69965,802.6374,880.0
1694130830.892,799.41394,804.2491,785.7143,809.4872,905.78754
1694130830.892,780.07324,815.5311,797.8022,785.31134,823.5897
1694130830.893,783.2967,817.5458,802.23444,788.1319,715.2015
1694130830.893,803.8461,800.2198,795.38464,815.12823,892.8938
1694130830.894,783.69965,791.3553,784.90845,814.7253,1028.6813
1694130830.895,793.36993,806.26373,795.78754,796.1905,747.8388
1694130830.905,808.68134,815.12823,810.293,797.8022,713.5897
1694130830.906,796.1905,802.6374,797.8022,791.75824,742.6007
1694130830.906,798.20514,790.14655,779.2674,781.685,701.50183
1694130830.907,779.2674,788.5348,770.80585,789.34064,761.9414
1694130830.908,776.04395,791.75824,781.28204,803.44324,819.5604
1694130830.908,810.696,805.05493,804.2491,820.7692,1052.4542
1694130830.909,795.78754,793.7729,789.34064,799.81683,949.304
1694130830.909,786.1172,796.5934,779.67035,792.96704,675.7143
1694130830.91,791.3553,800.2198,795.78754,798.60803,719.2308
1694130830.91,784.90845,790.14655,795.78754,798.20514,954.5421
1694130830.911,799.81683,788.1319,792.96704,800.2198,839.304
1694130830.911,795.78754,786.52014,791.3553,796.5934,695.4579
1694130830.96,787.72894,796.1905,788.5348,795.38464,718.022
1694130830.962,793.36993,799.81683,777.25275,801.8315,761.9414
1694130830.964,802.6374,801.4286,784.10254,821.978,759.12085
1694130830.965,798.60803,791.75824,802.23444,801.4286,749.45056
1694130830.967,780.87915,780.4762,797.3993,798.60803,784.90845
1694130830.968,786.1172,791.3553,800.2198,798.20514,763.1502
1694130830.9689999,792.96704,801.02563,802.6374,776.04395,774.83514
1694130830.971,799.41394,793.36993,803.44324,788.1319,782.8938
1694130830.972,812.3077,794.9817,819.5604,829.2308,948.0952
1694130830.972,819.15753,807.0696,810.293,852.6007,1194.2858
1694130830.973,800.2198,811.50183,796.1905,826.0073,881.6117
1694130830.9740002,785.7143,806.6667,800.2198,807.8755,635.82416
1694130831.035,802.6374,799.41394,799.81683,810.696,749.45056
1694130831.036,808.2784,795.78754,791.75824,809.0842,723.663
1694130831.041,796.99634,797.3993,792.96704,799.011,692.6374
1694130831.041,796.99634,788.1319,796.5934,799.81683,730.5128
1694130831.0419998,803.0403,794.17584,801.8315,807.0696,743.00366
1694130831.043,808.68134,799.011,799.81683,803.8461,811.0989
1694130831.043,815.9341,804.2491,788.1319,817.9487,787.72894
1694130831.044,790.9524,802.6374,793.7729,826.8132,749.45056
1694130831.044,782.8938,795.38464,802.6374,803.8461,1098.7913
1694130831.0449998,797.3993,804.65204,807.47253,792.1612,983.1502
1694130831.0460002,796.5934,813.1135,808.2784,797.3993,660.0
1694130831.0460002,791.3553,811.9048,793.36993,795.38464,688.20514
1694130831.088,794.17584,809.89014,797.3993,805.4579,701.9048
1694130831.089,801.8315,801.4286,806.6667,817.1429,654.7619
1694130831.089,796.5934,794.9817,800.2198,794.17584,597.9487
1694130831.09,805.05493,804.2491,807.47253,796.1905,660.40295
1694130831.091,789.34064,804.65204,799.81683,798.60803,755.09155
1694130831.092,779.2674,799.41394,782.49084,799.41394,783.69965
1694130831.092,805.4579,803.0403,795.78754,803.8461,718.8278
1694130831.093,809.4872,800.6227,796.99634,806.26373,972.674
1694130831.094,793.36993,797.3993,792.96704,830.4396,1239.011
1694130831.095,791.3553,788.1319,798.20514,803.0403,856.63007
1694130831.095,795.78754,786.1172,790.9524,775.64105,706.7399
1694130831.096,785.31134,794.17584,794.17584,781.685,830.4396
1694130831.1020002,785.31134,801.8315,813.5165,794.57874,683.36993
1694130831.1030002,781.685,795.78754,801.4286,799.011,616.4835
1694130831.104,782.49084,789.34064,792.96704,799.81683,704.3223
1694130831.105,800.6227,787.72894,795.38464,810.696,761.53845
1694130831.109,797.8022,796.1905,800.6227,817.9487,678.93774
1694130831.1100001,790.54944,802.23444,799.011,802.6374,622.9304
1694130831.111,801.02563,794.57874,802.23444,813.91943,810.293
1694130831.113,790.14655,788.5348,803.8461,819.9634,1105.641
1694130831.1139998,780.87915,793.7729,793.36993,790.9524,878.3883
1694130831.115,802.6374,794.17584,791.75824,795.38464,648.315
1694130831.116,801.4286,796.99634,796.1905,802.23444,700.293
1694130831.1169999,791.75824,803.0403,801.02563,792.96704,705.9341
1694130831.176,790.54944,799.011,794.57874,790.9524,693.44324
1694130831.177,781.28204,805.05493,792.96704,791.75824,737.76556
1694130831.178,768.3883,799.011,786.1172,792.96704,838.9011
1694130831.1790001,779.67035,801.4286,788.1319,805.05493,801.02563
1694130831.1790001,811.50183,811.0989,811.9048,811.50183,734.94507
1694130831.18,793.7729,792.1612,802.23444,797.8022,803.44324
1694130831.181,774.43225,783.69965,794.57874,785.7143,998.0586
1694130831.181,801.4286,794.57874,796.99634,790.9524,1230.5494
1694130831.1820002,801.4286,793.7729,775.64105,794.17584,900.54944
1694130831.1820002,790.54944,797.3993,780.4762,801.8315,681.75824
1694130831.183,803.8461,802.23444,796.5934,811.9048,900.9524
1694130831.184,788.5348,797.8022,791.3553,818.7546,865.89746
1694130831.212,785.7143,800.2198,796.5934,811.0989,686.1905
1694130831.2129998,803.0403,799.41394,807.0696,817.9487,647.50916
1694130831.2140002,795.38464,795.38464,805.4579,812.3077,673.69965
1694130831.2150002,786.1172,800.6227,795.78754,781.28204,739.3773
1694130831.2150002,795.38464,802.6374,794.57874,788.93774,759.92676
1694130831.216,798.20514,796.99634,801.4286,791.75824,796.99634
1694130831.22,794.9817,788.5348,802.6374,788.5348,940.4396
1694130831.221,786.9231,786.52014,801.4286,801.02563,790.54944
1694130831.2220001,777.6557,798.60803,808.2784,802.23444,610.0366
1694130831.2220001,787.72894,805.4579,806.26373,816.7399,705.5311
1694130831.223,807.0696,789.7436,802.23444,826.0073,1020.2198
1694130831.223,791.3553,788.1319,801.4286,798.20514,839.304
1694130831.255,782.49084,804.65204,803.44324,801.4286,618.9011
1694130831.256,784.5055,808.68134,807.8755,798.60803,699.89014
1694130831.256,781.28204,801.4286,801.02563,795.38464,742.6007
1694130831.257,786.52014,796.5934,790.54944,800.2198,702.3077
1694130831.258,790.14655,797.8022,790.9524,789.7436,642.27106
1694130831.258,796.1905,795.38464,790.14655,790.14655,811.0989
1694130831.259,803.44324,793.36993,794.57874,799.41394,900.54944
1694130831.26,799.41394,797.3993,798.20514,804.2491,792.96704
1694130831.26,786.52014,797.3993,797.3993,803.0403,804.2491
1694130831.261,786.1172,790.54944,797.3993,808.68134,933.5897
1694130831.261,799.011,794.9817,793.7729,817.9487,1072.1978
1694130831.262,799.41394,805.8608,792.5641,809.89014,779.2674
1694130831.315,792.1612,805.4579,799.41394,801.8315,681.3553
1694130831.316,790.54944,809.0842,800.2198,811.50183,780.4762
1694130831.317,796.1905,814.3223,786.9231,815.12823,717.619
1694130831.317,802.6374,816.337,803.8461,795.78754,647.1062
1694130831.318,785.31134,807.0696,807.8755,786.9231,678.93774
1694130831.319,774.83514,794.57874,794.9817,781.28204,835.6777
1694130831.32,795.38464,784.10254,799.011,782.8938,769.59705
1694130831.32,796.99634,790.54944,799.81683,778.86444,653.5531
1694130831.325,784.10254,796.1905,796.1905,784.90845,666.8498
1694130831.3260002,792.1612,802.23444,794.17584,790.54944,743.8095
1694130831.3260002,802.6374,812.71063,796.1905,798.20514,778.86444
1694130831.3270001,783.69965,802.6374,792.1612,796.1905,707.5458
1694130831.355,770.0,796.5934,783.69965,789.34064,733.73627
1694130831.356,792.1612,805.05493,790.14655,810.696,1010.14655
1694130831.3569999,790.9524,801.8315,807.47253,802.23444,809.89014
1694130831.358,791.3553,801.02563,806.6667,800.6227,662.8205
1694130831.358,799.011,803.8461,799.81683,817.5458,811.50183
1694130831.359,795.78754,791.75824,798.20514,809.0842,834.4689
1694130831.359,792.5641,780.87915,792.1612,796.1905,728.9011
1694130831.36,786.9231,793.36993,790.14655,797.3993,662.8205
1694130831.36,781.28204,803.8461,792.1612,795.78754,875.16486
1694130831.3609998,783.2967,805.8608,796.5934,802.23444,1136.6666
1694130831.3609998,791.3553,808.68134,795.78754,799.81683,826.8132
1694130831.362,800.2198,806.26373,783.69965,787.72894,683.7729
1694130831.369,783.2967,795.78754,790.54944,789.34064,864.2857
1694130831.37,782.49084,797.3993,806.6667,782.49084,743.00366
1694130831.371,792.1612,795.38464,805.05493,788.1319,658.7912
1694130831.371,795.78754,791.3553,797.3993,811.0989,718.022
1694130831.372,794.57874,790.14655,785.7143,823.1868,735.34796
1694130831.372,780.4762,781.28204,785.7143,795.38464,779.2674
1694130831.373,772.01465,784.90845,791.75824,772.8205,769.59705
1694130831.373,787.72894,786.52014,793.36993,789.7436,768.3883
1694130831.374,787.72894,784.5055,794.9817,813.1135,994.0293
1694130831.374,780.4762,788.93774,788.5348,795.38464,856.2271
1694130831.3779998,788.5348,796.99634,800.2198,782.49084,652.3443
1694130831.3779998,786.1172,789.34064,793.7729,782.0879,710.3663
1694130831.4,787.326,785.7143,775.2381,773.6264,785.31134
1694130831.4,782.49084,789.7436,780.4762,779.2674,766.3736
1694130831.401,785.31134,790.9524,778.0586,787.326,722.0513
1694130831.401,804.65204,804.65204,787.72894,793.36993,752.674
1694130831.402,792.5641,808.2784,812.3077,794.17584,782.49084
1694130831.402,782.49084,798.60803,809.0842,784.5055,808.68134
1694130831.403,795.38464,797.3993,797.8022,789.34064,779.67035
1694130831.403,789.34064,796.1905,788.1319,800.2198,951.31866
1694130831.404,778.0586,794.9817,781.685,803.8461,1238.2051
1694130831.404,785.7143,803.44324,790.14655,807.0696,938.4249
1694130831.404,801.8315,796.5934,793.7729,799.011,686.5934
1694130831.405,807.0696,785.7143,789.34064,790.54944,752.674
1694130831.477,792.5641,790.9524,788.1319,786.52014,682.96704
1694130831.4780002,789.34064,790.14655,786.9231,784.90845,597.9487
1694130831.479,788.5348,791.3553,793.7729,802.6374,638.24176
1694130831.479,792.96704,800.6227,794.17584,803.0403,758.315
1694130831.48,788.5348,799.41394,796.1905,786.9231,775.64105
1694130831.4819999,798.60803,796.1905,801.4286,786.9231,723.663
1694130831.4819999,813.91943,809.4872,805.4579,807.47253,749.45056
1694130831.483,790.54944,801.4286,796.1905,832.8571,1037.1428
1694130831.484,785.31134,795.38464,788.5348,818.3516,963.4066
1694130831.484,809.89014,821.5751,801.8315,793.7729,689.011
1694130831.485,786.52014,812.3077,790.9524,787.72894,692.6374
1694130831.486,782.0879,790.14655,788.5348,785.31134,701.9048
1694130831.5219998,796.1905,788.5348,800.6227,786.9231,691.02563
1694130831.523,788.5348,801.4286,799.81683,807.0696,693.8461
1694130831.523,799.81683,804.65204,798.20514,803.8461,763.5531
1694130831.524,796.1905,801.02563,787.72894,790.54944,773.22345
1694130831.524,785.7143,797.8022,788.93774,784.10254,711.978
1694130831.5249999,794.17584,789.34064,803.44324,792.96704,689.81683
1694130831.5249999,790.9524,779.2674,805.4579,799.41394,1003.69965
1694130831.526,792.96704,791.75824,802.6374,805.05493,1291.7949
1694130831.526,810.293,813.5165,800.6227,816.337,931.5751
1694130831.527,803.44324,805.4579,796.99634,795.38464,674.10254
1694130831.528,790.14655,792.5641,794.9817,783.2967,828.8278
1694130831.528,793.7729,801.02563,801.02563,810.696,838.49817
1694130831.572,796.5934,810.293,797.3993,820.7692,690.2198
1694130831.573,777.6557,808.2784,786.9231,803.0403,753.47986
1694130831.5740001,772.4176,808.2784,793.36993,803.8461,781.685
1694130831.5740001,790.9524,806.26373,802.6374,802.23444,716.8132
1694130831.575,799.011,803.0403,800.6227,792.1612,666.4469
1694130831.576,801.8315,801.8315,796.99634,803.8461,751.8681
1694130831.576,796.1905,795.38464,783.69965,809.0842,1009.34064
1694130831.577,803.8461,800.6227,780.87915,792.96704,887.6557
1694130831.5779998,805.4579,798.20514,795.38464,782.8938,624.5421
1694130831.579,803.44324,793.7729,799.41394,794.57874,671.28204
1694130831.579,805.8608,802.23444,790.54944,798.60803,932.381
1694130831.58,791.3553,802.6374,786.52014,793.36993,850.58606
1694130831.6230001,783.69965,800.6227,789.7436,799.011,648.315
1694130831.624,783.2967,799.81683,802.6374,810.293,692.6374
1694130831.628,789.34064,803.44324,807.8755,818.3516,757.1062
1694130831.628,786.9231,802.23444,796.5934,817.1429,718.8278
1694130831.629,781.28204,786.9231,787.326,790.9524,658.3883
1694130831.63,787.72894,784.90845,780.87915,786.1172,923.1135
1694130831.63,799.011,781.685,769.19415,804.65204,1245.0549
1694130831.631,786.9231,785.31134,784.90845,793.36993,896.52014
1694130831.632,769.19415,795.38464,808.68134,787.72894,682.96704
1694130831.632,769.59705,791.3553,811.0989,823.9927,895.7143
1694130831.633,778.46155,793.36993,797.8022,814.3223,846.1539
1694130831.6339998,790.14655,797.3993,795.38464,785.7143,602.381
1694130831.677,790.9524,788.5348,801.4286,795.78754,617.6923
1694130831.6790001,794.17584,787.72894,797.3993,799.41394,789.34064
1694130831.68,792.5641,794.9817,790.54944,799.41394,763.95605
1694130831.68,801.4286,786.1172,792.96704,805.05493,670.87915
1694130831.681,805.8608,789.34064,796.99634,802.23444,691.02563
1694130831.682,792.96704,799.81683,794.17584,802.23444,768.3883
1694130831.683,792.1612,801.02563,783.2967,801.4286,843.73627
1694130831.683,779.2674,792.5641,784.5055,795.38464,770.0
1694130831.684,778.46155,794.9817,799.81683,804.2491,778.0586
1694130831.685,792.1612,795.78754,794.9817,811.0989,1065.751
1694130831.685,793.7729,797.3993,788.5348,794.17584,863.0769
1694130831.686,799.011,795.78754,794.9817,794.17584,686.99634
1694130831.712,807.0696,796.99634,801.02563,813.1135,793.7729
1694130831.7129998,799.41394,794.9817,795.38464,793.36993,761.13556
1694130831.7129998,792.96704,799.41394,793.36993,781.28204,678.1319
1694130831.714,796.1905,807.0696,799.011,799.41394,645.4945
1694130831.7180002,792.96704,803.44324,799.011,805.4579,841.7216
1694130831.719,801.8315,799.81683,786.52014,799.81683,940.84247
1694130831.72,821.5751,799.81683,780.4762,801.02563,870.7326
1694130831.72,826.4103,804.2491,792.96704,808.68134,857.03296
1694130831.721,793.7729,793.7729,795.78754,805.05493,968.24176
1694130831.721,752.674,781.685,794.57874,806.6667,1176.1538
1694130831.722,760.7326,790.54944,792.96704,791.3553,924.3223
1694130831.722,780.87915,795.78754,791.75824,783.69965,728.0952
1694130831.7510002,794.57874,790.9524,794.17584,791.75824,726.4835
1694130831.752,796.99634,795.78754,796.1905,799.011,644.2857
1694130831.752,808.2784,802.6374,792.5641,788.1319,654.7619
1694130831.753,815.12823,803.44324,788.5348,782.0879,717.2161
1694130831.753,801.8315,796.99634,785.31134,806.6667,767.5824
1694130831.754,805.05493,796.5934,790.14655,801.4286,799.81683
1694130831.754,810.293,801.8315,801.8315,784.10254,741.39197
1694130831.755,795.38464,802.6374,801.8315,793.7729,774.0293
1694130831.756,783.69965,800.6227,799.81683,825.6044,1077.033
1694130831.756,795.38464,795.38464,795.78754,827.619,987.98535
1694130831.757,796.99634,782.8938,785.31134,807.47253,685.38464
1694130831.7580001,792.1612,785.31134,793.7729,802.6374,740.18317
1694130831.8070002,803.0403,798.60803,805.05493,802.23444,754.68866
1694130831.808,812.3077,807.0696,802.23444,802.6374,668.0586
1694130831.808,805.05493,809.4872,792.96704,794.57874,672.0879
1694130831.809,794.17584,801.02563,790.54944,797.8022,743.00366
1694130831.809,816.337,802.6374,792.96704,806.6667,783.69965
1694130831.81,825.6044,810.293,790.9524,797.8022,714.3956
1694130831.813,801.4286,805.05493,792.5641,785.7143,738.5714
1694130831.813,787.72894,796.5934,804.2491,795.78754,1012.96704
1694130831.8140001,798.20514,795.78754,803.44324,796.5934,921.9048
1694130831.8140001,786.9231,792.96704,796.5934,790.14655,677.326
1694130831.815,793.36993,800.6227,794.17584,796.5934,649.5238
1694130831.815,815.12823,798.60803,790.54944,800.6227,894.5055
1694130831.8620002,794.17584,796.5934,789.34064,794.9817,1187.8389
1694130831.8630002,792.1612,805.4579,786.9231,786.1172,907.8022
1694130831.8630002,805.8608,809.0842,791.3553,782.8938,696.6667
1694130831.864,795.38464,814.7253,800.2198,796.5934,691.8315
1694130831.864,796.99634,809.89014,795.78754,811.9048,669.67035
1694130831.865,797.8022,796.99634,797.8022,801.02563,751.4652
1694130831.866,798.20514,794.57874,801.8315,801.4286,827.2161
1694130831.867,788.5348,792.5641,800.2198,814.7253,984.7619
1694130831.867,774.43225,795.78754,801.4286,802.6374,793.7729
1694130831.868,791.75824,813.5165,805.05493,793.7729,595.5311
1694130831.868,799.011,814.3223,802.23444,808.68134,667.25275
1694130831.869,792.96704,797.8022,788.1319,797.3993,745.82416
1694130831.906,793.7729,796.99634,784.90845,786.9231,733.73627
1694130831.907,773.22345,800.6227,787.326,788.1319,636.2271
1694130831.908,765.16486,801.02563,790.54944,792.96704,718.4249
1694130831.909,774.43225,802.6374,782.8938,794.9817,842.9304
1694130831.909,781.685,799.81683,780.07324,808.68134,747.8388
1694130831.91,787.326,797.8022,788.1319,806.26373,701.9048
1694130831.911,794.57874,789.34064,792.96704,786.52014,913.44324
1694130831.912,788.1319,792.1612,799.41394,796.5934,1175.751
1694130831.915,786.52014,802.6374,798.20514,791.3553,799.41394
1694130831.916,788.93774,799.011,797.8022,788.1319,627.76556
1694130831.9169998,805.4579,800.6227,798.20514,801.4286,857.8388
1694130831.9169998,803.0403,795.78754,791.3553,799.81683,748.6447
1694130831.9580002,780.4762,790.9524,785.31134,786.1172,589.89014
1694130831.959,791.75824,794.17584,793.36993,790.54944,702.3077
1694130831.96,793.36993,796.1905,799.81683,797.8022,903.36993
1694130831.961,777.25275,793.36993,793.7729,801.8315,828.022
1694130831.962,773.6264,786.52014,790.54944,802.6374,670.87915
1694130831.962,785.7143,796.99634,804.65204,803.0403,763.1502
1694130831.963,802.23444,798.60803,812.3077,820.7692,1175.348
1694130831.964,801.8315,801.02563,807.0696,817.9487,1048.4249
1694130831.964,791.3553,800.6227,799.011,799.011,664.43225
1694130831.965,793.36993,795.38464,796.5934,787.72894,626.9597
1694130831.965,780.87915,790.9524,786.9231,772.01465,662.01465
1694130831.966,775.2381,792.1612,789.34064,781.685,662.8205
1694130831.988,792.5641,796.5934,795.38464,796.5934,666.8498
1694130831.988,790.14655,790.14655,801.4286,794.57874,701.50183
1694130831.9889998,789.34064,788.5348,805.05493,797.8022,695.4579
1694130831.99,791.3553,794.17584,802.6374,807.47253,669.67035
1694130831.99,784.90845,794.9817,799.011,813.5165,703.91943
1694130831.9910002,792.96704,794.9817,805.8608,814.3223,908.20514
1694130831.9910002,805.05493,791.3553,810.696,807.8755,908.60803
1694130831.992,781.685,792.5641,803.44324,804.65204,691.4286
1694130831.992,780.4762,793.7729,798.60803,811.0989,686.5934
1694130831.993,790.9524,792.96704,790.14655,792.1612,952.52747
1694130831.997,789.34064,803.44324,791.75824,796.5934,1147.9487
1694130831.9980001,794.17584,805.8608,794.57874,800.6227,857.03296
1694130832.0249999,793.36993,801.8315,799.011,786.9231,669.67035
1694130832.0259998,805.05493,805.4579,811.0989,784.5055,686.1905
1694130832.0259998,804.2491,801.02563,802.23444,794.9817,661.6117
1694130832.027,789.7436,793.7729,793.36993,804.65204,718.8278
1694130832.027,788.5348,792.5641,799.011,799.81683,797.3993
1694130832.028,796.99634,790.54944,798.20514,788.93774,862.27106
1694130832.028,799.41394,781.28204,790.9524,792.1612,781.28204
1694130832.029,795.38464,789.7436,796.1905,799.011,691.02563
1694130832.029,788.5348,797.3993,798.20514,794.57874,778.0586
1694130832.0300002,786.9231,789.34064,786.9231,799.41394,1127.3993
1694130832.0300002,794.57874,794.57874,790.9524,802.23444,1004.10254
1694130832.0310001,796.1905,799.011,800.6227,801.4286,665.64105
1694130832.0540001,790.54944,800.6227,799.41394,796.1905,669.67035
1694130832.055,779.67035,787.72894,796.99634,798.20514,716.4103
1694130832.056,786.1172,774.83514,801.4286,801.4286,729.707
1694130832.057,787.326,785.31134,799.81683,793.36993,708.3516
1694130832.057,784.90845,796.99634,795.78754,792.96704,758.71796
1694130832.0579998,790.14655,791.75824,797.8022,800.2198,804.2491
1694130832.059,786.9231,784.10254,790.14655,797.8022,818.7546
1694130832.059,788.93774,785.7143,781.685,803.44324,807.0696
1694130832.06,789.7436,794.57874,784.10254,808.68134,936.4103
1694130832.06,768.3883,792.96704,784.10254,803.0403,1158.4249
1694130832.0609999,783.2967,784.10254,784.5055,795.38464,814.7253
1694130832.0609999,794.9817,787.72894,802.6374,803.0403,629.7802
1694130832.1660001,784.10254,791.75824,811.50183,800.2198,863.8828
1694130832.167,784.10254,799.011,801.4286,794.17584,742.6007
1694130832.168,798.60803,801.4286,801.8315,798.60803,567.72894
1694130832.169,801.4286,800.2198,805.8608,808.68134,602.381
1694130832.1699998,793.36993,806.6667,794.17584,816.337,696.26373
1694130832.171,790.9524,803.44324,787.326,801.4286,786.1172
1694130832.172,782.0879,791.3553,790.9524,796.99634,802.6374
1694130832.172,783.69965,790.54944,791.3553,788.1319,771.2088
1694130832.1729999,786.1172,793.36993,792.96704,796.5934,948.9011
1694130832.174,790.54944,788.5348,788.5348,807.47253,820.3663
1694130832.175,801.4286,794.17584,779.2674,816.7399,644.2857
1694130832.175,801.02563,803.44324,785.31134,820.7692,709.5604
1694130832.177,799.011,793.7729,798.20514,801.8315,677.72894
1694130832.178,797.3993,788.93774,800.6227,792.5641,679.7436
1694130832.18,792.1612,797.3993,796.1905,795.78754,703.5165
1694130832.18,794.57874,796.5934,786.9231,796.5934,805.4579
1694130832.181,801.4286,799.81683,784.10254,793.36993,880.40295
1694130832.1820002,786.9231,805.8608,790.14655,794.57874,849.3773
1694130832.183,790.9524,797.8022,789.34064,799.81683,736.9597
1694130832.184,808.68134,795.38464,787.326,801.8315,869.5238
1694130832.184,805.05493,799.81683,793.36993,811.50183,1201.9414
1694130832.185,803.8461,805.8608,790.54944,804.2491,929.9634
1694130832.185,805.4579,809.4872,788.5348,801.02563,682.1612
1694130832.1859999,787.72894,805.4579,797.3993,803.0403,775.64105
1694130832.219,783.69965,807.0696,792.5641,792.1612,689.011
1694130832.22,806.26373,812.3077,776.8498,796.99634,669.2674
1694130832.225,813.5165,807.8755,768.7912,792.5641,766.3736
1694130832.2259998,807.8755,802.6374,785.7143,793.7729,810.696
1694130832.2259998,803.44324,801.02563,800.2198,805.05493,744.21246
1694130832.227,785.7143,802.6374,790.14655,807.47253,767.1795
1694130832.227,787.326,798.20514,786.52014,817.9487,883.22345
1694130832.228,803.44324,800.6227,792.1612,811.50183,1093.5531
1694130832.2289999,801.8315,810.696,791.75824,796.99634,973.0769
1694130832.232,794.17584,811.0989,791.3553,785.7143,670.87915
1694130832.233,783.69965,806.26373,790.14655,788.5348,610.84247
1694130832.234,788.1319,796.99634,784.90845,795.78754,641.8681
1694130832.264,798.20514,794.9817,781.685,797.3993,700.293
1694130832.2649999,797.3993,794.57874,783.69965,809.0842,704.3223
1694130832.2659998,789.7436,790.54944,786.1172,801.8315,697.47253
1694130832.267,780.4762,796.1905,793.7729,802.23444,717.2161
1694130832.267,783.69965,805.05493,792.96704,806.6667,739.3773
1694130832.268,771.2088,798.20514,786.1172,800.2198,783.69965
1694130832.268,758.71796,785.7143,787.72894,801.8315,1042.381
1694130832.269,781.28204,786.9231,799.81683,799.81683,1219.2675
1694130832.2700002,803.0403,798.60803,800.2198,804.65204,871.9414
1694130832.2700002,790.54944,796.1905,783.69965,800.6227,693.44324
1694130832.2710001,772.01465,778.86444,783.2967,784.5055,894.90845
1694130832.2710001,773.22345,788.5348,794.57874,783.69965,850.989
1694130832.311,793.7729,798.60803,802.23444,792.1612,637.8388
1694130832.312,794.17584,790.54944,795.78754,791.3553,655.16486
1694130832.313,780.87915,796.1905,787.326,790.14655,726.4835
1694130832.313,771.6117,796.99634,790.14655,789.7436,721.6484
1694130832.318,782.49084,796.1905,792.5641,787.72894,662.01465
1694130832.318,805.4579,797.3993,790.9524,796.5934,776.4469
1694130832.319,794.57874,790.54944,786.1172,805.4579,1053.663
1694130832.32,782.8938,799.011,778.46155,794.9817,844.5421
1694130832.32,793.36993,802.6374,779.2674,789.7436,675.7143
1694130832.3209999,799.41394,802.23444,797.3993,796.5934,783.2967
1694130832.3209999,796.5934,799.41394,809.4872,793.36993,893.69965
1694130832.3219998,798.20514,800.2198,807.47253,795.78754,765.9707
1694130832.373,799.81683,803.8461,801.02563,805.8608,674.90845
1694130832.374,801.8315,799.81683,801.8315,815.5311,744.21246
1694130832.375,814.7253,800.6227,807.8755,815.5311,801.8315
1694130832.376,812.71063,792.5641,801.4286,790.14655,766.3736
1694130832.3769999,788.1319,788.93774,791.3553,781.28204,712.7839
1694130832.3769999,778.0586,799.41394,790.9524,796.1905,865.4945
1694130832.3779998,781.685,800.2198,790.9524,803.0403,951.31866
1694130832.379,782.49084,791.75824,788.1319,794.57874,853.8095
1694130832.379,790.14655,789.34064,794.57874,801.02563,717.619
1694130832.38,787.72894,792.96704,799.81683,812.71063,855.82416
1694130832.38,796.99634,805.4579,796.1905,810.293,1028.6813
1694130832.381,800.6227,813.1135,795.78754,799.011,804.65204
1694130832.4129999,793.36993,803.8461,790.9524,796.5934,774.83514
1694130832.414,787.72894,797.3993,791.75824,802.23444,877.98535
1694130832.415,781.685,799.011,798.20514,812.71063,766.77655
1694130832.416,783.2967,793.36993,788.5348,800.6227,634.61536
1694130832.4169998,789.34064,794.9817,782.8938,800.2198,726.8865
1694130832.418,793.36993,798.20514,786.1172,794.9817,871.53845
1694130832.4220002,793.7729,790.54944,790.9524,774.43225,802.23444
1694130832.4220002,799.41394,789.34064,799.41394,785.7143,699.4872
1694130832.423,782.0879,796.1905,803.8461,799.011,692.6374
1694130832.423,778.86444,800.2198,801.8315,791.75824,770.40295
1694130832.424,792.1612,799.011,797.8022,790.9524,739.7802
1694130832.424,793.36993,797.3993,791.75824,801.4286,644.2857
1694130832.447,798.60803,797.3993,793.7729,810.293,709.9634
1694130832.448,792.96704,795.38464,795.38464,807.47253,956.1539
1694130832.448,796.5934,796.99634,793.36993,812.3077,837.28937
1694130832.449,806.26373,794.57874,794.17584,812.71063,662.01465
1694130832.449,799.41394,791.75824,782.0879,805.4579,784.5055
1694130832.4499998,792.5641,794.9817,785.7143,803.8461,837.6923
1694130832.4499998,793.36993,795.78754,798.60803,794.9817,761.53845
1694130832.451,789.7436,796.5934,799.011,792.5641,778.46155
1694130832.451,790.9524,796.99634,801.4286,794.17584,963.00366
1694130832.451,809.0842,794.9817,799.81683,809.89014,1187.8389
1694130832.452,807.8755,784.90845,789.7436,796.5934,857.03296
1694130832.452,789.34064,786.1172,782.0879,782.49084,680.14655
1694130832.479,785.7143,797.8022,786.1172,801.02563,782.49084
1694130832.48,797.3993,804.2491,791.3553,796.5934,751.4652
1694130832.481,805.4579,801.02563,789.34064,797.8022,738.1685
1694130832.481,801.8315,798.20514,786.1172,819.5604,746.63007
1694130832.4819999,798.20514,799.81683,788.93774,805.05493,785.7143
1694130832.4819999,800.6227,798.20514,796.1905,795.78754,855.82416
1694130832.483,795.38464,796.5934,794.9817,803.0403,872.74725
1694130832.483,788.5348,800.2198,794.17584,800.2198,801.4286
1694130832.486,791.3553,799.41394,801.8315,809.4872,1026.2638
1694130832.487,803.44324,811.50183,813.91943,819.9634,951.7216
1694130832.487,799.81683,811.9048,801.8315,810.696,634.61536
1694130832.488,789.34064,797.3993,788.1319,798.60803,679.7436
1694130832.535,790.9524,792.1612,790.54944,786.52014,777.25275
1694130832.536,791.75824,793.36993,792.5641,791.3553,685.78754
1694130832.537,787.326,798.60803,794.57874,803.44324,623.3333
1694130832.537,782.8938,794.57874,787.326,817.5458,654.7619
1694130832.5379999,788.5348,786.52014,784.10254,826.0073,712.381
1694130832.539,800.2198,787.72894,785.7143,798.20514,811.0989
1694130832.539,804.2491,794.57874,781.685,775.2381,747.03296
1694130832.54,803.0403,796.1905,780.4762,790.9524,908.60803
1694130832.541,800.6227,794.57874,782.8938,811.0989,1261.1721
1694130832.542,790.14655,803.8461,789.34064,807.0696,948.49817
1694130832.543,788.93774,808.2784,800.2198,804.2491,651.13556
1694130832.543,800.6227,801.8315,803.0403,800.2198,818.3516
1694130832.609,803.8461,799.41394,799.41394,802.6374,763.1502
1694130832.61,809.89014,794.9817,796.5934,807.47253,610.4396
1694130832.611,825.6044,794.9817,792.5641,801.8315,651.13556
1694130832.612,801.8315,798.20514,788.93774,803.44324,728.0952
1694130832.613,775.2381,803.0403,787.326,800.2198,710.3663
1694130832.613,783.69965,803.44324,791.75824,802.23444,672.49084
1694130832.614,805.4579,803.0403,796.5934,810.293,773.6264
1694130832.614,806.6667,801.02563,798.20514,819.9634,1041.978
1694130832.615,803.44324,805.4579,797.8022,820.7692,900.9524
1694130832.616,802.23444,800.2198,790.54944,806.26373,692.23444
1694130832.62,806.6667,791.3553,790.54944,802.6374,741.79486
1694130832.621,813.1135,788.1319,790.14655,802.23444,775.64105
1694130832.6430001,796.1905,789.34064,787.72894,807.0696,684.57874
1694130832.644,785.7143,794.9817,790.9524,811.50183,667.6557
1694130832.645,782.0879,793.7729,789.34064,812.3077,758.315
1694130832.6460001,779.2674,790.9524,777.6557,805.4579,770.40295
1694130832.6460001,785.7143,786.9231,788.5348,779.2674,710.3663
1694130832.647,793.36993,786.1172,803.44324,774.83514,727.6923
1694130832.647,797.8022,790.54944,801.02563,798.60803,912.23444
1694130832.648,791.3553,794.9817,796.5934,811.50183,925.5311
1694130832.649,792.96704,799.81683,799.011,798.60803,752.674
1694130832.649,791.3553,794.57874,803.0403,796.5934,647.50916
1694130832.6499999,785.7143,788.5348,796.5934,812.3077,844.94507
1694130832.6499999,790.14655,791.3553,788.5348,815.5311,1018.60803
1694130832.68,792.1612,796.5934,789.34064,802.23444,808.68134
1694130832.681,788.1319,799.011,789.7436,801.4286,723.663
1694130832.682,800.6227,797.3993,780.4762,797.8022,790.9524
1694130832.683,799.81683,797.3993,788.1319,784.5055,730.5128
1694130832.683,786.1172,798.20514,797.8022,790.14655,662.01465
1694130832.684,797.8022,795.38464,796.5934,797.8022,810.293
1694130832.684,792.5641,789.34064,792.96704,803.44324,1009.7436
1694130832.685,776.04395,787.72894,785.7143,797.8022,776.4469
1694130832.685,785.7143,786.52014,789.34064,797.3993,611.2454
1694130832.686,802.6374,790.54944,802.23444,810.696,719.6337
1694130832.687,813.1135,791.3553,799.81683,803.44324,850.58606
1694130832.687,807.8755,795.78754,795.38464,794.9817,784.90845
1694130832.7180002,793.7729,796.99634,792.5641,792.96704,667.25275
1694130832.719,780.07324,794.17584,796.1905,783.2967,673.69965
1694130832.719,789.7436,802.23444,803.0403,792.96704,733.3333
1694130832.72,788.5348,799.81683,796.99634,810.293,758.71796
1694130832.72,785.31134,796.99634,788.5348,792.5641,711.978
1694130832.721,786.1172,799.41394,790.14655,786.1172,890.4762
1694130832.721,785.31134,792.96704,788.93774,799.41394,1254.7252
1694130832.722,799.41394,787.326,790.9524,788.1319,984.7619
1694130832.722,795.78754,794.17584,793.7729,785.7143,689.81683
1694130832.723,790.54944,792.1612,791.3553,790.9524,848.97437
1694130832.723,797.3993,792.1612,792.96704,796.5934,830.84247
1694130832.724,788.5348,802.6374,792.5641,797.8022,640.2564
1694130832.809,785.31134,806.6667,784.5055,797.8022,634.21246
1694130832.81,785.7143,802.6374,787.72894,807.0696,748.6447
1694130832.811,778.86444,784.90845,792.96704,794.9817,760.7326
1694130832.812,782.0879,781.28204,798.20514,790.9524,672.0879
1694130832.812,796.1905,806.6667,803.8461,812.3077,734.94507
1694130832.813,790.54944,813.91943,791.3553,805.4579,882.4176
1694130832.8140001,787.326,804.2491,790.14655,792.96704,849.3773
1694130832.815,796.5934,808.2784,801.02563,802.6374,774.0293
1694130832.815,787.326,802.23444,797.3993,799.81683,768.7912
1694130832.816,789.34064,792.96704,789.7436,799.011,1021.8315
1694130832.817,786.9231,796.1905,780.87915,790.9524,871.9414
1694130832.8179998,787.72894,794.9817,788.5348,784.10254,647.9121
1694130832.8460002,794.57874,796.99634,794.17584,780.87915,740.58606
1694130832.8470001,810.696,796.99634,786.52014,782.49084,727.6923
1694130832.851,799.41394,792.96704,799.81683,793.7729,627.76556
1694130832.852,782.49084,794.9817,807.47253,796.99634,585.8608
1694130832.853,788.5348,799.41394,802.23444,792.96704,714.3956
1694130832.854,791.75824,803.44324,798.20514,799.81683,864.68866
1694130832.855,781.28204,798.20514,790.54944,807.8755,832.0513
1694130832.856,778.46155,789.34064,781.685,795.38464,732.52747
1694130832.8569999,791.75824,791.3553,775.64105,796.5934,894.10254
1694130832.8569999,805.4579,804.65204,792.96704,798.60803,918.2784
1694130832.8579998,809.4872,796.99634,800.6227,796.1905,713.9927
1694130832.859,792.96704,786.9231,798.20514,795.78754,644.2857
1694130832.893,780.87915,792.1612,803.44324,802.23444,845.34796
1694130832.894,795.38464,796.99634,803.8461,814.3223,1070.989
1694130832.894,801.8315,801.8315,800.2198,806.26373,821.5751
1694130832.895,790.9524,802.6374,793.7729,794.17584,704.7253
1694130832.895,785.7143,805.05493,790.14655,792.5641,736.1539
1694130832.896,790.14655,802.23444,791.3553,801.8315,730.10986
1694130832.896,793.7729,801.8315,798.20514,803.8461,690.6227
1694130832.8969998,795.38464,803.44324,807.47253,813.1135,700.696
1694130832.8969998,799.81683,801.4286,802.6374,828.022,1009.7436
1694130832.8979998,796.5934,795.78754,794.57874,818.7546,864.68866
1694130832.8990002,800.2198,802.6374,801.8315,800.6227,573.36993
1694130832.8990002,796.1905,802.6374,806.26373,780.07324,723.663
1694130832.941,788.1319,790.9524,801.4286,776.8498,787.72894
1694130832.9420002,796.1905,790.14655,798.20514,782.8938,691.02563
1694130832.943,783.69965,787.72894,794.57874,783.69965,709.15753
1694130832.943,770.0,794.17584,794.9817,784.10254,686.1905
1694130832.947,788.93774,805.05493,806.26373,791.3553,691.8315
1694130832.948,803.0403,797.8022,805.8608,803.8461,796.1905
1694130832.949,783.69965,784.90845,790.9524,794.9817,847.3626
1694130832.949,778.46155,792.1612,784.10254,786.1172,919.0842
1694130832.95,788.93774,803.0403,782.0879,787.326,822.7839
1694130832.95,792.96704,799.81683,781.28204,778.0586,707.5458
1694130832.951,790.54944,800.2198,789.7436,783.69965,696.26373
1694130832.952,791.3553,799.81683,787.72894,802.23444,954.5421
1694130832.992,777.25275,797.8022,786.52014,822.7839,1198.7179
1694130832.993,785.7143,804.65204,790.14655,822.381,833.663
1694130832.994,807.8755,799.41394,791.75824,812.71063,649.12085
1694130832.9950001,815.12823,792.96704,807.47253,821.5751,826.8132
1694130832.9950001,812.3077,800.6227,811.0989,817.5458,822.381
1694130832.996,797.8022,803.8461,790.54944,786.52014,807.0696
1694130832.997,786.1172,793.36993,779.2674,768.7912,835.2747
1694130832.997,791.3553,788.1319,781.28204,786.1172,1077.4359
1694130832.9980001,794.57874,794.9817,779.2674,788.5348,933.5897
1694130832.999,779.67035,793.7729,782.8938,774.83514,692.6374
1694130832.999,788.93774,801.02563,800.2198,786.9231,738.97437
1694130833.0,792.96704,801.8315,799.011,795.38464,737.3626
1694130833.0419998,781.685,796.1905,791.3553,786.1172,685.78754
1694130833.043,790.54944,797.3993,801.4286,794.9817,674.5055
1694130833.044,795.78754,783.69965,807.47253,807.47253,768.3883
1694130833.044,792.5641,786.1172,799.81683,803.0403,841.31866
1694130833.0449998,800.6227,798.60803,792.1612,797.3993,809.0842
1694130833.0460002,794.57874,806.26373,789.7436,789.34064,719.2308
1694130833.05,795.38464,809.0842,792.5641,791.75824,882.8205
1694130833.051,781.28204,792.1612,796.5934,796.5934,1271.2454
1694130833.052,777.25275,797.8022,798.60803,789.7436,1029.8901
1694130833.052,784.5055,801.4286,796.1905,791.75824,684.9817
1694130833.053,793.7729,787.326,795.78754,790.9524,816.337
1694130833.053,799.41394,790.9524,794.57874,790.9524,772.01465
1694130833.111,792.1612,792.5641,781.685,798.20514,677.326
1694130833.112,787.326,785.7143,780.4762,799.41394,752.27106
1694130833.113,776.4469,792.5641,791.3553,796.99634,779.67035
1694130833.1139998,784.5055,797.8022,792.96704,800.2198,716.0073
1694130833.115,795.78754,792.1612,801.4286,790.54944,697.47253
1694130833.116,801.8315,796.1905,807.8755,799.81683,826.0073
1694130833.116,802.6374,796.5934,802.6374,815.9341,1109.6703
1694130833.1169999,792.5641,787.326,797.8022,796.99634,916.26373
1694130833.118,794.57874,796.99634,805.8608,791.75824,619.707
1694130833.119,797.3993,799.81683,806.6667,800.2198,663.6264
1694130833.119,801.02563,794.17584,795.78754,801.02563,817.5458
1694130833.12,807.8755,810.293,796.99634,801.02563,732.52747
1694130833.122,802.6374,805.4579,797.8022,793.36993,683.7729
1694130833.1230001,793.7729,796.5934,781.685,795.78754,697.47253
1694130833.124,801.4286,800.6227,778.0586,811.0989,691.4286
1694130833.125,807.0696,797.8022,792.5641,808.2784,687.3993
1694130833.1260002,809.89014,790.14655,797.3993,807.47253,700.293
1694130833.1260002,813.1135,794.57874,798.20514,815.12823,871.9414
1694130833.127,812.71063,804.2491,804.2491,807.8755,897.326
1694130833.128,802.6374,796.99634,800.2198,799.011,751.8681
1694130833.133,784.5055,787.326,792.5641,802.6374,652.74725
1694130833.133,782.49084,783.2967,793.36993,808.68134,931.978
1694130833.134,788.1319,784.90845,783.69965,821.1722,1164.4689
1694130833.135,791.3553,789.34064,775.2381,806.26373,754.2857
1694130833.168,790.54944,797.3993,784.90845,787.326,616.08057
1694130833.169,788.93774,801.8315,792.1612,794.17584,755.89746
1694130833.1699998,782.49084,807.0696,794.9817,811.50183,695.4579
1694130833.171,788.1319,809.0842,793.7729,807.8755,666.04395
1694130833.172,790.14655,793.7729,799.81683,798.20514,689.41394
1694130833.172,787.326,784.10254,801.02563,805.05493,706.337
1694130833.1729999,792.5641,794.57874,798.20514,812.71063,734.5421
1694130833.174,794.17584,796.5934,796.1905,816.7399,718.022
1694130833.174,791.75824,792.5641,796.1905,807.8755,740.989
1694130833.175,792.1612,792.96704,797.8022,809.89014,972.674
1694130833.175,796.99634,798.60803,790.54944,802.6374,811.0989
1694130833.176,800.2198,800.6227,793.7729,807.0696,603.1868
1694130833.202,789.7436,796.1905,802.6374,816.337,778.86444
1694130833.203,784.10254,789.34064,798.60803,798.20514,853.8095
1694130833.204,791.3553,792.96704,791.75824,791.75824,693.8461
1694130833.204,791.75824,798.20514,779.67035,805.4579,631.39197
1694130833.205,784.5055,794.9817,781.28204,791.3553,710.7692
1694130833.205,793.36993,800.2198,795.78754,785.7143,761.13556
1694130833.206,786.9231,799.81683,793.36993,788.1319,792.96704
1694130833.206,780.4762,786.9231,791.75824,774.83514,791.3553
1694130833.207,788.93774,785.7143,793.7729,788.1319,882.4176
1694130833.207,794.57874,803.0403,799.81683,806.26373,1106.044
1694130833.212,784.90845,807.47253,803.8461,792.96704,865.4945
1694130833.212,790.14655,796.5934,800.6227,781.685,680.14655
1694130833.2499998,805.4579,792.5641,798.60803,795.78754,767.1795
1694130833.2510002,801.8315,799.011,801.02563,810.696,664.83514
1694130833.252,785.7143,794.57874,799.41394,793.7729,596.337
1694130833.252,784.90845,791.3553,796.1905,779.67035,720.84247
1694130833.253,790.54944,789.34064,792.5641,793.7729,834.4689
1694130833.253,784.5055,790.9524,788.5348,811.50183,804.65204
1694130833.2540002,785.31134,793.36993,789.7436,794.17584,803.8461
1694130833.255,796.1905,790.9524,790.54944,786.52014,792.96704
1694130833.255,801.02563,797.8022,792.5641,805.8608,1024.249
1694130833.256,789.7436,802.23444,790.54944,807.47253,996.04395
1694130833.257,793.36993,801.4286,786.1172,797.8022,719.2308
1694130833.258,789.34064,797.3993,784.90845,798.60803,687.8022
1694130833.2870002,784.5055,795.38464,789.34064,803.44324,709.5604
1694130833.288,796.1905,794.57874,800.6227,801.8315,707.5458
1694130833.289,792.5641,793.36993,802.6374,793.7729,717.619
1694130833.289,794.57874,788.5348,800.2198,793.7729,751.4652
1694130833.29,793.7729,787.72894,797.8022,800.6227,749.0476
1694130833.2910001,787.326,800.6227,796.1905,809.4872,801.8315
1694130833.2910001,797.3993,810.696,795.78754,816.337,758.71796
1694130833.292,799.011,797.8022,794.57874,811.9048,985.16486
1694130833.292,791.3553,794.57874,789.7436,817.1429,1362.7106
1694130833.293,791.3553,803.44324,785.31134,801.4286,1047.619
1694130833.2940001,794.17584,792.5641,789.34064,788.1319,702.71063
1694130833.2940001,780.4762,790.14655,790.54944,785.31134,714.7985
1694130833.353,788.5348,809.0842,792.5641,781.28204,704.3223
1694130833.3539999,805.05493,811.9048,794.17584,794.17584,705.12823
1694130833.3539999,785.31134,799.41394,794.9817,797.3993,726.8865
1694130833.355,781.28204,799.41394,804.65204,784.10254,733.3333
1694130833.355,789.7436,803.0403,804.65204,780.87915,705.5311
1694130833.356,796.5934,800.6227,802.6374,785.7143,769.59705
1694130833.356,810.696,802.23444,801.02563,793.36993,888.86444
1694130833.3569999,811.0989,801.8315,797.8022,806.6667,1087.1062
1694130833.358,791.3553,802.6374,795.38464,801.8315,950.9158
1694130833.358,787.326,800.2198,794.9817,783.2967,672.49084
1694130833.359,788.93774,799.011,798.20514,794.57874,739.7802
1694130833.359,794.9817,806.26373,803.0403,811.50183,861.8681
1694130833.388,794.9817,803.0403,792.1612,805.4579,744.61536
1694130833.389,788.1319,799.81683,787.72894,790.14655,640.2564
1694130833.389,796.99634,803.0403,796.5934,782.8938,657.1795
1694130833.39,786.52014,797.3993,797.8022,798.60803,684.57874
1694130833.391,802.6374,803.0403,803.44324,818.7546,743.00366
1694130833.391,806.6667,809.0842,807.8755,812.71063,746.2271
1694130833.392,787.326,792.5641,801.4286,807.47253,879.19415
1694130833.392,784.10254,792.96704,791.75824,808.68134,1188.2417
1694130833.393,790.14655,801.02563,798.20514,789.7436,887.6557
1694130833.393,799.011,791.3553,803.44324,786.52014,687.3993
1694130833.3939998,794.9817,786.9231,788.5348,798.20514,881.6117
1694130833.395,794.57874,798.20514,788.1319,799.41394,795.38464
1694130833.427,799.011,804.65204,790.9524,799.81683,664.83514
1694130833.428,799.81683,803.8461,793.7729,813.91943,717.2161
1694130833.432,796.5934,801.4286,800.2198,812.3077,960.58606
1694130833.4329998,790.14655,799.011,792.1612,800.6227,936.4103
1694130833.4329998,786.1172,801.02563,791.3553,796.1905,672.8938
1694130833.4339998,786.52014,794.57874,800.6227,792.1612,709.15753
1694130833.4350002,786.1172,791.75824,799.011,796.1905,1021.4286
1694130833.4350002,778.46155,801.4286,794.9817,798.60803,884.0293
1694130833.436,789.34064,804.2491,792.96704,801.02563,704.3223
1694130833.437,802.23444,799.81683,797.3993,799.41394,749.85345
1694130833.4380002,788.5348,799.011,797.8022,799.41394,755.4945
1694130833.4390001,780.87915,795.38464,794.17584,801.4286,761.13556
1694130833.524,787.326,797.3993,798.20514,805.05493,703.5165
1694130833.526,786.52014,802.6374,795.38464,806.6667,805.8608
1694130833.527,789.7436,801.8315,783.2967,797.3993,891.685
1694130833.527,796.1905,794.57874,786.52014,790.54944,677.72894
1694130833.528,804.2491,792.1612,790.9524,801.4286,582.23444
1694130833.529,796.1905,788.5348,792.1612,805.4579,796.1905
1694130833.529,790.54944,781.685,802.23444,801.4286,931.1722
1694130833.53,795.38464,793.36993,802.6374,805.8608,802.6374
1694130833.5310001,794.57874,810.293,799.41394,794.57874,658.3883
1694130833.532,792.5641,812.71063,801.4286,792.5641,815.9341
1694130833.532,788.93774,805.4579,796.5934,789.7436,973.47986
1694130833.533,805.05493,801.02563,791.75824,784.10254,761.53845
1694130833.5740001,813.91943,796.1905,791.3553,794.57874,679.7436
1694130833.576,793.36993,792.96704,795.38464,796.99634,698.2784
1694130833.576,792.96704,787.326,795.38464,795.78754,659.59705
1694130833.577,794.17584,791.75824,789.34064,786.52014,654.7619
1694130833.582,780.87915,795.78754,791.3553,784.90845,751.4652
1694130833.5830002,787.72894,797.3993,799.41394,795.38464,1014.17584
1694130833.584,796.99634,803.8461,799.41394,793.7729,860.2564
1694130833.584,790.14655,804.65204,782.8938,783.2967,590.293
1694130833.585,781.685,786.52014,782.49084,784.5055,688.20514
1694130833.586,789.34064,789.34064,793.7729,806.26373,865.4945
1694130833.5870001,792.5641,809.89014,796.5934,804.2491,740.989
1694130833.589,788.5348,804.65204,792.1612,781.685,601.1722
1694130833.591,780.87915,798.60803,788.93774,782.8938,674.5055
1694130833.592,779.67035,794.9817,786.1172,794.17584,736.9597
1694130833.592,779.2674,796.1905,787.72894,787.72894,744.61536
1694130833.593,792.1612,798.60803,790.9524,784.10254,764.35895
1694130833.5939999,788.93774,793.7729,787.72894,791.75824,755.4945
1694130833.5939999,778.86444,788.5348,782.8938,790.9524,740.989
1694130833.595,791.3553,793.7729,787.326,786.9231,754.68866
1694130833.595,786.52014,799.011,793.7729,794.17584,774.0293
1694130833.596,781.28204,796.5934,794.17584,797.3993,959.3773
1694130833.597,788.1319,794.57874,797.3993,801.4286,1243.0403
1694130833.598,784.90845,800.2198,799.011,798.20514,964.21246
1694130833.598,779.67035,809.0842,794.57874,786.52014,666.8498
1694130833.629,789.7436,801.8315,797.3993,782.49084,771.6117
1694130833.631,800.6227,789.34064,801.02563,792.96704,785.31134
1694130833.632,797.8022,796.1905,799.011,789.7436,707.5458
1694130833.633,798.20514,797.3993,798.20514,786.9231,670.87915
1694130833.633,790.9524,788.5348,790.9524,784.5055,707.9487
1694130833.6339998,790.14655,796.5934,783.69965,793.36993,781.685
1694130833.638,784.10254,800.2198,793.36993,807.47253,810.696
1694130833.6390002,784.10254,796.99634,797.3993,805.05493,750.2564
1694130833.64,788.5348,799.011,797.3993,809.4872,953.73627
1694130833.64,787.326,803.0403,801.02563,801.4286,882.01465
1694130833.641,791.3553,798.20514,801.4286,789.34064,645.89746
1694130833.641,797.8022,790.9524,796.5934,794.57874,736.1539
1694130833.664,811.9048,795.38464,791.3553,799.011,802.23444
1694130833.665,806.6667,793.36993,782.8938,801.4286,709.5604
1694130833.667,783.69965,798.20514,782.0879,801.02563,658.3883
1694130833.668,778.86444,801.8315,796.1905,794.57874,757.9121
1694130833.669,786.1172,795.38464,808.2784,807.47253,850.18317
1694130833.67,790.14655,794.9817,802.23444,812.3077,821.978
1694130833.671,786.1172,803.44324,794.17584,792.1612,690.6227
1694130833.672,797.3993,803.8461,790.54944,788.1319,929.9634
1694130833.6729999,806.26373,800.6227,793.36993,806.26373,1323.6263
1694130833.6739998,797.8022,797.8022,796.5934,802.6374,942.0513
1694130833.675,796.5934,792.96704,790.54944,805.05493,624.94507
1694130833.677,805.8608,794.9817,782.8938,808.68134,704.3223
1694130833.7129998,800.6227,804.2491,788.93774,800.2198,653.1502
1694130833.714,782.0879,807.0696,794.17584,798.20514,599.9634
1694130833.7150002,790.54944,803.0403,799.41394,802.6374,721.2454
1694130833.7150002,786.52014,799.81683,807.0696,809.0842,889.2674
1694130833.716,779.67035,796.99634,799.81683,803.44324,757.9121
1694130833.716,792.5641,801.8315,796.1905,801.02563,702.3077
1694130833.716,799.41394,801.4286,794.17584,799.41394,809.89014
1694130833.717,805.05493,791.75824,790.54944,811.0989,1035.9341
1694130833.72,790.9524,793.7729,787.72894,804.2491,907.8022
1694130833.721,783.2967,789.7436,787.326,780.87915,670.07324
1694130833.721,777.6557,788.5348,783.2967,786.52014,642.27106
1694130833.722,772.4176,799.011,779.2674,798.20514,662.8205
1694130833.7510002,785.31134,793.36993,789.34064,804.2491,734.1392
1694130833.7510002,784.90845,790.14655,795.38464,800.6227,763.5531
1694130833.752,778.86444,795.78754,795.38464,789.34064,865.09155
1694130833.753,789.34064,794.17584,796.1905,786.52014,817.9487
1694130833.753,794.57874,785.7143,791.75824,798.20514,707.1429
1694130833.754,796.1905,784.10254,790.14655,796.5934,740.58606
1694130833.755,784.5055,791.75824,792.1612,797.3993,888.0586
1694130833.755,780.87915,793.36993,791.3553,816.337,1255.9341
1694130833.756,786.52014,799.011,781.28204,818.3516,1049.2307
1694130833.756,775.64105,797.8022,773.6264,786.52014,666.04395
1694130833.757,778.0586,793.7729,783.2967,776.4469,707.5458
1694130833.757,798.60803,790.54944,792.5641,775.64105,708.7546
1694130833.855,795.38464,797.3993,794.57874,774.0293,657.5824
1694130833.856,786.1172,794.17584,786.9231,781.685,611.6484
1694130833.8569999,787.72894,786.1172,786.52014,782.49084,635.82416
1694130833.8579998,790.14655,792.96704,790.14655,787.72894,705.5311
1694130833.859,792.96704,798.20514,793.36993,796.99634,718.022
1694130833.86,794.17584,794.57874,796.1905,787.326,800.2198
1694130833.86,783.69965,788.1319,789.7436,790.9524,1087.9121
1694130833.8609998,781.28204,796.5934,784.90845,799.81683,969.45056
1694130833.8620002,786.1172,802.23444,786.1172,792.1612,675.7143
1694130833.8630002,790.54944,798.20514,789.7436,790.9524,709.5604
1694130833.867,797.8022,800.6227,798.20514,794.57874,798.20514
1694130833.867,790.14655,794.9817,801.8315,792.1612,688.60803
1694130833.889,786.9231,788.1319,792.96704,795.38464,599.15753
1694130833.8899999,779.67035,788.93774,787.72894,794.17584,655.16486
1694130833.891,786.1172,786.52014,794.57874,790.54944,733.73627
1694130833.892,803.0403,791.75824,794.9817,787.326,740.989
1694130833.892,793.36993,798.60803,799.41394,796.99634,686.5934
1694130833.892,796.5934,796.1905,803.0403,803.8461,844.1392
1694130833.893,792.5641,790.9524,803.0403,803.44324,989.19415
1694130833.893,785.7143,788.5348,807.47253,808.2784,843.3333
1694130833.894,798.20514,794.17584,809.89014,801.8315,767.1795
1694130833.894,796.99634,797.8022,809.89014,791.75824,831.2454
1694130833.895,789.34064,796.5934,807.0696,784.10254,783.2967
1694130833.895,784.90845,796.1905,803.44324,773.6264,701.50183
1694130833.901,792.96704,797.8022,796.1905,774.43225,734.1392
1694130833.9020002,812.71063,796.99634,792.1612,792.96704,987.98535
1694130833.903,812.3077,796.99634,794.9817,804.2491,1023.8461
1694130833.904,807.47253,796.99634,797.8022,796.1905,731.31866
1694130833.904,790.54944,790.14655,790.9524,786.9231,758.315
1694130833.905,782.0879,793.7729,791.3553,806.26373,1003.2967
1694130833.905,788.93774,790.54944,802.23444,819.9634,871.13556
1694130833.906,785.31134,786.9231,799.81683,790.54944,662.4176
1694130833.906,779.2674,797.8022,794.9817,784.90845,693.8461
1694130833.907,775.64105,796.99634,796.5934,803.0403,944.0659
1694130833.907,776.8498,793.7729,795.78754,800.6227,884.83514
1694130833.907,781.28204,801.4286,794.17584,794.17584,695.4579
1694130833.952,792.5641,797.3993,782.0879,790.9524,690.6227
1694130833.9529998,784.10254,782.49084,781.28204,794.57874,744.21246
1694130833.9539998,780.07324,774.83514,788.93774,790.9524,689.41394
1694130833.9539998,775.64105,787.326,791.3553,786.52014,691.02563
1694130833.9550002,768.7912,794.17584,792.96704,782.0879,803.44324
1694130833.9550002,782.0879,786.9231,792.5641,790.9524,828.8278
1694130833.956,794.9817,790.9524,792.5641,797.3993,841.31866
1694130833.956,785.7143,795.38464,790.9524,796.5934,766.3736
1694130833.957,783.2967,790.54944,786.52014,796.5934,885.2381
1694130833.957,790.14655,794.9817,790.9524,797.8022,1185.0183
1694130833.9580002,788.1319,803.0403,799.011,805.05493,910.6227
1694130833.9580002,788.93774,794.9817,801.8315,811.0989,676.9231
1694130833.994,789.34064,790.14655,798.60803,802.23444,729.304
1694130833.9950001,791.75824,798.20514,792.5641,803.44324,757.1062
1694130833.9950001,787.72894,790.54944,790.54944,813.5165,724.4689
1694130833.996,793.7729,795.78754,797.8022,798.20514,719.6337
1694130833.996,803.0403,808.2784,803.44324,784.5055,802.23444
1694130833.997,792.5641,806.6667,798.60803,782.0879,742.6007
1694130833.997,792.96704,802.23444,797.8022,784.90845,678.93774
1694130833.9980001,795.38464,797.3993,805.8608,795.38464,704.7253
1694130833.9980001,802.23444,798.60803,801.4286,807.8755,946.8865
1694130833.9980001,797.3993,804.65204,796.1905,809.4872,820.3663
1694130833.999,779.67035,805.05493,793.36993,790.14655,587.47253
1694130833.999,784.5055,807.0696,787.72894,781.28204,677.72894
1694130834.035,788.5348,803.44324,794.9817,789.7436,739.7802
1694130834.036,780.87915,796.99634,801.4286,806.6667,729.304
1694130834.04,782.0879,793.7729,796.5934,806.26373,668.86444
1694130834.04,778.46155,797.3993,795.38464,777.6557,691.8315
1694130834.04,775.2381,803.44324,795.38464,767.98535,743.8095
1694130834.041,795.78754,798.20514,796.99634,780.07324,763.5531
1694130834.041,806.26373,799.011,796.99634,788.1319,805.8608
1694130834.0419998,798.60803,806.26373,801.4286,803.0403,971.8681
1694130834.0419998,784.10254,803.0403,801.8315,813.91943,1024.652
1694130834.044,780.4762,793.7729,791.75824,799.011,749.85345
1694130834.0449998,788.5348,790.9524,792.1612,801.4286,660.80585
1694130834.0449998,792.96704,794.57874,794.17584,811.50183,909.011
1694130834.079,792.5641,800.6227,790.54944,798.20514,941.6484
1694130834.08,792.96704,802.6374,795.78754,792.96704,675.7143
1694130834.0809999,794.9817,798.60803,804.2491,804.65204,684.9817
1694130834.0809999,788.93774,794.57874,802.23444,797.3993,776.4469
1694130834.0819998,791.75824,794.9817,801.4286,819.9634,787.326
1694130834.0819998,798.20514,794.9817,801.8315,827.619,779.67035
1694130834.0830002,811.50183,792.96704,798.20514,799.41394,737.76556
1694130834.0830002,823.1868,803.0403,803.8461,806.6667,1050.8425
1694130834.084,820.7692,813.91943,804.65204,814.7253,1111.2821
1694130834.084,821.978,808.2784,798.60803,813.5165,778.46155
1694130834.085,818.3516,801.8315,794.57874,815.12823,731.31866
1694130834.085,805.8608,800.6227,790.9524,812.71063,723.663
1694130834.177,798.20514,799.011,799.011,799.81683,651.53845
1694130834.178,799.41394,808.2784,805.05493,804.65204,664.83514
1694130834.1790001,809.89014,807.0696,801.4286,812.3077,728.9011
1694130834.1790001,800.6227,792.5641,803.44324,798.20514,756.7033
1694130834.184,793.7729,796.99634,809.89014,805.4579,722.8571
1694130834.185,801.02563,804.2491,807.0696,804.2491,689.81683
1694130834.1859999,804.65204,806.26373,805.05493,796.99634,956.55676
1694130834.187,806.6667,806.26373,801.4286,808.2784,1255.1282
1694130834.188,804.65204,802.6374,796.5934,800.2198,928.3516
1694130834.188,812.3077,797.8022,790.54944,802.23444,712.381
1694130834.189,795.38464,798.60803,782.8938,806.6667,830.0366
1694130834.19,789.7436,802.23444,792.96704,791.75824,805.4579
1694130834.225,811.50183,809.0842,808.68134,794.9817,693.0403
1694130834.2259998,795.38464,800.2198,805.8608,807.47253,699.89014
1694130834.2259998,791.75824,788.1319,799.81683,809.4872,695.05493
1694130834.227,801.4286,796.5934,804.65204,813.1135,664.0293
1694130834.228,787.72894,806.26373,794.57874,807.8755,666.4469
1694130834.228,786.9231,803.0403,786.1172,796.1905,842.9304
1694130834.2289999,800.6227,799.011,796.5934,812.71063,1083.4799
1694130834.2289999,793.7729,809.0842,805.8608,840.10986,865.4945
1694130834.23,791.75824,809.4872,801.4286,807.47253,640.65936
1694130834.231,805.8608,800.2198,798.60803,783.69965,666.8498
1694130834.231,792.1612,799.011,799.41394,794.57874,782.0879
1694130834.232,778.46155,801.02563,796.5934,784.10254,773.22345
1694130834.233,782.0879,800.2198,795.78754,782.8938,641.8681
1694130834.234,787.326,800.6227,793.7729,784.90845,682.5641
1694130834.234,786.9231,802.23444,787.326,796.1905,770.40295
1694130834.2350001,782.0879,799.011,784.90845,794.17584,733.73627
1694130834.2350001,792.96704,799.41394,793.7729,792.96704,764.35895
1694130834.236,809.4872,792.1612,799.41394,801.8315,919.0842
1694130834.241,792.1612,786.1172,806.26373,798.20514,939.2308
1694130834.241,781.685,795.78754,805.05493,796.5934,794.17584
1694130834.2419999,791.3553,795.38464,796.99634,786.9231,728.9011
1694130834.2419999,783.69965,786.9231,793.36993,782.8938,889.67035
1694130834.243,771.2088,796.5934,794.57874,782.0879,944.4689
1694130834.243,789.34064,796.5934,802.23444,787.72894,660.0
1694130834.273,790.9524,788.1319,805.8608,794.17584,652.3443
1694130834.274,788.5348,794.17584,803.44324,791.3553,844.94507
1694130834.275,790.14655,801.02563,797.3993,786.9231,861.4652
1694130834.275,778.46155,799.41394,786.52014,792.96704,675.31134
1694130834.276,784.90845,790.14655,784.10254,794.17584,645.89746
1694130834.276,789.34064,785.7143,790.14655,799.41394,999.2674
1694130834.277,787.72894,790.54944,791.75824,802.23444,943.2601
1694130834.278,790.54944,794.17584,799.011,801.8315,666.4469
1694130834.278,786.52014,781.28204,796.99634,794.17584,698.2784
1694130834.279,784.10254,782.8938,796.99634,791.3553,882.4176
1694130834.279,772.8205,800.6227,802.6374,796.1905,742.1978
1694130834.28,759.5238,796.5934,800.2198,785.7143,658.7912
1694130834.3470001,786.1172,789.7436,798.20514,785.31134,736.9597
1694130834.348,809.4872,798.20514,801.02563,796.1905,778.0586
1694130834.349,794.9817,803.8461,801.4286,793.36993,698.2784
1694130834.3500001,785.31134,801.4286,797.3993,786.52014,630.989
1694130834.351,794.17584,800.2198,800.6227,790.54944,767.98535
1694130834.352,784.5055,799.81683,799.011,787.72894,855.82416
1694130834.352,790.14655,799.81683,794.17584,784.10254,801.02563
1694130834.353,795.78754,795.38464,795.38464,793.36993,746.63007
1694130834.359,787.326,795.38464,794.9817,798.60803,934.3956
1694130834.36,782.8938,799.81683,782.8938,815.12823,1216.044
1694130834.36,782.8938,800.6227,784.10254,797.3993,983.1502
1694130834.3609998,783.69965,796.5934,790.54944,774.43225,719.2308
1694130834.3980002,780.07324,788.5348,792.5641,778.86444,740.58606
1694130834.4,785.7143,794.17584,797.3993,782.49084,686.5934
1694130834.4,792.1612,805.05493,808.2784,787.72894,644.2857
1694130834.401,784.10254,798.60803,812.3077,795.38464,718.022
1694130834.402,785.31134,782.8938,799.011,792.96704,840.10986
1694130834.402,790.9524,789.34064,791.3553,790.14655,794.17584
1694130834.403,784.10254,802.23444,794.9817,791.3553,816.337
1694130834.404,784.90845,805.05493,800.6227,793.7729,846.1539
1694130834.404,792.96704,801.02563,792.1612,790.14655,1072.6007
1694130834.405,792.1612,798.20514,784.10254,779.2674,1003.69965
1694130834.405,791.3553,800.2198,785.31134,778.0586,669.2674
1694130834.4060001,791.75824,802.6374,795.38464,801.4286,691.02563
1694130834.4350002,798.60803,800.6227,797.8022,815.5311,774.83514
1694130834.436,802.23444,796.1905,790.9524,808.68134,710.3663
1694130834.437,774.83514,790.54944,790.54944,796.5934,716.8132
1694130834.437,778.46155,788.93774,790.54944,789.34064,713.5897
1694130834.4380002,774.43225,794.17584,785.7143,787.72894,653.95605
1694130834.4390001,765.16486,795.78754,779.67035,785.31134,701.0989
1694130834.4390001,777.25275,794.57874,788.5348,787.326,727.28937
1694130834.44,796.1905,794.17584,792.96704,804.2491,917.47253
1694130834.441,804.65204,780.87915,789.34064,817.9487,902.1612
1694130834.442,803.44324,781.685,788.5348,794.9817,665.64105
1694130834.445,797.3993,799.81683,793.7729,774.43225,660.80585
1694130834.446,782.8938,799.41394,796.5934,782.49084,879.19415
1694130834.493,783.2967,791.3553,794.57874,801.02563,1177.3627
1694130834.4940002,788.1319,790.9524,795.78754,801.02563,861.8681
1694130834.4940002,791.3553,798.20514,792.96704,793.36993,574.17584
1694130834.4950001,800.6227,803.0403,787.72894,789.34064,651.9414
1694130834.496,790.54944,796.99634,790.14655,794.57874,669.67035
1694130834.496,785.31134,793.7729,791.75824,801.02563,733.3333
1694130834.497,789.34064,794.57874,788.93774,808.2784,841.7216
1694130834.499,786.52014,790.9524,793.36993,809.89014,786.9231
1694130834.499,788.93774,798.20514,799.011,801.02563,655.9707
1694130834.5,795.38464,797.8022,800.6227,796.1905,609.2308
1694130834.5,814.3223,787.72894,799.81683,792.1612,731.31866
1694130834.501,806.6667,786.1172,803.8461,807.47253,923.91943
1694130834.5249999,792.1612,788.1319,802.6374,788.5348,809.4872
1694130834.526,800.6227,795.38464,788.93774,782.49084,670.87915
1694130834.527,801.4286,799.41394,784.90845,797.8022,773.6264
1694130834.529,792.5641,796.5934,795.78754,803.0403,1056.0806
1694130834.529,787.326,794.9817,802.6374,807.8755,863.47986
1694130834.53,790.14655,794.9817,799.011,798.60803,758.71796
1694130834.5310001,792.5641,798.60803,789.7436,794.17584,884.83514
1694130834.532,800.2198,799.011,789.7436,808.2784,851.39197
1694130834.532,789.34064,797.3993,787.72894,792.5641,817.5458
1694130834.533,798.60803,799.011,780.07324,783.69965,696.26373
1694130834.5340002,799.81683,797.3993,790.54944,793.36993,822.7839
1694130834.535,781.28204,802.23444,794.9817,798.60803,1106.4469
1694130834.5830002,776.4469,799.41394,797.8022,794.9817,834.4689
1694130834.585,772.8205,793.36993,805.05493,795.78754,642.674
1694130834.585,783.2967,799.81683,804.65204,804.2491,749.0476
1694130834.586,796.99634,803.0403,802.6374,794.17584,751.4652
1694130834.586,795.78754,799.011,799.41394,794.17584,649.92676
1694130834.5870001,793.7729,784.5055,792.96704,809.89014,755.4945
1694130834.588,794.9817,773.6264,788.93774,808.2784,1166.8865
1694130834.588,802.6374,787.72894,792.5641,789.7436,1065.348
1694130834.589,788.1319,796.99634,794.17584,782.8938,699.0842
1694130834.589,781.28204,795.38464,792.96704,792.5641,647.1062
1694130834.5900002,801.02563,797.8022,798.60803,798.60803,694.65204
1694130834.591,803.0403,801.02563,801.4286,800.6227,703.91943
1694130834.651,797.3993,799.41394,801.8315,802.23444,691.4286
1694130834.6529999,799.011,796.99634,807.47253,794.9817,697.47253
1694130834.6529999,802.23444,801.8315,800.6227,801.8315,683.7729
1694130834.654,790.9524,800.6227,801.02563,795.78754,643.0769
1694130834.655,783.2967,792.5641,807.47253,788.1319,705.5311
1694130834.656,792.5641,788.93774,803.8461,801.8315,880.0
1694130834.6569998,788.93774,792.1612,805.05493,805.4579,906.99634
1694130834.6579998,785.7143,789.7436,801.02563,792.1612,806.26373
1694130834.6590002,791.3553,785.31134,795.38464,788.1319,754.2857
1694130834.6590002,784.90845,785.7143,790.9524,800.2198,917.8755
1694130834.66,790.14655,793.7729,784.10254,808.68134,1184.2124
1694130834.661,797.8022,795.78754,783.69965,796.99634,909.41394
1694130834.705,796.1905,777.6557,794.57874,788.1319,644.2857
1694130834.7059999,788.93774,778.0586,801.02563,791.75824,686.5934
1694130834.712,788.93774,796.1905,796.99634,799.41394,639.0476
1694130834.7129998,785.7143,799.011,798.20514,801.02563,611.2454
1694130834.714,778.0586,794.9817,801.8315,799.41394,687.3993
1694130834.7150002,787.326,796.99634,796.99634,793.36993,816.337
1694130834.716,794.9817,801.02563,801.4286,784.5055,778.46155
1694130834.717,793.7729,794.57874,801.8315,786.9231,650.7326
1694130834.7180002,781.685,795.38464,798.60803,790.9524,772.4176
1694130834.719,781.685,800.6227,804.2491,801.02563,1013.7729
1694130834.719,791.75824,795.38464,792.1612,802.23444,817.5458
1694130834.72,793.36993,793.7729,778.46155,789.34064,628.97437
1694130834.722,796.5934,794.9817,790.54944,791.75824,751.4652
1694130834.723,797.3993,796.5934,805.8608,801.02563,1016.1905
1694130834.723,792.96704,799.011,802.23444,780.4762,878.7912
1694130834.724,803.44324,787.72894,798.60803,780.4762,705.9341
1694130834.725,809.4872,793.36993,799.011,790.14655,759.12085
1694130834.725,807.8755,806.6667,790.54944,789.7436,782.49084
1694130834.726,814.7253,807.47253,792.5641,806.6667,828.8278
1694130834.726,807.47253,810.293,795.78754,806.6667,804.65204
1694130834.727,799.81683,810.696,794.9817,807.8755,866.7033
1694130834.728,804.2491,802.6374,792.96704,822.7839,1104.4323
1694130834.728,792.1612,799.011,791.3553,810.293,844.94507
1694130834.7289999,781.28204,797.8022,795.78754,803.0403,724.4689
1694130834.759,803.8461,794.57874,796.1905,799.41394,954.1392
1694130834.76,808.68134,798.20514,795.38464,803.0403,838.0952
1694130834.761,802.23444,802.6374,802.23444,793.36993,642.674
1694130834.7619998,785.31134,801.4286,800.6227,781.685,679.7436
1694130834.768,780.07324,801.4286,792.1612,792.1612,780.4762
1694130834.769,789.7436,794.17584,793.36993,794.9817,898.1319
1694130834.769,785.7143,783.2967,793.36993,794.9817,798.20514
1694130834.77,796.5934,785.7143,788.93774,802.23444,671.28204
1694130834.7710001,797.8022,794.57874,792.5641,804.65204,911.4286
1694130834.772,789.34064,794.9817,793.7729,797.3993,861.06226
1694130834.772,791.75824,794.9817,791.3553,810.696,702.71063
1694130834.773,798.20514,799.81683,798.60803,807.8755,720.84247
1694130834.799,814.3223,803.44324,801.8315,792.1612,675.7143
1694130834.8,805.8608,798.20514,797.3993,799.41394,673.2967
1694130834.8009999,780.4762,799.81683,798.60803,797.3993,726.4835
1694130834.8019998,800.6227,807.8755,797.3993,811.50183,798.60803
1694130834.8019998,819.5604,804.2491,798.20514,812.71063,860.65936
1694130834.803,815.12823,798.60803,799.41394,802.6374,831.2454
1694130834.803,813.5165,803.0403,797.3993,804.65204,757.9121
1694130834.804,798.60803,804.65204,799.81683,797.3993,921.50183
1694130834.804,795.38464,801.02563,800.6227,806.26373,1208.7913
1694130834.8049998,809.89014,807.0696,796.1905,802.6374,869.12085
1694130834.8049998,798.20514,807.0696,791.3553,792.96704,573.7729
1694130834.8060002,793.36993,790.14655,795.78754,795.38464,624.94507
1694130834.8609998,815.12823,785.7143,795.78754,791.3553,612.4542
1694130834.8620002,811.50183,795.38464,792.1612,794.17584,652.74725
1694130834.8630002,808.68134,801.4286,797.8022,807.8755,683.36993
1694130834.864,805.4579,808.68134,800.6227,807.0696,676.9231
1694130834.864,796.99634,803.0403,797.3993,794.57874,638.6447
1694130834.865,792.1612,791.75824,791.3553,792.5641,700.696
1694130834.869,795.38464,791.75824,793.36993,798.20514,887.6557
1694130834.869,808.2784,795.78754,800.2198,814.3223,1146.337
1694130834.8700001,811.0989,799.011,793.36993,816.7399,1009.34064
1694130834.8700001,801.4286,802.6374,788.5348,805.05493,641.4652
1694130834.871,793.36993,793.7729,793.36993,800.2198,599.5604
1694130834.872,800.2198,790.54944,794.57874,800.6227,680.14655
1694130834.9129999,810.293,798.20514,795.78754,810.293,676.1172
1694130834.915,807.0696,803.44324,795.38464,811.0989,633.8095
1694130834.916,794.9817,802.23444,796.1905,803.8461,682.1612
1694130834.9169998,795.38464,796.99634,795.78754,803.8461,732.9304
1694130834.92,809.4872,793.36993,792.96704,796.5934,722.4542
1694130834.921,805.05493,802.6374,796.5934,794.17584,773.22345
1694130834.923,788.93774,801.4286,800.2198,808.68134,934.3956
1694130834.923,795.78754,792.96704,801.02563,819.5604,1091.1355
1694130834.924,798.60803,796.5934,793.7729,804.65204,863.47986
1694130834.925,794.57874,799.41394,791.75824,803.44324,711.5751
1694130834.926,798.20514,802.6374,800.2198,805.8608,892.8938
1694130834.927,799.011,799.41394,798.60803,799.011,896.52014
1694130834.976,799.011,796.5934,801.02563,801.02563,659.59705
1694130834.977,809.4872,799.41394,804.65204,800.2198,666.04395
1694130834.978,800.2198,799.81683,797.3993,790.9524,748.6447
1694130834.979,796.1905,796.99634,785.31134,797.8022,738.5714
1694130834.98,808.2784,798.60803,780.4762,801.8315,707.1429
1694130834.98,790.14655,796.99634,787.326,795.38464,764.7619
1694130834.981,780.4762,792.5641,788.93774,806.6667,1007.326
1694130834.983,798.20514,802.6374,794.57874,813.5165,900.9524
1694130834.9889998,799.81683,796.5934,796.99634,797.3993,662.8205
1694130834.99,792.96704,784.90845,787.326,790.54944,748.24176
1694130834.9910002,800.6227,797.8022,783.2967,805.8608,955.7509
1694130834.992,797.8022,795.78754,783.2967,791.3553,774.0293
1694130834.993,790.9524,789.34064,786.52014,784.10254,610.4396
1694130834.994,792.1612,799.81683,792.96704,805.8608,707.9487
1694130834.9950001,792.5641,795.78754,799.011,810.696,755.09155
1694130834.996,798.20514,795.78754,803.44324,793.36993,704.7253
1694130834.997,802.23444,799.81683,800.2198,792.96704,678.5348
1694130834.9980001,789.7436,794.57874,796.5934,805.8608,870.32965
1694130834.999,786.1172,793.36993,801.4286,809.4872,1004.90845
1694130835.0,794.9817,792.96704,798.20514,782.0879,849.7802
1694130835.001,789.7436,791.75824,793.7729,782.0879,672.0879
1694130835.0019999,778.46155,795.78754,792.96704,794.17584,750.2564
1694130835.003,775.2381,797.3993,787.326,792.96704,818.3516
1694130835.003,791.3553,799.41394,785.7143,795.78754,693.44324
1694130835.037,800.2198,795.38464,790.14655,798.20514,759.5238
1694130835.038,795.38464,794.57874,794.57874,801.4286,877.5824
1694130835.039,806.26373,790.9524,797.8022,801.4286,755.09155
1694130835.04,798.60803,779.2674,789.34064,804.65204,633.4066
1694130835.04,786.9231,778.0586,782.49084,802.6374,711.978
1694130835.041,789.34064,781.28204,789.34064,799.011,831.2454
1694130835.041,792.5641,790.54944,794.17584,802.6374,781.28204
1694130835.0419998,790.14655,798.20514,798.20514,807.8755,639.45056
1694130835.043,786.52014,796.5934,798.60803,800.2198,654.7619
1694130835.044,794.57874,795.78754,796.5934,810.696,960.58606
1694130835.048,794.9817,802.23444,799.41394,815.12823,860.2564
1694130835.049,789.34064,791.75824,792.96704,795.78754,679.34064
1694130835.075,777.25275,786.1172,788.1319,799.41394,730.5128
1694130835.076,782.49084,802.6374,793.36993,808.2784,718.8278
1694130835.076,797.3993,809.89014,790.9524,799.011,757.9121
1694130835.077,797.3993,807.8755,788.93774,789.7436,757.1062
1694130835.078,790.54944,805.4579,790.54944,788.5348,805.05493
1694130835.078,784.10254,799.41394,796.1905,790.14655,954.94507
1694130835.079,784.10254,796.5934,801.02563,780.4762,835.6777
1694130835.079,793.36993,798.20514,797.3993,789.7436,733.3333
1694130835.08,803.44324,801.02563,792.5641,808.68134,898.5348
1694130835.08,783.69965,799.81683,792.96704,820.7692,1172.5275
1694130835.0809999,767.98535,794.9817,795.78754,802.6374,845.34796
1694130835.0809999,771.6117,791.75824,796.1905,780.87915,629.7802
1694130835.1590002,780.87915,787.326,786.52014,784.10254,764.35895
1694130835.16,796.1905,792.96704,782.8938,796.5934,759.92676
1694130835.161,790.9524,800.6227,791.75824,805.4579,759.12085
1694130835.161,787.72894,797.8022,792.96704,796.5934,749.45056
1694130835.162,794.17584,801.8315,792.5641,784.5055,736.1539
1694130835.163,781.685,803.0403,789.34064,784.90845,770.0
1694130835.163,783.69965,798.20514,791.75824,782.8938,853.4066
1694130835.164,794.57874,795.78754,791.3553,794.17584,825.6044
1694130835.165,794.17584,791.75824,789.34064,818.7546,1040.7693
1694130835.165,791.3553,785.31134,799.41394,819.9634,973.47986
1694130835.1660001,787.72894,800.2198,799.81683,802.23444,680.54944
1694130835.167,803.8461,809.4872,792.96704,796.5934,740.18317
1694130835.172,801.8315,806.26373,794.9817,797.3993,764.35895
1694130835.1729999,788.5348,803.44324,789.7436,793.7729,705.12823
1694130835.1729999,796.99634,803.8461,792.5641,799.011,657.5824
1694130835.174,787.72894,807.0696,802.23444,807.47253,676.9231
1694130835.175,782.0879,796.99634,803.44324,802.6374,713.1868
1694130835.176,786.1172,788.5348,799.011,807.47253,777.6557
1694130835.177,784.90845,790.9524,793.36993,807.0696,756.7033
1694130835.178,790.54944,790.9524,790.54944,807.47253,936.0073
1694130835.1790001,809.0842,796.5934,796.5934,830.84247,1220.4762
1694130835.18,808.68134,809.4872,798.60803,822.381,873.1502
1694130835.181,796.1905,810.696,800.6227,806.6667,639.85345
1694130835.181,790.14655,795.38464,794.9817,799.81683,861.8681
1694130835.211,786.1172,793.7729,787.72894,795.78754,889.2674
1694130835.212,774.83514,796.99634,788.1319,788.93774,670.87915
1694130835.2129998,772.4176,793.36993,788.1319,784.5055,688.60803
1694130835.2140002,792.1612,800.6227,796.99634,790.9524,785.7143
1694130835.2140002,813.1135,796.1905,802.6374,799.81683,718.8278
1694130835.2150002,817.1429,790.9524,795.78754,799.011,684.57874
1694130835.2150002,784.10254,796.1905,796.99634,789.7436,800.6227
1694130835.216,778.0586,792.5641,799.41394,796.5934,1014.57874
1694130835.216,786.1172,791.3553,799.81683,799.011,897.72894
1694130835.217,775.2381,796.99634,794.17584,787.326,664.83514
1694130835.218,794.17584,798.60803,794.17584,794.57874,741.39197
1694130835.218,808.68134,806.6667,794.57874,805.05493,848.1685
1694130835.283,780.87915,811.50183,787.72894,793.7729,736.9597
1694130835.2849998,782.49084,806.26373,788.1319,776.04395,676.9231
1694130835.289,800.2198,795.78754,790.14655,790.54944,707.9487
1694130835.289,798.20514,797.8022,789.7436,798.20514,673.69965
1694130835.29,792.96704,806.6667,787.72894,796.1905,700.293
1694130835.29,783.2967,797.8022,797.3993,792.5641,745.82416
1694130835.2910001,795.78754,784.10254,796.99634,796.5934,898.1319
1694130835.292,803.8461,797.3993,790.9524,808.2784,1236.5934
1694130835.293,784.5055,808.2784,799.41394,801.8315,927.9487
1694130835.2940001,783.2967,797.3993,794.17584,791.3553,647.9121
1694130835.295,784.10254,790.54944,790.14655,783.2967,784.90845
1694130835.295,777.6557,788.93774,786.9231,779.2674,773.6264
1694130835.324,788.5348,795.78754,788.93774,796.1905,722.0513
1694130835.325,793.7729,798.60803,799.41394,806.6667,797.3993
1694130835.3260002,799.81683,786.52014,791.75824,795.38464,915.8608
1694130835.3270001,792.1612,790.14655,788.5348,784.5055,807.8755
1694130835.328,778.0586,800.2198,796.5934,791.3553,657.1795
1694130835.329,781.28204,796.5934,794.57874,784.10254,819.15753
1694130835.329,790.14655,794.17584,790.14655,782.49084,1080.6593
1694130835.33,792.1612,791.3553,788.5348,788.1319,862.674
1694130835.33,793.7729,796.99634,790.9524,781.685,665.64105
1694130835.331,792.1612,801.4286,791.3553,793.7729,724.87177
1694130835.331,781.685,802.23444,792.5641,803.0403,769.19415
1694130835.332,780.87915,801.8315,794.17584,788.5348,763.5531
1694130835.362,792.96704,795.38464,796.99634,782.0879,693.0403
1694130835.3630002,799.41394,799.81683,795.78754,791.75824,691.8315
1694130835.364,806.26373,811.50183,790.54944,808.2784,758.315
1694130835.365,813.5165,807.0696,796.1905,825.2015,782.0879
1694130835.369,786.9231,795.38464,803.44324,806.26373,708.7546
1694130835.369,778.86444,792.96704,806.26373,798.20514,854.61536
1694130835.37,787.326,798.60803,806.26373,809.89014,1219.6703
1694130835.371,776.04395,805.4579,803.44324,807.47253,985.16486
1694130835.372,784.5055,799.41394,801.4286,809.0842,738.1685
1694130835.372,806.6667,796.99634,798.20514,819.15753,832.4542
1694130835.373,804.2491,796.1905,794.17584,812.3077,857.03296
1694130835.374,808.68134,787.326,799.81683,792.96704,627.3626
1694130835.4129999,799.41394,789.34064,797.8022,789.34064,628.97437
1694130835.414,778.0586,789.34064,789.7436,790.9524,827.2161
1694130835.414,789.34064,784.5055,793.36993,791.75824,749.0476
1694130835.415,789.7436,785.31134,796.99634,791.75824,602.7839
1694130835.416,782.49084,793.36993,798.20514,802.23444,666.4469
1694130835.416,789.34064,799.81683,800.6227,806.26373,831.2454
1694130835.4169998,802.6374,795.38464,796.99634,793.7729,809.0842
1694130835.418,797.8022,800.2198,794.57874,794.17584,708.7546
1694130835.418,785.31134,797.3993,794.9817,798.60803,699.89014
1694130835.4190001,803.0403,797.3993,797.8022,817.5458,968.6447
1694130835.42,807.0696,805.4579,794.57874,812.3077,899.7436
1694130835.42,792.5641,796.5934,796.1905,801.8315,689.81683
1694130835.464,795.78754,788.5348,799.41394,799.81683,726.8865
1694130835.465,801.8315,792.96704,792.1612,767.5824,730.9158
1694130835.4659998,793.7729,796.99634,788.5348,759.5238,684.57874
1694130835.467,782.49084,796.5934,791.75824,777.25275,649.12085
1694130835.468,783.69965,798.60803,795.38464,788.5348,757.9121
1694130835.468,788.1319,799.41394,796.1905,789.7436,799.81683
1694130835.472,802.6374,797.3993,799.011,801.4286,714.7985
1694130835.473,810.293,809.0842,796.99634,802.6374,678.1319
1694130835.474,804.65204,805.8608,792.5641,796.5934,790.14655
1694130835.4750001,799.81683,794.57874,797.3993,805.05493,1170.5128
1694130835.476,786.9231,799.41394,794.9817,795.38464,1002.0879
1694130835.477,785.7143,799.41394,787.72894,787.72894,668.0586
1694130835.5449998,796.1905,794.9817,791.3553,793.36993,676.52014
1694130835.5459998,794.57874,788.93774,797.8022,802.6374,645.89746
1694130835.5470002,792.96704,790.14655,789.7436,799.81683,678.1319
1694130835.5470002,795.38464,795.38464,784.10254,794.9817,749.0476
1694130835.548,801.8315,796.99634,787.326,793.7729,837.6923
1694130835.549,794.57874,797.3993,786.9231,798.60803,834.0659
1694130835.549,784.10254,795.78754,787.326,795.38464,708.3516
1694130835.5500002,795.78754,794.57874,794.17584,796.5934,683.36993
1694130835.551,804.2491,802.23444,799.81683,807.8755,996.4469
1694130835.551,792.5641,805.4579,787.72894,785.31134,894.90845
1694130835.552,789.7436,794.17584,784.90845,774.83514,629.7802
1694130835.553,804.2491,788.1319,796.99634,796.5934,711.978
1694130835.597,799.41394,800.2198,789.7436,805.8608,799.81683
