timestamp,RAW_TP9,RAW_AF7,RAW_AF8,RAW_TP10,AUX_RIGHT
1694303808.4390001,786.1172,815.5311,778.86444,751.4652,683.36993
1694303808.44,811.9048,813.1135,784.5055,779.2674,749.85345
1694303808.441,800.6227,809.4872,787.72894,782.0879,770.0
1694303808.442,763.1502,805.4579,786.52014,761.53845,739.3773
1694303808.443,753.0769,806.26373,787.72894,754.2857,673.69965
1694303808.444,778.0586,804.65204,787.72894,770.80585,650.32965
1694303808.445,800.6227,802.6374,786.52014,794.9817,1035.1282
1694303808.446,796.5934,803.44324,786.9231,791.3553,1052.4542
1694303808.447,761.13556,799.41394,787.72894,763.95605,683.7729
1694303808.448,737.3626,796.1905,788.1319,757.50916,688.60803
1694303808.449,755.89746,793.7729,789.7436,759.92676,699.0842
1694303808.4499998,788.93774,795.78754,794.9817,792.96704,728.9011
1694303808.483,793.7729,797.3993,796.1905,805.4579,792.5641
1694303808.484,763.1502,794.9817,792.96704,766.3736,882.4176
1694303808.485,736.1539,797.8022,794.57874,753.47986,996.4469
1694303808.486,750.2564,799.011,798.60803,760.32965,809.89014
1694303808.487,791.3553,794.57874,796.5934,780.4762,653.1502
1694303808.488,794.57874,790.14655,792.5641,786.1172,870.7326
1694303808.4889998,758.71796,786.9231,797.3993,767.1795,972.27106
1694303808.4899998,743.4066,791.75824,800.2198,752.674,749.85345
1694303808.4910002,762.3443,799.81683,797.3993,751.8681,593.91943
1694303808.492,796.5934,799.011,798.60803,778.46155,785.31134
1694303808.496,808.68134,798.20514,802.23444,803.8461,924.7253
1694303808.497,788.5348,799.011,799.011,788.93774,734.94507
1694303808.503,755.89746,797.3993,798.60803,763.1502,642.27106
1694303808.504,753.47986,796.1905,798.60803,764.35895,642.27106
1694303808.5049999,796.1905,796.1905,794.17584,794.57874,706.7399
1694303808.5049999,814.7253,792.96704,794.17584,809.4872,751.06226
1694303808.5059998,791.75824,786.1172,797.8022,792.5641,692.23444
1694303808.5059998,759.92676,787.326,798.60803,779.67035,924.7253
1694303808.507,761.9414,789.34064,795.38464,778.46155,971.8681
1694303808.507,807.8755,797.3993,792.1612,803.44324,718.022
1694303808.508,844.5421,803.8461,787.72894,830.84247,729.304
1694303808.508,815.9341,789.7436,796.5934,812.3077,915.8608
1694303808.5089998,759.5238,777.25275,806.6667,775.64105,831.6484
1694303808.5100002,762.3443,775.2381,806.26373,784.90845,634.61536
1694303808.5379999,816.7399,774.83514,809.4872,828.4249,712.7839
1694303808.539,846.55676,773.6264,810.293,849.7802,799.011
1694303808.539,838.49817,777.25275,811.50183,845.7509,805.4579
1694303808.54,803.0403,777.6557,814.7253,817.9487,655.9707
1694303808.541,788.1319,779.67035,810.696,803.44324,752.27106
1694303808.542,822.381,781.685,807.0696,829.6337,983.1502
1694303808.542,850.58606,784.10254,809.0842,845.34796,856.63007
1694303808.543,840.9158,785.31134,809.4872,831.6484,762.3443
1694303808.544,805.05493,778.46155,807.47253,810.293,862.674
1694303808.544,792.1612,778.46155,806.26373,811.50183,978.71796
1694303808.5449998,809.4872,781.28204,801.4286,817.9487,764.7619
1694303808.5459998,830.4396,784.90845,801.8315,823.1868,672.8938
1694303808.553,836.4835,786.9231,804.65204,822.7839,743.00366
1694303808.554,804.2491,784.90845,802.23444,805.4579,717.2161
1694303808.554,781.28204,786.1172,802.23444,802.23444,643.47986
1694303808.555,805.4579,786.52014,803.8461,816.7399,610.0366
1694303808.555,837.28937,784.5055,802.23444,830.0366,661.6117
1694303808.556,834.0659,783.2967,801.4286,828.4249,788.93774
1694303808.557,796.99634,779.2674,801.4286,808.2784,795.78754
1694303808.558,778.46155,782.49084,800.2198,790.54944,643.0769
1694303808.558,794.57874,786.1172,800.2198,807.0696,959.3773
1694303808.559,824.3956,788.5348,800.2198,834.4689,1091.9414
1694303808.56,835.2747,792.96704,800.6227,828.022,732.9304
1694303808.56,802.6374,785.31134,801.02563,800.2198,740.18317
1694303808.589,777.25275,781.685,799.011,786.1172,729.707
1694303808.5900002,787.326,785.31134,797.8022,803.0403,707.1429
1694303808.591,815.9341,784.5055,792.1612,819.5604,715.2015
1694303808.591,832.4542,784.5055,788.1319,825.2015,801.4286
1694303808.591,806.6667,783.69965,790.14655,817.9487,896.52014
1694303808.592,774.43225,787.326,790.54944,790.14655,695.4579
1694303808.592,782.0879,788.93774,791.3553,788.5348,668.86444
1694303808.593,819.9634,788.93774,793.36993,821.5751,845.7509
1694303808.593,835.6777,794.17584,791.3553,828.8278,975.4945
1694303808.5939999,811.9048,796.5934,792.5641,799.41394,768.3883
1694303808.5939999,782.8938,794.57874,796.1905,784.5055,660.0
1694303808.595,784.5055,796.1905,795.38464,796.99634,782.0879
1694303808.624,818.7546,798.60803,795.78754,813.91943,764.35895
1694303808.625,830.4396,794.9817,793.36993,814.3223,724.0659
1694303808.627,811.50183,795.38464,790.9524,807.47253,778.0586
1694303808.628,783.69965,796.99634,790.54944,785.7143,772.4176
1694303808.628,782.49084,797.8022,791.75824,778.86444,711.978
1694303808.629,813.91943,790.9524,796.5934,808.68134,701.0989
1694303808.629,827.619,787.72894,794.17584,819.15753,780.4762
1694303808.63,815.9341,794.9817,789.7436,806.6667,1050.8425
1694303808.63,786.9231,795.78754,790.9524,787.72894,981.53845
1694303808.63,774.0293,794.17584,791.3553,778.86444,645.4945
1694303808.631,803.8461,795.78754,792.1612,798.60803,731.31866
1694303808.631,833.663,803.0403,793.7729,819.9634,803.44324
1694303808.704,828.022,802.23444,791.3553,814.3223,715.2015
1694303808.704,791.75824,799.81683,788.93774,793.36993,682.96704
1694303808.705,775.64105,800.6227,790.54944,786.1172,832.4542
1694303808.705,805.8608,802.6374,791.3553,804.2491,1102.0146
1694303808.705,832.0513,804.65204,790.9524,812.71063,927.9487
1694303808.7059999,825.6044,805.05493,789.34064,803.44324,742.1978
1694303808.7059999,792.96704,803.0403,788.1319,793.36993,918.68134
1694303808.7059999,770.40295,797.8022,791.3553,793.7729,948.49817
1694303808.707,786.9231,797.3993,789.7436,798.60803,670.87915
1694303808.707,815.9341,798.20514,788.5348,809.89014,614.4689
1694303808.707,813.1135,797.8022,792.96704,815.5311,687.8022
1694303808.708,787.72894,797.3993,791.3553,786.1172,684.17584
1694303808.741,782.0879,801.8315,790.14655,768.3883,619.707
1694303808.742,794.57874,804.2491,791.3553,786.1172,581.8315
1694303808.743,818.3516,802.6374,791.3553,805.05493,680.54944
1694303808.745,819.9634,800.6227,796.99634,816.337,728.49817
1694303808.7489998,785.31134,792.1612,793.7729,797.8022,753.0769
1694303808.7489998,764.7619,791.75824,792.96704,778.86444,762.3443
1694303808.7489998,782.0879,794.57874,796.5934,792.5641,1010.14655
1694303808.7500002,818.3516,795.78754,796.1905,815.12823,1088.3151
1694303808.7500002,831.6484,801.4286,792.1612,812.71063,754.2857
1694303808.7500002,803.44324,799.41394,791.75824,797.3993,721.2454
1694303808.7510002,765.9707,792.96704,789.34064,781.28204,757.1062
1694303808.7510002,772.8205,795.78754,786.9231,782.0879,709.5604
1694303808.788,818.7546,798.20514,791.75824,796.1905,667.25275
1694303808.789,835.2747,795.38464,792.1612,802.23444,794.57874
1694303808.7900002,807.47253,797.8022,795.78754,800.2198,864.2857
1694303808.7900002,780.87915,799.81683,795.38464,778.46155,702.71063
1694303808.7910001,781.28204,795.78754,793.36993,774.43225,560.87915
1694303808.7910001,814.3223,792.96704,795.38464,805.8608,816.337
1694303808.792,839.304,794.17584,794.57874,828.4249,1184.2124
1694303808.792,814.3223,794.9817,792.1612,807.47253,973.0769
1694303808.793,774.0293,792.96704,785.7143,769.19415,606.0073
1694303808.793,772.4176,792.1612,787.326,765.16486,701.9048
1694303808.794,807.47253,796.5934,792.5641,792.1612,828.022
1694303808.794,829.2308,797.8022,794.17584,797.8022,721.2454
1694303808.8270001,822.7839,796.5934,796.1905,795.78754,715.2015
1694303808.828,785.31134,797.3993,796.5934,786.9231,660.80585
1694303808.828,773.22345,799.011,799.41394,781.685,641.06226
1694303808.829,803.8461,801.8315,804.65204,800.2198,615.2747
1694303808.829,823.9927,800.2198,805.8608,811.9048,660.80585
1694303808.8300002,816.337,797.8022,801.02563,806.26373,790.9524
1694303808.832,780.4762,792.5641,794.57874,784.5055,747.4359
1694303808.833,766.3736,792.96704,789.7436,778.0586,646.7033
1694303808.8339999,804.2491,798.60803,784.5055,804.65204,606.8132
1694303808.835,835.2747,799.41394,790.54944,828.8278,1016.1905
1694303808.835,815.5311,792.96704,801.4286,818.3516,1116.9231
1694303808.836,788.1319,790.14655,805.4579,793.36993,702.71063
1694303808.876,784.90845,786.9231,801.8315,789.7436,637.8388
1694303808.8769999,805.8608,784.10254,797.8022,809.4872,707.5458
1694303808.8769999,836.08057,788.1319,801.02563,832.0513,795.38464
1694303808.878,846.55676,791.3553,798.60803,832.8571,722.0513
1694303808.878,816.337,793.7729,797.3993,820.7692,811.9048
1694303808.878,794.57874,794.57874,799.011,817.9487,978.315
1694303808.879,815.12823,799.81683,801.4286,830.4396,782.8938
1694303808.88,844.94507,797.8022,804.65204,846.55676,675.31134
1694303808.88,846.55676,793.36993,800.6227,850.58606,867.1062
1694303808.881,813.5165,796.99634,798.20514,824.3956,1024.249
1694303808.882,788.93774,792.5641,797.8022,803.8461,712.7839
1694303808.882,800.6227,790.9524,794.9817,809.4872,583.8461
1694303808.931,834.4689,798.20514,794.17584,824.3956,716.4103
1694303808.932,849.7802,798.20514,796.1905,836.08057,746.2271
1694303808.932,817.1429,793.36993,796.1905,819.5604,708.3516
1694303808.9329998,783.2967,792.1612,796.1905,803.44324,697.47253
1694303808.9329998,787.72894,794.57874,796.1905,804.2491,745.82416
1694303808.9329998,824.7985,793.36993,798.20514,826.4103,874.7619
1694303808.934,836.08057,795.38464,797.3993,831.2454,898.5348
1694303808.934,808.68134,798.20514,794.17584,810.696,748.6447
1694303808.937,787.326,795.78754,796.99634,800.6227,871.53845
1694303808.937,785.7143,794.9817,796.99634,803.0403,861.06226
1694303808.937,823.9927,798.20514,800.2198,823.1868,629.3773
1694303808.938,845.7509,796.1905,801.8315,834.87177,740.989
1694303808.961,813.91943,793.36993,796.99634,825.6044,809.4872
1694303808.962,776.8498,795.38464,797.3993,806.6667,726.8865
1694303808.963,777.25275,795.78754,800.2198,803.8461,645.89746
1694303808.964,810.293,798.20514,798.20514,825.6044,778.46155
1694303808.964,832.8571,799.011,795.38464,836.8865,1031.5018
1694303808.965,823.9927,800.2198,793.36993,826.4103,879.59705
1694303808.966,798.60803,800.2198,793.36993,804.65204,701.0989
1694303808.967,780.87915,790.9524,799.011,798.60803,799.011
1694303808.967,805.05493,788.93774,804.2491,817.9487,967.4359
1694303808.968,832.8571,789.34064,805.05493,834.87177,784.10254
1694303808.9689999,832.0513,787.72894,808.68134,842.52747,648.315
1694303808.9699998,809.0842,792.96704,807.47253,825.2015,671.28204
1694303808.9980001,788.5348,790.9524,802.23444,805.4579,628.97437
1694303808.999,818.7546,791.75824,804.65204,824.7985,612.8571
1694303809.0,850.989,796.5934,806.6667,845.34796,718.022
1694303809.0,843.73627,797.3993,803.8461,843.73627,778.46155
1694303809.001,811.50183,796.5934,803.8461,820.7692,751.06226
1694303809.001,787.326,794.9817,806.6667,803.0403,678.93774
1694303809.0019999,809.0842,796.99634,806.26373,813.91943,698.68134
1694303809.0019999,842.9304,800.6227,804.2491,834.0659,951.7216
1694303809.0019999,843.3333,800.2198,808.2784,835.2747,943.2601
1694303809.003,804.65204,796.1905,805.8608,807.8755,734.94507
1694303809.008,780.87915,793.36993,798.60803,792.96704,712.381
1694303809.0089998,798.20514,792.5641,798.60803,812.3077,931.1722
1694303809.068,826.4103,794.9817,799.41394,832.0513,895.31134
1694303809.069,836.08057,797.8022,801.8315,829.6337,713.5897
1694303809.0700002,803.44324,795.38464,801.4286,811.9048,857.8388
1694303809.0700002,782.0879,796.1905,804.2491,801.4286,925.9341
1694303809.071,796.1905,797.3993,808.2784,807.8755,717.619
1694303809.071,829.6337,796.1905,809.4872,830.84247,682.1612
1694303809.072,840.10986,799.011,805.05493,838.49817,998.0586
1694303809.072,803.0403,796.5934,797.8022,817.1429,1147.1428
1694303809.073,778.0586,792.5641,799.011,799.011,842.52747
1694303809.073,796.99634,796.5934,801.4286,805.8608,670.4762
1694303809.074,832.4542,798.60803,801.02563,825.2015,806.26373
1694303809.074,840.5128,796.99634,801.4286,830.4396,877.1795
1694303809.135,815.5311,799.011,799.41394,818.3516,744.21246
1694303809.1369998,784.90845,798.60803,797.3993,793.36993,651.9414
1694303809.1379998,783.2967,794.9817,796.99634,789.34064,670.07324
1694303809.1390002,817.5458,795.38464,797.3993,819.5604,735.34796
1694303809.1390002,831.2454,796.5934,797.8022,831.6484,763.95605
1694303809.14,814.7253,797.8022,796.5934,816.7399,798.60803
1694303809.141,783.2967,798.20514,796.1905,799.41394,965.82416
1694303809.141,776.4469,797.8022,795.38464,788.1319,909.41394
1694303809.1420002,817.1429,797.3993,794.9817,801.02563,657.1795
1694303809.1420002,836.4835,798.60803,795.78754,820.7692,723.663
1694303809.1430001,819.15753,804.65204,798.60803,817.9487,842.1245
1694303809.1430001,789.7436,804.65204,799.011,794.17584,741.79486
1694303809.175,780.07324,801.02563,796.99634,780.4762,598.7546
1694303809.176,813.1135,802.23444,799.81683,802.23444,721.2454
1694303809.177,840.5128,804.2491,804.65204,827.2161,1017.8022
1694303809.177,825.2015,806.26373,807.47253,821.978,906.5934
1694303809.178,786.52014,803.8461,804.2491,791.3553,659.19415
1694303809.178,773.22345,796.99634,796.1905,784.10254,819.15753
1694303809.1790001,801.4286,796.99634,792.5641,799.81683,956.9597
1694303809.1790001,831.6484,802.6374,795.38464,813.5165,772.4176
1694303809.18,826.4103,801.4286,796.1905,812.71063,691.4286
1694303809.181,788.5348,796.99634,792.5641,789.7436,733.73627
1694303809.1820002,765.9707,794.9817,789.34064,776.04395,676.1172
1694303809.1820002,790.14655,794.17584,790.14655,786.1172,616.08057
1694303809.2140002,828.8278,797.8022,788.93774,802.23444,657.1795
1694303809.2150002,823.5897,798.20514,786.1172,803.8461,956.9597
1694303809.2150002,790.14655,798.20514,786.1172,788.93774,1041.5751
1694303809.216,776.4469,799.41394,787.72894,781.28204,647.50916
1694303809.217,794.17584,798.60803,789.34064,796.99634,638.6447
1694303809.217,826.8132,799.81683,785.7143,814.3223,844.1392
1694303809.218,830.84247,797.3993,788.1319,816.337,882.01465
1694303809.218,796.1905,794.9817,793.7729,796.5934,776.4469
1694303809.219,770.0,793.7729,793.36993,781.28204,665.2381
1694303809.219,780.87915,794.57874,790.54944,788.5348,824.7985
1694303809.22,817.1429,794.57874,790.54944,809.0842,854.21246
1694303809.22,846.55676,788.1319,798.20514,836.4835,734.1392
1694303809.247,814.3223,792.1612,796.1905,817.5458,762.3443
1694303809.248,747.4359,802.23444,784.90845,763.5531,793.36993
1694303809.2510002,745.0183,805.05493,782.49084,760.32965,764.7619
1694303809.252,779.67035,807.0696,782.0879,783.69965,721.6484
1694303809.2540002,780.4762,805.05493,780.4762,779.67035,855.42126
1694303809.255,747.8388,801.02563,784.5055,757.9121,1201.1355
1694303809.256,713.1868,801.02563,783.69965,726.08057,1031.0989
1694303809.257,710.7692,803.0403,781.28204,720.0366,589.4872
1694303809.258,746.63007,803.8461,784.10254,749.85345,768.3883
1694303809.259,770.80585,803.0403,785.7143,769.59705,909.011
1694303809.259,751.8681,803.44324,784.10254,757.9121,707.5458
1694303809.26,720.4396,801.4286,781.685,733.73627,621.7216
1694303809.348,725.6777,801.02563,787.326,733.3333,585.05493
1694303809.349,767.1795,803.0403,792.1612,766.77655,642.674
1694303809.3500001,790.54944,805.4579,788.93774,788.5348,713.1868
1694303809.351,780.87915,804.2491,789.7436,783.69965,718.022
1694303809.351,746.63007,803.44324,793.36993,765.16486,739.7802
1694303809.352,738.1685,802.6374,793.7729,761.13556,754.2857
1694303809.353,778.86444,803.0403,794.17584,779.67035,745.0183
1694303809.353,807.8755,808.2784,794.9817,795.38464,797.3993
1694303809.3539999,797.3993,806.6667,796.1905,800.2198,1057.2894
1694303809.3539999,769.59705,808.68134,798.60803,783.69965,1051.6483
1694303809.355,755.09155,809.4872,794.9817,765.16486,643.0769
1694303809.356,781.28204,802.23444,793.36993,783.69965,598.7546
1694303809.3569999,809.89014,799.011,794.9817,801.8315,694.65204
1694303809.358,800.6227,797.8022,794.9817,801.8315,766.77655
1694303809.358,768.7912,797.3993,797.3993,779.67035,708.7546
1694303809.359,755.4945,797.8022,798.20514,773.22345,691.8315
1694303809.3630002,786.52014,799.81683,796.5934,794.17584,815.5311
1694303809.364,817.1429,799.41394,794.9817,801.8315,824.7985
1694303809.364,815.9341,798.20514,795.38464,802.6374,778.0586
1694303809.365,784.5055,795.78754,796.99634,793.36993,800.2198
1694303809.3660002,767.5824,796.1905,796.5934,788.93774,888.0586
1694303809.3660002,788.5348,799.41394,796.5934,793.7729,706.7399
1694303809.367,818.7546,800.2198,795.38464,806.26373,598.7546
1694303809.367,824.3956,803.0403,793.7729,817.1429,817.5458
1694303809.3939998,790.14655,800.6227,793.7729,802.23444,846.55676
1694303809.395,768.7912,794.57874,792.5641,780.4762,578.60803
1694303809.396,788.93774,796.1905,795.38464,786.52014,597.9487
1694303809.396,822.381,799.81683,792.1612,809.4872,703.5165
1694303809.3969998,831.2454,798.60803,789.34064,815.5311,762.74725
1694303809.3969998,799.011,797.8022,796.5934,799.81683,738.97437
1694303809.3980002,772.8205,799.41394,798.60803,785.31134,709.15753
1694303809.3980002,786.9231,800.6227,796.5934,797.3993,932.7839
1694303809.3990002,820.3663,800.2198,801.02563,822.381,897.72894
1694303809.3990002,831.6484,799.41394,800.6227,823.5897,689.41394
1694303809.4,808.68134,798.60803,800.2198,808.68134,730.9158
1694303809.401,785.31134,799.011,800.2198,792.96704,761.53845
1694303809.424,786.1172,800.6227,799.011,791.75824,707.5458
1694303809.425,822.381,801.4286,799.81683,810.293,660.80585
1694303809.425,842.52747,803.0403,801.4286,824.7985,809.0842
1694303809.4259999,816.337,801.8315,798.60803,812.3077,1014.17584
1694303809.427,782.8938,799.81683,794.9817,787.72894,818.3516
1694303809.427,780.87915,800.6227,798.20514,779.2674,634.61536
1694303809.431,812.71063,800.2198,794.9817,801.8315,875.9707
1694303809.432,828.4249,799.011,794.17584,828.8278,1034.7252
1694303809.432,810.293,796.5934,795.38464,811.9048,819.5604
1694303809.4329998,780.4762,793.36993,799.011,787.326,657.98535
1694303809.4329998,771.2088,794.9817,797.8022,783.2967,628.1685
1694303809.4339998,803.0403,799.41394,790.9524,797.3993,678.1319
1694303809.5089998,825.2015,798.20514,788.5348,810.696,752.674
1694303809.5100002,809.89014,797.3993,790.54944,803.44324,761.13556
1694303809.512,779.2674,792.5641,787.72894,785.7143,786.52014
1694303809.513,770.40295,791.75824,786.9231,781.685,752.674
1694303809.514,796.5934,796.5934,787.72894,800.6227,683.7729
1694303809.515,817.1429,796.99634,788.93774,809.89014,772.8205
1694303809.515,812.3077,796.99634,793.7729,812.3077,1085.8975
1694303809.516,774.43225,798.20514,794.57874,792.96704,1033.9194
1694303809.516,754.2857,798.20514,794.17584,774.0293,648.315
1694303809.517,782.49084,794.9817,793.7729,787.326,667.25275
1694303809.5180001,813.1135,791.3553,794.9817,803.0403,748.6447
1694303809.5180001,815.9341,793.36993,796.99634,806.6667,807.0696
1694303809.571,785.31134,799.011,797.8022,792.5641,711.978
1694303809.573,763.1502,795.38464,796.5934,783.69965,770.40295
1694303809.5740001,785.31134,794.17584,794.17584,794.9817,945.2747
1694303809.5740001,817.5458,796.5934,793.36993,806.26373,771.2088
1694303809.575,814.3223,796.1905,791.75824,803.0403,674.90845
1694303809.576,775.64105,791.3553,789.7436,788.5348,875.9707
1694303809.576,754.68866,788.93774,790.54944,777.25275,975.09155
1694303809.577,775.2381,793.7729,791.3553,780.87915,779.67035
1694303809.582,809.89014,797.3993,790.9524,801.8315,687.3993
1694303809.582,819.5604,794.9817,789.34064,815.12823,887.25275
1694303809.5830002,793.36993,796.5934,788.1319,803.44324,954.94507
1694303809.5830002,768.7912,794.57874,787.326,786.1172,664.43225
1694303809.6179998,786.1172,788.93774,794.9817,804.2491,639.0476
1694303809.619,825.2015,795.78754,799.41394,824.7985,725.2747
1694303809.619,826.0073,804.65204,790.9524,813.91943,770.40295
1694303809.62,801.02563,801.4286,789.34064,799.011,745.0183
1694303809.621,792.1612,796.5934,795.38464,793.36993,704.3223
1694303809.621,794.17584,797.8022,794.17584,799.011,764.35895
1694303809.6220002,814.3223,794.17584,788.1319,818.3516,787.326
1694303809.624,836.08057,792.96704,789.34064,828.4249,799.81683
1694303809.625,814.3223,798.60803,791.75824,815.12823,738.97437
1694303809.626,783.69965,795.78754,793.7729,811.9048,912.6374
1694303809.627,784.90845,792.5641,794.17584,810.696,903.7729
1694303809.628,820.7692,798.20514,792.1612,806.26373,630.989
1694303809.654,840.9158,796.1905,792.1612,816.7399,730.5128
1694303809.655,816.337,794.57874,790.54944,805.4579,808.68134
1694303809.656,782.8938,794.9817,788.93774,782.8938,729.304
1694303809.656,778.86444,792.96704,788.93774,776.4469,610.0366
1694303809.6569998,811.50183,792.96704,790.14655,797.8022,728.0952
1694303809.6569998,833.663,793.7729,794.17584,820.3663,967.8388
1694303809.6579998,817.5458,795.38464,795.38464,815.12823,908.60803
1694303809.6579998,784.10254,792.1612,791.3553,795.78754,728.9011
1694303809.6590002,774.83514,792.5641,790.14655,784.90845,805.05493
1694303809.6590002,802.6374,794.17584,790.9524,800.2198,981.13556
1694303809.663,823.1868,791.3553,791.3553,814.3223,836.4835
1694303809.663,815.5311,792.5641,791.3553,805.8608,707.1429
1694303809.669,782.8938,790.9524,789.7436,788.93774,722.0513
1694303809.67,766.77655,789.7436,788.93774,784.5055,707.1429
1694303809.671,792.96704,794.57874,790.14655,799.011,614.0659
1694303809.671,826.0073,795.38464,791.75824,819.15753,652.74725
1694303809.672,821.1722,791.75824,791.75824,816.337,738.5714
1694303809.672,782.8938,790.54944,790.9524,797.3993,709.15753
1694303809.6729999,766.3736,794.17584,791.3553,786.1172,683.7729
1694303809.6729999,791.75824,795.78754,790.54944,799.41394,683.36993
1694303809.6739998,823.1868,795.78754,791.3553,823.9927,745.82416
1694303809.6739998,824.3956,796.5934,790.54944,821.1722,772.8205
1694303809.675,791.75824,795.38464,788.93774,794.17584,681.75824
1694303809.675,771.6117,790.9524,786.9231,776.4469,666.8498
1694303809.723,784.10254,790.54944,786.52014,797.3993,874.7619
1694303809.725,818.3516,791.3553,792.96704,827.2161,872.3443
1694303809.725,828.022,790.14655,794.57874,821.5751,731.7216
1694303809.726,796.99634,789.34064,794.17584,799.011,765.16486
1694303809.727,778.86444,792.96704,795.78754,794.57874,977.1062
1694303809.727,793.7729,794.17584,793.36993,801.4286,933.9927
1694303809.728,826.4103,792.5641,793.36993,814.3223,775.2381
1694303809.7289999,837.28937,792.5641,790.14655,822.7839,905.38464
1694303809.7289999,807.47253,794.17584,786.9231,807.0696,1020.2198
1694303809.7299998,779.2674,796.5934,786.1172,787.72894,709.5604
1694303809.7299998,789.34064,795.38464,783.2967,784.5055,541.13556
1694303809.731,823.1868,794.9817,786.52014,808.2784,666.4469
1694303809.794,838.0952,797.8022,788.93774,823.5897,732.9304
1694303809.795,812.71063,796.99634,788.5348,810.696,720.84247
1694303809.796,780.07324,792.96704,788.93774,787.326,660.0
1694303809.796,777.6557,793.36993,792.5641,779.2674,783.2967
1694303809.797,810.293,791.75824,791.75824,801.8315,820.7692
1694303809.798,832.4542,794.9817,789.7436,819.9634,753.0769
1694303809.798,813.1135,798.60803,792.5641,809.0842,790.9524
1694303809.799,778.86444,797.8022,796.1905,798.60803,980.32965
1694303809.799,770.80585,796.5934,798.60803,803.44324,967.8388
1694303809.8,803.8461,798.20514,796.99634,810.293,663.6264
1694303809.8009999,828.022,796.5934,797.3993,820.3663,703.5165
1694303809.8009999,814.3223,792.96704,799.41394,811.0989,776.04395
1694303809.836,782.49084,794.9817,800.6227,790.9524,703.5165
1694303809.837,768.7912,797.8022,800.2198,780.87915,691.02563
1694303809.838,797.3993,799.81683,796.1905,799.41394,800.6227
1694303809.839,824.7985,794.57874,792.1612,821.1722,889.67035
1694303809.839,816.7399,792.96704,790.9524,815.5311,764.7619
1694303809.84,784.10254,794.9817,789.34064,791.3553,676.52014
1694303809.8409998,772.8205,796.1905,791.75824,785.31134,834.87177
1694303809.8419998,798.60803,799.011,794.57874,807.47253,1063.7362
1694303809.8419998,826.0073,803.8461,795.38464,821.978,889.67035
1694303809.8430002,821.5751,801.02563,796.1905,815.5311,742.1978
1694303809.8430002,788.5348,794.57874,793.36993,791.75824,781.685
1694303809.844,767.5824,792.1612,792.96704,780.87915,748.6447
1694303809.889,806.6667,787.72894,796.5934,809.89014,662.8205
1694303809.8899999,843.3333,794.57874,792.1612,830.0366,716.0073
1694303809.894,812.71063,807.47253,784.10254,803.0403,808.68134
1694303809.895,775.64105,804.2491,781.685,778.0586,783.69965
1694303809.895,770.80585,799.41394,781.685,779.2674,682.96704
1694303809.896,796.99634,801.8315,782.49084,800.6227,666.4469
1694303809.8969998,824.7985,803.44324,780.87915,817.9487,986.3736
1694303809.8969998,826.0073,804.65204,778.0586,805.05493,994.83514
1694303809.8979998,798.20514,803.8461,779.2674,781.28204,707.9487
1694303809.8990002,771.6117,801.8315,780.07324,765.56775,675.31134
1694303809.8990002,786.1172,799.011,777.6557,774.43225,793.36993
1694303809.9,823.9927,802.6374,781.28204,801.02563,791.75824
1694303809.923,833.663,807.0696,785.31134,812.3077,686.1905
1694303809.924,806.6667,803.8461,788.5348,798.60803,792.96704
1694303809.925,781.28204,806.26373,789.34064,782.49084,833.2601
1694303809.925,787.326,807.47253,789.7436,789.34064,682.5641
1694303809.926,817.5458,802.23444,790.14655,810.293,626.55676
1694303809.927,831.6484,799.011,787.326,820.7692,845.34796
1694303809.927,803.8461,796.1905,785.7143,810.696,1060.9158
1694303809.928,773.22345,795.78754,786.52014,784.10254,757.9121
1694303809.928,782.0879,796.1905,786.52014,781.685,587.0696
1694303809.929,819.9634,800.2198,788.93774,806.6667,764.35895
1694303809.931,832.8571,800.6227,790.54944,819.15753,841.7216
1694303809.932,810.293,798.60803,787.72894,807.8755,783.69965
1694303809.96,780.87915,803.44324,786.52014,788.1319,670.4762
1694303809.961,775.64105,805.4579,789.7436,788.1319,735.7509
1694303809.961,808.68134,801.02563,792.96704,812.3077,816.7399
1694303809.962,826.4103,799.41394,791.3553,816.7399,685.78754
1694303809.965,805.05493,797.3993,791.3553,801.8315,765.9707
1694303809.966,771.2088,796.5934,792.5641,794.57874,876.77655
1694303809.967,762.3443,796.1905,790.14655,790.54944,799.011
1694303809.967,797.8022,792.96704,792.1612,798.20514,693.8461
1694303809.968,820.7692,794.9817,792.5641,817.5458,713.5897
1694303809.968,805.05493,795.38464,787.72894,817.1429,965.0183
1694303809.9689999,777.25275,797.8022,790.54944,790.9524,931.978
1694303809.9689999,763.5531,797.8022,791.3553,770.40295,696.6667
1694303809.994,787.72894,794.57874,788.93774,793.7729,715.2015
1694303809.9950001,813.1135,794.57874,791.75824,815.5311,831.2454
1694303809.996,805.8608,795.38464,791.3553,809.89014,813.1135
1694303809.996,774.83514,796.99634,788.5348,786.9231,704.7253
1694303809.997,761.13556,798.20514,788.93774,774.0293,694.65204
1694303809.997,788.1319,798.20514,790.54944,796.5934,1074.2124
1694303809.9980001,815.12823,796.99634,790.54944,815.5311,1108.8645
1694303809.9980001,812.3077,797.3993,786.52014,803.0403,742.1978
1694303809.999,780.4762,796.1905,786.52014,786.52014,761.13556
1694303809.999,757.9121,794.17584,786.52014,777.25275,737.76556
1694303810.0,780.07324,794.57874,784.10254,779.67035,613.663
1694303810.0,815.12823,796.5934,784.5055,797.8022,631.39197
1694303810.051,823.1868,797.8022,788.5348,805.4579,707.5458
1694303810.052,796.1905,796.1905,788.5348,792.5641,735.34796
1694303810.053,772.01465,795.38464,786.1172,782.0879,660.40295
1694303810.053,785.31134,799.81683,785.7143,791.75824,618.9011
1694303810.0540001,809.89014,797.3993,784.90845,810.293,787.72894
1694303810.0540001,813.91943,792.96704,785.31134,815.12823,897.72894
1694303810.0579998,792.1612,794.9817,784.10254,796.5934,867.9121
1694303810.059,762.74725,792.1612,782.8938,779.2674,723.2601
1694303810.059,768.7912,792.5641,782.8938,795.38464,887.25275
1694303810.06,807.47253,794.17584,783.69965,823.5897,1012.5641
1694303810.06,821.978,797.8022,786.9231,821.5751,712.7839
1694303810.0609999,798.60803,801.8315,790.54944,802.6374,713.1868
1694303810.0870001,773.6264,800.2198,787.326,785.7143,724.4689
1694303810.088,775.64105,794.9817,784.90845,792.1612,684.57874
1694303810.089,807.0696,795.38464,787.326,807.0696,693.44324
1694303810.09,817.5458,795.38464,783.69965,812.3077,818.7546
1694303810.091,790.9524,790.9524,780.4762,804.65204,939.2308
1694303810.092,765.56775,793.7729,784.5055,783.2967,749.0476
1694303810.092,770.40295,796.1905,786.52014,784.5055,641.06226
1694303810.093,805.8608,796.1905,789.34064,823.1868,826.4103
1694303810.093,821.978,794.17584,789.34064,841.7216,1120.9524
1694303810.094,802.23444,792.1612,784.90845,809.0842,924.3223
1694303810.094,765.9707,792.1612,784.10254,776.4469,664.43225
1694303810.095,759.92676,796.5934,786.1172,775.2381,664.0293
1694303810.1569998,802.23444,799.81683,792.96704,804.2491,674.90845
1694303810.1580002,829.2308,801.4286,792.96704,820.7692,714.7985
1694303810.1590002,819.5604,803.0403,790.14655,813.5165,741.39197
1694303810.16,786.9231,805.05493,792.96704,792.5641,693.8461
1694303810.16,772.01465,801.8315,792.96704,782.49084,642.27106
1694303810.161,801.8315,797.8022,790.54944,795.38464,699.0842
1694303810.161,827.619,795.78754,791.3553,815.9341,738.5714
1694303810.162,815.9341,792.5641,788.5348,820.3663,1037.1428
1694303810.1660001,785.7143,796.1905,786.1172,793.7729,1083.4799
1694303810.1660001,768.7912,800.2198,790.14655,777.25275,678.1319
1694303810.167,793.7729,796.1905,789.7436,796.99634,682.5641
1694303810.167,826.0073,794.57874,788.1319,815.9341,820.7692
1694303810.196,819.9634,794.17584,786.9231,810.696,774.43225
1694303810.197,782.49084,791.75824,788.5348,790.9524,703.91943
1694303810.1980002,756.30035,787.72894,788.5348,778.86444,765.16486
1694303810.1980002,777.6557,788.5348,789.34064,795.78754,873.5531
1694303810.1990001,812.71063,791.75824,787.326,809.89014,779.67035
1694303810.2,815.9341,792.5641,786.9231,805.05493,736.55676
1694303810.201,780.87915,790.9524,792.96704,794.17584,882.4176
1694303810.201,759.92676,790.14655,792.96704,784.5055,836.8865
1694303810.202,777.25275,791.3553,792.1612,793.7729,664.0293
1694303810.203,812.3077,789.34064,790.14655,808.2784,678.5348
1694303810.204,821.1722,786.52014,790.54944,811.9048,909.81683
1694303810.205,790.14655,790.14655,791.75824,799.81683,1073.4066
1694303810.2510002,768.3883,794.9817,788.5348,773.22345,757.50916
1694303810.252,784.90845,796.1905,786.1172,776.4469,612.4542
1694303810.253,812.71063,794.9817,784.10254,802.23444,751.8681
1694303810.253,822.381,793.36993,784.5055,808.2784,770.40295
1694303810.2540002,798.20514,794.17584,784.5055,789.34064,642.674
1694303810.2540002,770.40295,792.5641,787.72894,775.2381,665.2381
1694303810.255,774.83514,791.3553,792.1612,786.1172,919.0842
1694303810.255,808.68134,793.36993,790.9524,801.4286,879.59705
1694303810.256,822.381,794.57874,786.52014,803.0403,677.72894
1694303810.256,794.9817,790.54944,784.10254,790.14655,732.9304
1694303810.26,763.1502,788.93774,783.2967,769.59705,740.989
1694303810.26,765.9707,792.96704,784.10254,772.01465,650.7326
1694303810.304,805.8608,795.78754,788.93774,796.99634,613.2601
1694303810.3049998,828.8278,798.20514,792.5641,814.7253,774.43225
1694303810.3059998,809.4872,793.7729,791.3553,806.26373,923.91943
1694303810.3070002,773.22345,789.7436,788.5348,783.69965,788.1319
1694303810.308,766.3736,793.36993,789.7436,775.2381,643.8828
1694303810.309,803.0403,798.20514,792.96704,805.4579,772.4176
1694303810.3100002,823.5897,799.41394,790.14655,827.2161,1289.3773
1694303810.3100002,810.696,795.38464,788.1319,812.71063,1114.5055
1694303810.311,786.1172,792.1612,792.96704,787.72894,637.03296
1694303810.312,772.4176,790.9524,791.3553,779.2674,649.92676
1694303810.312,801.4286,792.1612,789.7436,803.44324,691.8315
1694303810.313,830.0366,794.9817,792.96704,824.7985,693.0403
1694303810.356,815.12823,792.96704,793.36993,825.6044,697.47253
1694303810.3569999,783.2967,792.5641,793.7729,808.68134,684.17584
1694303810.3569999,771.2088,795.38464,791.75824,793.36993,656.3736
1694303810.358,794.17584,794.57874,793.7729,805.4579,647.9121
1694303810.358,825.6044,796.5934,791.75824,821.5751,729.304
1694303810.359,844.94507,803.44324,788.5348,835.2747,831.6484
1694303810.36,809.4872,797.8022,800.6227,817.5458,777.25275
1694303810.36,764.7619,790.54944,806.26373,783.69965,738.97437
1694303810.3609998,776.4469,787.326,808.68134,781.685,631.39197
1694303810.362,805.8608,782.8938,811.0989,807.47253,893.2967
1694303810.3630002,815.9341,780.07324,811.0989,821.5751,1023.8461
1694303810.3630002,772.4176,778.46155,814.3223,786.1172,740.58606
1694303810.404,738.1685,786.52014,812.3077,760.7326,709.9634
1694303810.4060001,763.1502,788.1319,810.696,778.0586,759.92676
1694303810.4060001,799.41394,787.326,805.4579,798.60803,760.7326
1694303810.407,801.02563,786.52014,802.23444,796.5934,701.50183
1694303810.407,773.6264,784.90845,804.2491,782.8938,794.57874
1694303810.408,752.27106,791.75824,803.8461,768.3883,967.4359
1694303810.409,763.5531,792.1612,803.0403,778.0586,804.2491
1694303810.409,798.60803,784.5055,803.8461,804.2491,632.1978
1694303810.4099998,806.6667,785.31134,803.0403,816.7399,849.7802
1694303810.4099998,782.8938,788.93774,800.6227,809.89014,1126.9963
1694303810.411,756.30035,788.93774,799.81683,786.9231,848.5714
1694303810.412,765.56775,788.93774,800.6227,776.8498,604.7985
1694303810.477,803.8461,790.54944,798.60803,797.3993,690.2198
1694303810.4780002,817.1429,790.54944,796.5934,812.3077,745.82416
1694303810.479,794.17584,790.54944,794.17584,799.81683,736.1539
1694303810.479,761.13556,792.1612,794.9817,781.28204,724.87177
1694303810.48,768.3883,790.54944,794.17584,783.69965,729.304
1694303810.481,805.05493,792.5641,793.7729,801.4286,779.2674
1694303810.481,821.1722,792.1612,794.17584,807.47253,826.0073
1694303810.4819999,806.6667,790.54944,793.7729,800.2198,792.5641
1694303810.483,775.64105,788.93774,793.36993,788.5348,969.0476
1694303810.483,769.19415,788.5348,793.7729,784.90845,929.15753
1694303810.484,800.2198,792.96704,793.36993,796.1905,653.95605
1694303810.485,819.5604,790.9524,791.75824,807.8755,768.3883
1694303810.5089998,807.0696,789.7436,790.9524,810.293,864.2857
1694303810.5100002,780.07324,794.17584,791.3553,794.57874,759.5238
1694303810.514,770.80585,793.7729,791.3553,783.2967,620.9158
1694303810.514,797.8022,788.93774,789.34064,793.36993,701.9048
1694303810.515,818.3516,788.1319,788.93774,807.8755,911.4286
1694303810.516,809.89014,788.5348,793.36993,807.47253,851.39197
1694303810.516,780.4762,789.7436,793.36993,793.36993,731.7216
1694303810.517,763.1502,789.7436,793.7729,792.1612,835.6777
1694303810.5180001,787.72894,790.54944,794.17584,809.0842,937.2161
1694303810.5180001,818.7546,793.36993,794.57874,824.7985,737.3626
1694303810.519,820.7692,798.20514,796.5934,818.3516,678.5348
1694303810.519,785.31134,797.3993,797.3993,791.75824,711.978
1694303810.526,768.7912,793.7729,798.60803,783.69965,663.22345
1694303810.526,799.81683,795.78754,796.1905,801.02563,711.978
1694303810.527,832.0513,797.3993,793.7729,818.3516,754.2857
1694303810.528,830.84247,797.8022,796.99634,820.3663,808.2784
1694303810.528,799.41394,797.8022,794.57874,807.8755,831.6484
1694303810.529,778.46155,798.20514,790.14655,793.7729,780.07324
1694303810.529,788.5348,800.2198,788.1319,798.20514,768.3883
1694303810.53,819.5604,800.2198,790.54944,823.5897,974.2857
1694303810.5310001,821.978,799.011,794.9817,826.0073,981.13556
1694303810.532,788.1319,797.8022,796.1905,801.02563,683.36993
1694303810.532,765.16486,793.36993,796.5934,786.52014,635.42126
1694303810.533,776.04395,794.17584,793.36993,792.5641,654.7619
1694303810.555,812.71063,796.5934,790.14655,806.26373,654.7619
1694303810.556,826.8132,794.17584,792.5641,808.68134,709.9634
1694303810.557,807.0696,790.54944,799.41394,808.2784,842.9304
1694303810.557,776.4469,794.57874,795.38464,792.96704,867.1062
1694303810.5609999,769.59705,801.02563,784.5055,774.43225,691.4286
1694303810.5609999,804.2491,799.81683,780.07324,786.52014,674.90845
1694303810.5619998,819.5604,796.1905,784.5055,797.3993,896.9231
1694303810.5619998,804.65204,794.9817,789.7436,800.2198,1202.7472
1694303810.563,778.46155,798.60803,790.54944,781.685,948.9011
1694303810.563,779.2674,801.8315,794.57874,771.6117,655.9707
1694303810.564,814.3223,800.2198,791.3553,801.02563,701.0989
1694303810.5649998,827.619,797.3993,786.1172,812.3077,725.6777
1694303810.6529999,807.0696,795.78754,790.14655,796.99634,696.26373
1694303810.654,781.28204,798.60803,794.17584,786.9231,644.2857
1694303810.655,779.67035,795.78754,795.38464,788.1319,637.4359
1694303810.655,815.9341,798.20514,796.99634,804.65204,671.28204
1694303810.656,838.49817,804.65204,795.38464,817.9487,718.8278
1694303810.6569998,821.978,801.8315,794.9817,811.50183,755.89746
1694303810.6579998,789.34064,797.8022,793.36993,794.57874,983.1502
1694303810.6579998,776.4469,797.3993,793.36993,792.1612,946.8865
1694303810.6590002,811.9048,802.6374,794.17584,809.4872,666.8498
1694303810.66,840.10986,801.02563,794.57874,823.9927,679.7436
1694303810.66,823.1868,800.2198,796.1905,821.978,824.7985
1694303810.661,785.7143,803.44324,794.9817,798.60803,777.25275
1694303810.692,775.2381,801.02563,794.57874,782.8938,579.011
1694303810.6940002,811.0989,797.8022,794.17584,803.0403,732.52747
1694303810.6950002,833.663,796.5934,791.75824,817.5458,913.8461
1694303810.697,820.3663,794.57874,791.75824,816.7399,788.1319
1694303810.698,788.5348,793.36993,792.1612,794.17584,680.54944
1694303810.6990001,770.40295,792.5641,791.3553,778.86444,780.87915
1694303810.7059999,791.75824,793.36993,794.17584,803.44324,1027.8755
1694303810.7089999,821.1722,794.57874,796.1905,814.3223,849.3773
1694303810.71,819.9634,792.5641,793.36993,805.8608,645.4945
1694303810.711,788.1319,788.5348,793.36993,793.36993,848.1685
1694303810.7129998,774.43225,791.75824,796.1905,784.5055,859.45056
1694303810.714,795.78754,797.8022,800.2198,796.1905,608.8278
1694303810.724,826.0073,801.02563,803.0403,818.7546,684.57874
1694303810.726,832.8571,803.44324,801.4286,817.5458,788.5348
1694303810.727,799.41394,799.41394,799.41394,796.5934,747.4359
1694303810.728,770.40295,802.6374,799.81683,780.4762,637.8388
1694303810.7289999,786.9231,805.05493,796.5934,783.2967,608.022
1694303810.7299998,821.1722,801.4286,791.3553,803.8461,749.85345
1694303810.731,829.2308,801.4286,792.96704,811.0989,873.95605
1694303810.732,795.78754,799.41394,790.14655,789.34064,773.22345
1694303810.732,767.98535,801.02563,793.36993,774.43225,664.0293
1694303810.733,776.4469,801.02563,798.60803,781.28204,808.68134
1694303810.733,811.0989,802.23444,796.99634,796.99634,798.60803
1694303810.7340002,826.0073,801.4286,796.1905,803.44324,657.1795
1694303810.759,796.1905,799.81683,794.17584,792.1612,759.12085
1694303810.76,765.56775,800.2198,794.17584,778.86444,823.9927
1694303810.761,769.59705,799.81683,795.38464,780.4762,738.97437
1694303810.761,799.81683,800.6227,793.36993,794.17584,644.68866
1694303810.7619998,828.022,794.17584,794.57874,817.5458,802.6374
1694303810.7619998,826.4103,787.326,802.23444,828.022,1032.7106
1694303810.763,757.1062,799.41394,792.1612,764.35895,874.35895
1694303810.763,721.6484,809.4872,779.67035,722.4542,641.4652
1694303810.767,763.1502,805.05493,780.07324,753.0769,758.71796
1694303810.767,775.64105,806.26373,783.2967,765.56775,975.09155
1694303810.768,748.24176,808.2784,784.5055,738.1685,788.5348
1694303810.768,703.1135,809.4872,782.49084,707.1429,670.07324
1694303810.8140001,682.5641,813.5165,780.87915,697.0696,689.011
1694303810.815,711.5751,816.7399,779.67035,711.1722,684.57874
1694303810.816,734.5421,819.5604,778.0586,723.663,735.34796
1694303810.817,726.08057,821.1722,780.07324,718.4249,742.1978
1694303810.819,699.0842,820.3663,785.31134,711.5751,741.39197
1694303810.819,691.02563,817.9487,789.7436,708.7546,766.3736
1694303810.82,730.5128,822.381,791.3553,729.707,807.47253
1694303810.8209999,764.35895,823.1868,792.5641,755.4945,818.3516
1694303810.8209999,758.71796,815.5311,791.3553,761.53845,971.4652
1694303810.822,730.10986,810.696,785.31134,747.8388,954.94507
1694303810.822,719.2308,813.1135,785.7143,735.7509,628.5714
1694303810.823,751.4652,811.0989,789.34064,753.0769,659.19415
1694303810.8700001,779.67035,806.6667,787.72894,772.4176,740.989
1694303810.871,777.25275,807.0696,788.1319,770.80585,771.6117
1694303810.872,746.2271,805.8608,789.34064,749.45056,733.3333
1694303810.873,728.9011,803.8461,788.93774,741.39197,775.64105
1694303810.873,757.9121,802.23444,787.326,757.50916,896.9231
1694303810.8739998,792.1612,801.02563,786.9231,778.0586,842.1245
1694303810.8739998,799.011,801.4286,790.54944,788.93774,809.4872
1694303810.875,770.0,799.81683,788.1319,772.4176,922.3077
1694303810.876,747.4359,795.78754,785.31134,767.5824,1096.7766
1694303810.8769999,767.5824,797.3993,791.3553,778.86444,822.381
1694303810.881,801.8315,799.41394,793.36993,796.5934,639.85345
1694303810.882,809.0842,796.99634,793.7729,809.0842,760.32965
1694303810.915,782.8938,794.57874,795.38464,796.1905,734.1392
1694303810.916,758.315,794.9817,795.38464,777.6557,608.8278
1694303810.9169998,767.98535,796.1905,797.3993,780.87915,573.7729
1694303810.9169998,799.41394,795.78754,797.8022,795.78754,677.326
1694303810.9180002,810.696,793.7729,793.36993,807.47253,755.4945
1694303810.9180002,789.7436,790.54944,793.36993,808.2784,738.1685
1694303810.9190001,766.77655,791.3553,791.75824,786.9231,699.89014
1694303810.9190001,775.64105,797.8022,790.14655,788.1319,954.5421
1694303810.92,810.696,801.8315,792.5641,807.47253,1027.0696
1694303810.921,826.4103,802.6374,793.36993,810.696,709.9634
1694303810.921,809.0842,803.8461,797.8022,803.44324,683.7729
1694303810.922,777.25275,799.011,797.3993,784.90845,709.5604
1694303810.949,772.8205,794.57874,791.3553,780.07324,655.56775
1694303810.95,806.26373,798.20514,790.14655,802.23444,686.1905
1694303810.951,823.5897,799.81683,785.7143,814.7253,841.31866
1694303810.951,806.6667,798.20514,782.49084,800.6227,977.9121
1694303810.952,780.07324,799.81683,788.93774,787.326,817.1429
1694303810.9529998,779.67035,802.23444,791.75824,785.31134,707.1429
1694303810.9539998,807.0696,800.6227,788.93774,800.6227,942.0513
1694303810.9539998,825.2015,800.6227,790.14655,816.7399,931.5751
1694303810.9550002,817.1429,802.23444,791.75824,813.1135,739.3773
1694303810.956,782.49084,798.20514,789.34064,792.96704,661.6117
1694303810.956,774.0293,798.20514,790.14655,787.326,801.02563
1694303810.957,810.696,802.6374,794.17584,814.3223,1093.956
1694303810.9889998,829.6337,804.2491,793.7729,823.9927,880.0
1694303810.99,815.5311,799.81683,790.14655,811.0989,687.3993
1694303810.9910002,785.31134,792.96704,793.7729,790.9524,698.2784
1694303810.9910002,772.8205,794.57874,799.011,780.07324,661.2088
1694303810.992,795.78754,799.41394,793.7729,789.34064,639.85345
1694303810.992,817.9487,797.3993,791.75824,802.6374,691.8315
1694303810.993,819.9634,799.41394,796.99634,815.5311,1027.4725
1694303810.993,789.34064,801.02563,797.3993,799.41394,1041.5751
1694303810.994,772.4176,797.8022,797.8022,781.685,625.34796
1694303810.994,801.8315,800.6227,800.2198,803.0403,586.26373
1694303810.994,828.8278,802.6374,799.81683,815.9341,696.6667
1694303810.9950001,827.2161,803.8461,802.6374,815.12823,746.2271
1694303811.0609999,796.5934,803.8461,802.6374,796.1905,699.89014
1694303811.062,776.04395,803.44324,799.41394,778.86444,716.8132
1694303811.063,789.34064,803.8461,798.60803,792.96704,851.39197
1694303811.063,821.5751,803.0403,799.011,814.3223,756.7033
1694303811.064,822.381,798.60803,801.02563,817.1429,689.81683
1694303811.064,788.1319,794.17584,799.011,794.17584,859.45056
1694303811.0649998,771.6117,795.78754,799.41394,788.5348,1186.227
1694303811.0649998,789.7436,800.6227,801.02563,795.38464,1021.4286
1694303811.066,821.978,800.6227,800.2198,802.6374,676.9231
1694303811.066,826.8132,797.8022,800.6227,810.293,734.5421
1694303811.0670002,799.011,797.3993,799.81683,798.20514,731.31866
1694303811.068,772.01465,794.57874,797.3993,787.326,624.94507
1694303811.1009998,776.04395,791.3553,794.17584,790.14655,583.8461
1694303811.1020002,807.47253,790.9524,790.54944,805.4579,689.011
1694303811.106,823.1868,791.75824,794.57874,810.293,753.8828
1694303811.106,810.696,792.5641,794.57874,798.20514,735.7509
1694303811.107,801.4286,796.5934,790.9524,798.20514,677.72894
1694303811.107,794.9817,794.57874,801.02563,797.3993,861.4652
1694303811.108,801.8315,791.75824,809.4872,793.7729,972.674
1694303811.109,825.2015,792.5641,808.2784,809.89014,758.71796
1694303811.109,827.619,792.1612,807.8755,815.12823,685.78754
1694303811.1100001,793.7729,794.9817,809.4872,793.36993,734.94507
1694303811.1100001,782.8938,796.1905,808.2784,786.52014,677.326
1694303811.111,818.7546,794.17584,808.2784,806.6667,587.8755
1694303811.1390002,838.0952,794.9817,809.0842,826.0073,693.8461
1694303811.14,827.619,797.3993,805.8608,827.2161,864.68866
1694303811.14,793.7729,796.99634,801.4286,804.2491,782.8938
1694303811.141,779.2674,792.1612,800.6227,795.78754,633.8095
1694303811.141,809.4872,788.93774,801.02563,817.1429,730.10986
1694303811.1420002,832.0513,789.7436,803.8461,837.6923,940.4396
1694303811.1420002,823.1868,789.7436,803.44324,834.4689,897.326
1694303811.1430001,792.1612,790.14655,801.4286,807.47253,750.65936
1694303811.1430001,778.46155,792.96704,800.6227,794.57874,774.43225
1694303811.144,803.44324,794.17584,795.38464,809.89014,961.79486
1694303811.144,830.0366,795.38464,792.1612,817.5458,815.5311
1694303811.145,826.4103,792.1612,794.9817,816.7399,709.9634
1694303811.171,791.75824,787.72894,794.9817,805.05493,697.8755
1694303811.172,769.19415,786.9231,792.96704,784.90845,636.2271
1694303811.172,794.57874,788.93774,795.78754,796.99634,625.34796
1694303811.1729999,833.2601,791.75824,800.2198,827.2161,687.3993
1694303811.176,834.4689,795.38464,801.02563,824.7985,796.5934
1694303811.176,799.81683,796.5934,799.81683,796.99634,870.7326
1694303811.177,779.2674,798.60803,799.81683,786.1172,788.93774
1694303811.177,796.1905,796.5934,798.20514,796.1905,676.9231
1694303811.178,828.8278,794.9817,800.2198,824.7985,969.85345
1694303811.178,830.0366,796.5934,800.2198,827.2161,1029.8901
1694303811.1790001,793.7729,791.75824,798.60803,798.20514,734.94507
1694303811.1790001,769.19415,790.54944,801.02563,778.46155,729.304
1694303811.204,785.7143,792.1612,797.8022,784.5055,802.6374
1694303811.205,823.5897,798.20514,798.60803,809.89014,772.4176
1694303811.205,831.2454,799.41394,799.81683,813.5165,732.1245
1694303811.205,803.44324,793.36993,799.41394,804.65204,817.1429
1694303811.206,774.83514,789.7436,801.8315,792.96704,821.5751
1694303811.206,782.8938,788.5348,800.6227,787.326,712.381
1694303811.207,815.12823,787.72894,797.3993,805.4579,646.7033
1694303811.207,822.381,786.9231,798.60803,819.9634,776.8498
1694303811.207,799.81683,790.9524,800.2198,807.47253,1002.0879
1694303811.208,774.0293,790.9524,797.3993,782.8938,776.4469
1694303811.208,773.22345,790.14655,798.60803,781.28204,587.47253
1694303811.2089999,807.47253,792.5641,800.6227,805.05493,692.6374
1694303811.2700002,823.5897,790.54944,795.78754,818.7546,780.4762
1694303811.2710001,801.02563,790.54944,796.99634,805.8608,719.2308
1694303811.272,767.98535,788.1319,798.60803,785.7143,647.50916
1694303811.272,761.13556,787.72894,796.99634,780.07324,715.6044
1694303811.272,794.57874,795.78754,800.2198,800.2198,766.3736
1694303811.273,819.15753,796.99634,801.4286,819.15753,759.92676
1694303811.276,805.05493,799.41394,799.41394,807.8755,816.7399
1694303811.276,774.0293,801.02563,798.20514,792.1612,976.7033
1694303811.277,766.3736,799.41394,801.4286,787.72894,909.41394
1694303811.277,803.44324,800.2198,805.05493,801.4286,656.3736
1694303811.277,828.8278,796.99634,799.41394,811.9048,726.4835
1694303811.278,808.68134,798.20514,796.99634,804.65204,813.91943
1694303811.3009999,778.0586,801.8315,800.2198,794.57874,759.5238
1694303811.3009999,768.3883,800.6227,799.011,784.90845,651.13556
1694303811.302,799.011,796.99634,796.1905,797.3993,767.98535
1694303811.302,825.6044,797.8022,797.8022,819.9634,1051.2454
1694303811.303,813.91943,800.2198,798.60803,810.696,922.71063
1694303811.303,782.0879,793.7729,796.1905,784.5055,673.69965
1694303811.303,765.9707,792.1612,798.60803,780.07324,804.2491
1694303811.304,785.7143,795.78754,797.8022,796.1905,934.3956
1694303811.304,813.91943,795.78754,796.5934,811.0989,751.06226
1694303811.3049998,816.337,799.41394,796.5934,809.0842,705.12823
1694303811.3049998,785.7143,801.02563,797.8022,794.17584,720.84247
1694303811.3059998,768.7912,801.8315,799.011,789.34064,653.5531
1694303811.37,790.14655,802.23444,799.41394,803.0403,624.5421
1694303811.371,819.5604,796.1905,797.8022,811.50183,668.86444
1694303811.372,821.978,791.3553,793.36993,804.2491,765.9707
1694303811.373,791.75824,792.1612,788.93774,789.34064,768.7912
1694303811.373,767.1795,794.17584,791.3553,780.87915,648.315
1694303811.374,780.07324,795.38464,795.38464,783.2967,653.1502
1694303811.374,813.5165,794.9817,795.78754,805.8608,1052.8572
1694303811.375,826.0073,796.99634,797.8022,824.3956,1139.8901
1694303811.3779998,794.9817,797.3993,798.20514,799.81683,758.315
1694303811.379,765.9707,797.3993,793.7729,780.07324,648.71796
1694303811.38,776.4469,794.17584,788.93774,786.52014,684.57874
1694303811.38,808.68134,791.3553,790.14655,807.0696,715.2015
1694303811.403,823.5897,792.96704,794.9817,816.7399,706.7399
1694303811.403,803.8461,795.38464,794.9817,804.65204,855.0183
1694303811.404,773.6264,800.2198,794.9817,787.72894,934.3956
1694303811.405,772.01465,803.0403,797.3993,785.31134,744.61536
1694303811.405,805.05493,801.4286,799.41394,803.44324,655.16486
1694303811.4060001,823.1868,800.6227,799.81683,818.3516,902.96704
1694303811.4060001,803.44324,799.011,796.5934,814.3223,1146.7399
1694303811.407,768.3883,798.60803,795.78754,794.17584,892.0879
1694303811.407,764.7619,799.81683,796.1905,792.1612,669.2674
1694303811.408,797.8022,799.011,796.1905,815.12823,761.53845
1694303811.409,817.5458,800.6227,799.011,823.1868,952.9304
1694303811.409,803.8461,802.23444,801.4286,805.8608,738.5714
1694303811.4750001,773.22345,803.44324,802.23444,788.93774,593.1135
1694303811.476,766.77655,803.44324,802.23444,790.14655,612.4542
1694303811.477,803.44324,802.23444,798.60803,813.5165,621.31866
1694303811.4780002,828.4249,800.6227,796.1905,822.7839,683.36993
1694303811.4780002,815.12823,796.5934,794.57874,802.6374,727.6923
1694303811.479,781.685,792.96704,792.1612,778.86444,838.9011
1694303811.479,771.2088,792.5641,792.96704,771.2088,835.6777
1694303811.48,795.38464,791.3553,792.1612,784.90845,680.14655
1694303811.481,817.5458,792.5641,788.93774,796.5934,668.86444
1694303811.4819999,813.91943,797.8022,790.54944,796.99634,895.7143
1694303811.486,779.2674,797.3993,793.36993,782.8938,936.0073
1694303811.487,763.1502,794.9817,794.9817,771.6117,688.60803
1694303811.514,792.96704,794.17584,793.7729,788.1319,684.9817
1694303811.515,824.7985,797.8022,792.96704,808.68134,858.24176
1694303811.515,817.5458,794.9817,788.93774,803.44324,803.44324
1694303811.516,784.5055,795.38464,788.1319,785.7143,664.83514
1694303811.517,767.5824,797.8022,793.36993,776.4469,753.8828
1694303811.5180001,786.9231,799.011,794.9817,792.96704,1004.5055
1694303811.52,816.337,800.2198,792.1612,808.2784,895.7143
1694303811.521,821.1722,796.5934,792.1612,809.4872,716.0073
1694303811.5219998,792.5641,794.57874,792.1612,795.38464,855.0183
1694303811.523,759.5238,792.1612,790.14655,780.4762,912.6374
1694303811.524,775.2381,795.78754,793.36993,793.7729,679.34064
1694303811.5249999,817.1429,798.60803,794.17584,813.1135,659.59705
1694303811.557,822.7839,795.78754,794.9817,811.9048,751.8681
1694303811.558,794.9817,795.38464,795.78754,792.1612,783.69965
1694303811.559,767.5824,797.3993,795.38464,780.4762,684.17584
1694303811.559,772.4176,797.8022,795.38464,788.5348,580.2198
1694303811.559,807.8755,796.5934,796.1905,813.1135,712.7839
1694303811.56,818.7546,794.17584,796.1905,816.337,839.304
1694303811.5609999,790.14655,794.9817,794.17584,792.1612,771.2088
1694303811.5609999,770.0,799.011,797.8022,779.2674,647.50916
1694303811.5619998,778.0586,799.81683,800.6227,786.1172,803.44324
1694303811.5619998,807.8755,798.20514,799.011,806.6667,868.71796
1694303811.563,821.978,799.41394,798.20514,811.9048,699.89014
1694303811.563,801.8315,799.41394,796.1905,799.011,770.40295
1694303811.588,769.19415,797.3993,795.78754,780.4762,770.0
1694303811.589,767.1795,796.5934,795.38464,777.6557,730.10986
1694303811.589,804.2491,798.20514,794.57874,797.8022,671.685
1694303811.5900002,820.7692,799.011,794.9817,817.1429,828.022
1694303811.5900002,804.65204,803.8461,797.3993,811.9048,1094.359
1694303811.591,775.2381,805.8608,801.4286,789.7436,869.5238
1694303811.591,769.19415,803.44324,800.6227,785.31134,637.4359
1694303811.592,807.8755,803.8461,799.41394,808.68134,805.05493
1694303811.593,833.2601,802.6374,801.4286,827.619,1002.8938
1694303811.593,819.9634,801.8315,800.2198,814.3223,836.4835
1694303811.5939999,790.54944,803.8461,798.60803,790.9524,714.7985
1694303811.5939999,782.49084,806.6667,797.8022,781.685,733.3333
1694303811.6569998,815.12823,806.26373,799.41394,805.8608,726.08057
1694303811.6579998,837.6923,806.26373,798.60803,825.2015,743.4066
1694303811.6590002,829.2308,807.8755,798.60803,813.5165,774.83514
1694303811.6590002,794.9817,804.2491,801.02563,788.93774,740.18317
1694303811.66,774.83514,801.4286,797.8022,778.86444,711.5751
1694303811.661,797.3993,803.8461,796.1905,800.2198,713.9927
1694303811.661,822.381,805.05493,799.011,818.3516,715.2015
1694303811.6620002,819.9634,802.6374,799.41394,820.3663,1067.3627
1694303811.6620002,790.14655,799.011,799.81683,806.26373,1150.3663
1694303811.663,770.80585,800.6227,797.3993,780.4762,707.9487
1694303811.663,792.1612,802.6374,799.81683,792.96704,625.34796
1694303811.664,822.7839,802.23444,799.81683,818.3516,716.8132
1694303811.6899998,823.5897,801.4286,796.1905,815.5311,721.6484
1694303811.691,793.7729,798.20514,794.57874,789.7436,729.304
1694303811.696,772.01465,795.38464,795.78754,774.43225,760.32965
1694303811.696,787.326,794.9817,794.57874,782.0879,738.5714
1694303811.697,819.9634,795.78754,794.9817,805.05493,734.5421
1694303811.698,826.4103,796.99634,797.8022,813.5165,764.7619
1694303811.698,798.60803,796.1905,795.78754,792.96704,915.4579
1694303811.6990001,767.1795,795.38464,792.1612,778.46155,995.2381
1694303811.6990001,775.2381,797.8022,790.9524,782.49084,749.0476
1694303811.7,817.1429,799.41394,794.17584,803.0403,616.4835
1694303811.701,826.4103,799.41394,792.1612,812.71063,818.7546
1694303811.7020001,795.38464,798.60803,790.54944,801.8315,1054.0659
1694303811.731,770.0,798.20514,792.96704,771.6117,746.2271
1694303811.732,774.0293,797.3993,795.78754,768.7912,542.74725
1694303811.733,806.6667,796.1905,796.1905,800.6227,660.40295
1694303811.733,820.3663,796.99634,794.9817,811.9048,724.4689
1694303811.7340002,798.60803,797.8022,794.17584,801.02563,707.5458
1694303811.7340002,771.2088,798.20514,794.17584,779.2674,661.6117
1694303811.7350001,771.6117,796.5934,792.96704,780.4762,886.8498
1694303811.7350001,809.89014,796.5934,788.5348,805.8608,944.0659
1694303811.736,836.8865,802.23444,792.96704,810.696,709.15753
1694303811.736,819.15753,803.0403,797.8022,798.60803,722.4542
1694303811.737,778.46155,800.2198,799.41394,778.86444,713.1868
1694303811.737,765.56775,795.78754,796.5934,777.25275,725.6777
1694303811.82,801.8315,796.99634,796.1905,799.011,676.1172
1694303811.8209999,828.8278,799.81683,799.011,813.91943,778.86444
1694303811.822,807.0696,799.81683,798.20514,810.293,1064.5421
1694303811.823,770.40295,798.60803,796.1905,786.52014,889.2674
1694303811.8270001,769.19415,797.3993,800.6227,773.22345,583.0403
1694303811.828,800.6227,795.78754,802.23444,798.20514,781.685
1694303811.828,824.7985,795.78754,800.6227,819.15753,1025.0549
1694303811.829,815.12823,795.78754,799.81683,806.26373,792.1612
1694303811.8300002,779.67035,795.78754,799.81683,786.9231,610.84247
1694303811.8300002,763.5531,792.1612,799.81683,779.2674,700.293
1694303811.831,789.34064,791.75824,798.60803,793.36993,741.39197
1694303811.832,819.15753,792.5641,799.011,807.8755,670.4762
1694303811.86,817.1429,793.36993,797.8022,803.8461,684.9817
1694303811.8609998,782.8938,796.5934,798.20514,790.14655,710.3663
1694303811.8620002,770.0,793.7729,799.41394,778.0586,693.0403
1694303811.8630002,796.1905,794.17584,796.99634,785.7143,641.4652
1694303811.864,821.1722,796.5934,795.78754,798.60803,665.2381
1694303811.864,817.5458,791.75824,793.7729,803.44324,1060.1099
1694303811.865,790.14655,794.57874,792.96704,788.5348,1163.663
1694303811.866,775.64105,801.8315,794.9817,767.98535,747.8388
1694303811.866,790.9524,799.81683,794.57874,773.22345,672.0879
1694303811.867,819.9634,796.5934,795.78754,796.99634,867.50916
1694303811.867,827.2161,799.011,799.011,809.89014,861.4652
1694303811.868,792.5641,801.02563,802.23444,790.14655,713.5897
1694303811.869,766.3736,800.2198,800.6227,772.01465,695.8608
1694303811.8700001,781.28204,799.011,797.8022,777.6557,755.89746
1694303811.8700001,814.3223,800.2198,798.20514,803.8461,776.4469
1694303811.871,822.381,799.81683,801.02563,811.50183,679.34064
1694303811.871,801.02563,796.5934,798.60803,790.14655,788.5348
1694303811.872,776.4469,797.3993,795.38464,786.1172,1121.3553
1694303811.876,777.25275,798.20514,796.1905,788.1319,978.315
1694303811.876,814.3223,796.5934,794.57874,799.41394,680.14655
1694303811.8769999,832.4542,794.9817,796.99634,816.7399,829.6337
1694303811.8769999,810.293,797.8022,801.8315,811.0989,956.55676
1694303811.878,779.67035,797.8022,801.8315,792.96704,698.2784
1694303811.879,782.0879,790.9524,800.2198,796.1905,587.8755
1694303811.9129999,820.7692,792.1612,799.011,817.5458,673.69965
1694303811.9139998,832.0513,802.6374,793.36993,821.1722,764.35895
1694303811.915,815.12823,805.05493,788.5348,815.9341,755.09155
1694303811.916,801.4286,803.44324,794.17584,812.71063,692.23444
1694303811.916,798.20514,799.81683,799.81683,815.12823,663.6264
1694303811.9169998,828.8278,794.57874,798.60803,834.0659,726.8865
1694303811.9180002,857.03296,791.3553,803.0403,852.6007,856.2271
1694303811.9190001,842.9304,785.7143,802.23444,843.73627,838.9011
1694303811.92,819.15753,790.54944,801.8315,835.2747,951.31866
1694303811.92,811.0989,790.14655,803.0403,836.4835,975.09155
1694303811.921,834.4689,785.7143,798.20514,844.94507,664.83514
1694303811.922,860.2564,785.31134,799.81683,853.4066,677.72894
1694303811.978,848.5714,785.7143,798.20514,846.1539,762.74725
1694303811.979,810.696,786.52014,795.78754,825.6044,753.47986
1694303811.979,794.17584,789.34064,794.57874,804.65204,658.3883
1694303811.979,819.9634,788.1319,795.38464,814.7253,718.8278
1694303811.98,848.1685,790.9524,799.81683,838.0952,912.23444
1694303811.98,840.9158,788.1319,798.20514,834.4689,906.99634
1694303811.981,805.4579,786.52014,797.3993,809.89014,809.0842
1694303811.981,785.31134,793.36993,800.6227,803.44324,823.5897
1694303811.983,806.26373,795.38464,801.4286,822.381,961.79486
1694303811.984,833.663,797.3993,798.60803,828.8278,848.1685
1694303811.984,836.08057,797.8022,796.5934,828.022,734.5421
1694303811.985,800.6227,796.5934,796.5934,809.4872,779.67035
1694303812.049,774.0293,797.3993,794.9817,792.96704,793.36993
1694303812.05,797.3993,795.38464,796.1905,810.696,647.50916
1694303812.051,834.87177,795.78754,796.99634,833.2601,672.49084
1694303812.052,838.9011,801.02563,794.9817,834.0659,721.2454
1694303812.053,810.696,802.23444,798.20514,813.91943,687.8022
1694303812.0540001,790.54944,801.4286,802.6374,798.20514,708.7546
1694303812.055,800.2198,800.2198,803.44324,803.44324,740.989
1694303812.055,830.84247,799.41394,803.8461,829.6337,951.7216
1694303812.056,837.28937,801.8315,804.2491,836.4835,964.61536
1694303812.056,805.05493,803.0403,803.0403,805.8608,677.326
1694303812.057,776.4469,800.6227,800.6227,787.72894,633.4066
1694303812.057,783.2967,799.81683,797.8022,792.96704,685.38464
1694303812.0860002,813.5165,796.99634,796.1905,812.71063,712.7839
1694303812.0870001,825.2015,796.1905,800.2198,825.2015,801.02563
1694303812.088,800.6227,797.8022,801.8315,807.8755,838.49817
1694303812.089,768.7912,794.9817,796.99634,791.3553,981.53845
1694303812.089,775.2381,795.38464,796.99634,788.5348,923.1135
1694303812.09,807.47253,797.3993,797.3993,803.8461,661.6117
1694303812.091,821.978,797.8022,793.7729,820.7692,867.9121
1694303812.092,804.2491,796.1905,793.36993,816.337,1080.6593
1694303812.093,767.1795,794.57874,796.5934,788.1319,766.3736
1694303812.093,759.5238,792.96704,796.1905,782.49084,583.8461
1694303812.097,803.44324,797.3993,797.8022,803.8461,668.46155
1694303812.0979998,826.8132,802.23444,799.41394,813.5165,714.3956
1694303812.125,805.05493,796.99634,797.8022,807.47253,718.4249
1694303812.1260002,770.0,792.5641,796.5934,786.52014,670.87915
1694303812.1260002,759.92676,794.17584,794.9817,777.6557,658.7912
1694303812.127,793.7729,796.1905,795.38464,795.78754,739.3773
1694303812.127,818.3516,796.1905,797.8022,811.9048,749.85345
1694303812.128,805.8608,796.1905,799.41394,806.26373,780.87915
1694303812.128,771.2088,793.7729,799.41394,786.52014,872.74725
1694303812.129,761.9414,793.36993,799.41394,778.0586,784.90845
1694303812.129,796.99634,795.78754,798.20514,790.54944,660.80585
1694303812.1299999,820.3663,796.99634,797.3993,805.4579,642.674
1694303812.1299999,808.68134,795.38464,799.41394,814.3223,988.7912
1694303812.1299999,774.43225,792.1612,796.1905,801.4286,1067.3627
1694303812.1580002,759.5238,792.1612,790.9524,775.64105,650.32965
1694303812.1590002,787.72894,792.5641,794.9817,787.72894,733.73627
1694303812.16,818.3516,794.17584,798.60803,815.5311,949.707
1694303812.16,819.9634,798.60803,799.41394,814.3223,834.4689
1694303812.161,792.5641,799.011,796.99634,788.93774,692.23444
1694303812.162,769.19415,792.5641,794.17584,778.86444,805.8608
1694303812.163,781.685,788.5348,795.78754,794.9817,994.43225
1694303812.163,813.5165,790.9524,793.7729,814.7253,853.8095
1694303812.164,820.3663,796.5934,792.1612,813.1135,682.1612
1694303812.165,789.34064,794.9817,790.54944,797.3993,800.2198
1694303812.1660001,770.0,796.99634,790.9524,788.93774,922.3077
1694303812.167,784.10254,803.8461,793.7729,792.1612,707.1429
1694303812.204,817.9487,800.6227,794.9817,811.9048,666.04395
1694303812.205,830.4396,797.3993,794.17584,813.1135,720.0366
1694303812.205,793.7729,797.3993,795.38464,792.1612,699.0842
1694303812.206,763.5531,796.5934,793.36993,779.2674,638.6447
1694303812.206,775.64105,794.9817,791.3553,780.4762,627.3626
1694303812.207,808.68134,793.36993,790.9524,799.011,745.82416
1694303812.208,824.7985,793.7729,790.14655,809.89014,868.71796
1694303812.208,801.02563,796.1905,790.14655,798.20514,796.99634
1694303812.2089999,771.2088,792.1612,792.96704,774.83514,680.9524
1694303812.2099998,773.22345,789.7436,792.96704,778.0586,919.4872
1694303812.2099998,805.8608,795.38464,792.5641,804.2491,967.03296
1694303812.2099998,821.978,794.9817,792.96704,806.26373,686.1905
1694303812.278,797.8022,791.75824,790.9524,790.14655,691.02563
1694303812.279,768.7912,791.3553,792.1612,764.35895,738.5714
1694303812.28,764.7619,790.54944,792.1612,761.9414,680.54944
1694303812.281,798.20514,794.9817,794.57874,788.5348,603.5897
1694303812.281,819.9634,796.99634,793.7729,806.26373,814.7253
1694303812.2819998,799.41394,795.38464,790.54944,800.2198,1060.1099
1694303812.2819998,767.5824,796.99634,790.54944,776.4469,857.03296
1694303812.283,767.5824,798.60803,793.36993,770.40295,651.53845
1694303812.283,805.05493,797.3993,792.5641,794.9817,738.5714
1694303812.284,825.2015,796.1905,793.7729,814.3223,936.8132
1694303812.2849998,811.0989,796.1905,796.1905,801.8315,776.8498
1694303812.286,780.07324,794.9817,795.78754,776.8498,630.18317
1694303812.319,767.1795,792.96704,792.96704,775.64105,724.4689
1694303812.32,792.96704,793.7729,793.36993,794.57874,747.8388
1694303812.324,825.2015,795.78754,794.9817,803.0403,646.30035
1694303812.325,823.1868,795.78754,792.96704,797.8022,695.05493
1694303812.325,783.69965,794.57874,791.75824,783.2967,723.2601
1694303812.3260002,767.5824,796.1905,795.38464,784.90845,718.022
1694303812.3260002,797.8022,799.41394,798.20514,800.6227,732.1245
1694303812.3270001,822.7839,799.81683,797.8022,812.3077,716.4103
1694303812.3270001,821.1722,796.99634,795.78754,823.5897,927.9487
1694303812.328,795.38464,798.20514,796.99634,810.293,936.4103
1694303812.329,776.8498,797.3993,801.02563,786.52014,641.06226
1694303812.331,793.7729,797.3993,800.2198,796.99634,665.2381
1694303812.3609998,822.381,800.2198,796.99634,819.15753,771.6117
1694303812.362,830.84247,799.41394,794.9817,821.1722,762.3443
1694303812.3630002,799.81683,796.1905,797.3993,801.02563,735.34796
1694303812.365,769.19415,794.57874,795.78754,786.9231,772.01465
1694303812.3660002,783.69965,796.5934,790.9524,799.41394,938.8278
1694303812.367,816.337,797.3993,786.52014,813.5165,874.7619
1694303812.368,821.1722,797.8022,785.7143,812.71063,771.2088
1694303812.368,792.5641,796.99634,790.54944,801.4286,902.5641
1694303812.369,768.7912,794.17584,788.93774,790.14655,994.43225
1694303812.37,777.6557,795.38464,786.52014,792.5641,788.1319
1694303812.371,814.7253,797.3993,788.5348,808.2784,668.86444
1694303812.372,825.2015,795.78754,788.93774,817.9487,720.84247
1694303812.4060001,793.7729,789.7436,789.34064,803.0403,724.4689
1694303812.407,763.5531,784.90845,788.1319,781.28204,680.54944
1694303812.408,768.7912,787.326,790.9524,788.1319,637.8388
1694303812.409,802.6374,791.3553,794.9817,810.696,680.54944
1694303812.4129999,819.9634,791.75824,794.57874,813.91943,825.2015
1694303812.414,801.4286,792.5641,793.7729,803.8461,840.10986
1694303812.414,767.5824,792.1612,792.1612,786.1172,741.39197
1694303812.415,770.40295,793.36993,794.17584,788.93774,944.4689
1694303812.415,809.4872,797.8022,793.7729,817.1429,1060.9158
1694303812.416,829.2308,798.20514,790.9524,817.9487,771.2088
1694303812.4169998,809.0842,793.7729,787.326,803.8461,736.55676
1694303812.4169998,776.04395,794.17584,788.1319,794.57874,747.03296
1694303812.442,775.64105,795.38464,792.5641,797.8022,673.2967
1694303812.443,807.8755,793.36993,791.75824,811.9048,668.46155
1694303812.443,823.9927,794.9817,790.9524,817.9487,801.8315
1694303812.444,811.0989,794.17584,792.5641,806.6667,919.89014
1694303812.445,778.86444,790.14655,792.96704,788.93774,743.00366
1694303812.445,763.5531,792.5641,790.14655,781.685,595.9341
1694303812.446,797.3993,794.17584,788.5348,801.4286,760.32965
1694303812.446,840.10986,792.1612,798.20514,842.52747,1069.7803
1694303812.446,828.4249,799.81683,800.2198,831.6484,891.685
1694303812.447,767.98535,806.26373,794.9817,777.25275,613.663
1694303812.447,745.82416,807.47253,796.5934,763.1502,652.74725
1694303812.448,769.19415,813.1135,790.54944,774.43225,693.0403
1694303812.497,790.9524,811.0989,788.5348,782.8938,675.31134
1694303812.498,780.4762,812.3077,792.1612,770.40295,694.2491
1694303812.499,740.18317,813.1135,791.3553,745.0183,726.4835
1694303812.499,719.6337,811.9048,787.72894,734.1392,716.0073
1694303812.5,735.34796,815.12823,785.7143,737.3626,676.52014
1694303812.5,759.5238,813.5165,784.90845,742.6007,748.24176
1694303812.5049999,760.32965,813.1135,786.9231,750.65936,1057.2894
1694303812.5059998,730.9158,813.91943,789.7436,744.61536,1079.4506
1694303812.5059998,713.1868,812.71063,786.9231,726.8865,717.2161
1694303812.507,740.18317,812.3077,787.72894,739.3773,694.65204
1694303812.508,777.6557,814.3223,790.54944,763.95605,795.38464
1694303812.5089998,782.0879,815.12823,790.14655,771.6117,745.82416
1694303812.556,754.2857,809.89014,785.7143,751.06226,666.8498
1694303812.557,732.52747,803.8461,784.5055,736.9597,704.3223
1694303812.557,746.2271,802.23444,787.72894,751.4652,805.05493
1694303812.558,786.1172,803.44324,792.1612,782.0879,752.27106
1694303812.559,801.02563,801.8315,792.96704,795.38464,690.2198
1694303812.559,770.40295,798.20514,790.14655,780.07324,882.4176
1694303812.56,745.0183,798.20514,790.14655,766.3736,1061.3187
1694303812.56,755.4945,799.41394,791.3553,763.95605,759.12085
1694303812.5609999,789.34064,795.38464,787.72894,782.0879,595.5311
1694303812.5609999,800.2198,794.17584,784.90845,800.6227,801.8315
1694303812.5619998,778.46155,797.8022,787.326,788.93774,858.6447
1694303812.5619998,756.7033,795.38464,788.5348,763.95605,684.9817
1694303812.595,762.74725,798.20514,789.7436,766.77655,647.50916
1694303812.596,800.6227,805.05493,792.96704,794.17584,753.8828
1694303812.597,818.3516,805.05493,792.1612,801.02563,807.0696
1694303812.597,803.44324,801.4286,792.96704,797.3993,711.5751
1694303812.598,780.07324,801.02563,799.41394,788.5348,643.0769
1694303812.598,771.2088,799.011,797.3993,774.0293,718.022
1694303812.599,800.2198,794.9817,791.3553,790.14655,772.01465
1694303812.6,821.978,794.9817,793.7729,810.293,704.7253
1694303812.604,806.26373,796.5934,793.7729,801.02563,719.2308
1694303812.605,777.6557,796.99634,790.9524,777.6557,875.9707
1694303812.605,767.1795,799.011,793.36993,777.25275,815.12823
1694303812.6060002,796.5934,798.60803,795.38464,795.38464,642.674
1694303812.649,824.7985,796.1905,792.96704,807.8755,734.1392
1694303812.651,814.3223,794.57874,794.57874,803.44324,833.2601
1694303812.652,773.22345,792.96704,790.54944,784.5055,811.9048
1694303812.6529999,761.13556,796.1905,788.1319,776.4469,706.337
1694303812.654,794.9817,797.8022,788.5348,790.9524,691.02563
1694303812.655,823.9927,797.8022,790.54944,818.7546,1130.2197
1694303812.656,824.7985,800.6227,795.78754,817.5458,1215.641
1694303812.656,798.20514,801.8315,799.41394,795.38464,790.9524
1694303812.6569998,779.2674,801.02563,797.8022,792.1612,763.1502
1694303812.6579998,794.17584,800.6227,792.96704,802.23444,795.78754
1694303812.6579998,824.3956,802.23444,794.57874,820.3663,705.12823
1694303812.6590002,831.6484,802.23444,793.7729,823.1868,710.3663
1694303812.728,802.23444,796.5934,793.36993,802.23444,712.381
1694303812.7299998,781.28204,790.14655,794.9817,787.72894,645.4945
1694303812.731,797.8022,792.1612,795.38464,793.7729,586.6667
1694303812.731,831.2454,799.81683,792.96704,812.71063,659.19415
1694303812.732,836.08057,799.81683,790.9524,815.5311,760.32965
1694303812.733,803.0403,792.5641,790.54944,793.7729,792.5641
1694303812.7340002,777.6557,794.9817,794.57874,780.4762,767.5824
1694303812.7350001,792.96704,801.02563,799.41394,791.3553,757.9121
1694303812.736,838.9011,801.4286,794.17584,827.2161,1019.41394
1694303812.738,842.52747,799.41394,794.17584,838.49817,1161.2454
1694303812.743,790.54944,793.7729,799.81683,802.23444,817.9487
1694303812.744,763.1502,790.54944,799.81683,781.685,689.011
1694303812.7710001,773.6264,786.52014,799.81683,790.54944,711.1722
1694303812.7740002,805.4579,786.52014,798.20514,809.89014,760.32965
1694303812.775,825.6044,792.5641,796.1905,814.7253,732.1245
1694303812.776,797.8022,792.96704,794.57874,795.78754,772.4176
1694303812.776,765.9707,794.57874,793.36993,786.52014,865.09155
1694303812.777,772.8205,796.5934,794.57874,788.5348,722.4542
1694303812.7779999,813.1135,793.7729,793.7729,804.65204,642.27106
1694303812.779,835.6777,795.38464,795.78754,818.7546,770.80585
1694303812.779,810.293,797.8022,796.5934,818.3516,1102.8206
1694303812.78,780.07324,795.78754,791.75824,794.9817,888.0586
1694303812.782,784.90845,797.8022,791.75824,784.10254,581.8315
1694303812.783,814.3223,796.5934,791.3553,805.4579,674.90845
1694303812.7910001,834.0659,796.1905,790.14655,820.7692,736.9597
1694303812.793,818.3516,799.81683,790.14655,808.68134,714.7985
1694303812.794,784.90845,800.2198,790.14655,784.5055,692.6374
1694303812.795,780.4762,800.2198,792.1612,788.1319,691.02563
1694303812.796,810.293,795.78754,794.9817,809.4872,708.3516
1694303812.798,830.4396,794.9817,797.8022,825.2015,770.80585
1694303812.799,813.1135,796.1905,794.57874,817.1429,863.0769
1694303812.8009999,782.0879,794.9817,795.38464,801.02563,1017.8022
1694303812.8019998,777.25275,801.4286,806.26373,804.2491,925.9341
1694303812.803,807.47253,806.26373,806.26373,814.3223,623.3333
1694303812.804,835.2747,804.65204,803.8461,825.6044,703.1135
1694303812.804,828.8278,803.0403,809.0842,822.381,868.315
1694303812.833,796.5934,807.0696,809.0842,806.26373,707.5458
1694303812.8339999,782.49084,809.4872,811.0989,796.1905,608.022
1694303812.835,808.68134,809.0842,807.47253,805.05493,709.5604
1694303812.835,836.08057,812.71063,806.6667,823.1868,886.8498
1694303812.836,835.2747,813.1135,812.3077,819.5604,851.39197
1694303812.836,801.4286,808.2784,805.4579,794.17584,681.3553
1694303812.837,777.6557,805.8608,803.0403,785.7143,827.2161
1694303812.837,804.2491,808.68134,808.68134,801.4286,991.2088
1694303812.838,837.28937,812.71063,808.68134,821.978,775.2381
1694303812.838,829.6337,807.47253,805.4579,822.7839,708.3516
1694303812.838,792.96704,803.8461,801.8315,803.44324,744.21246
1694303812.839,769.59705,808.2784,801.8315,788.5348,658.7912
1694303812.866,784.5055,809.89014,802.6374,795.38464,586.26373
1694303812.867,815.9341,807.8755,800.6227,814.3223,607.2161
1694303812.867,830.0366,807.47253,801.8315,819.9634,765.16486
1694303812.868,802.6374,810.696,807.47253,800.2198,797.8022
1694303812.868,777.6557,808.68134,808.2784,782.49084,653.1502
1694303812.868,790.54944,804.65204,805.05493,799.81683,662.4176
1694303812.869,822.7839,807.8755,807.8755,827.2161,845.7509
1694303812.8700001,831.2454,807.47253,806.6667,826.4103,873.1502
1694303812.8700001,801.4286,803.8461,802.6374,804.65204,739.7802
1694303812.871,776.8498,803.0403,802.23444,788.5348,692.6374
1694303812.871,784.5055,802.23444,801.4286,796.5934,803.44324
1694303812.872,821.5751,803.0403,804.65204,823.5897,832.4542
1694303812.929,837.6923,804.65204,808.2784,830.84247,737.3626
1694303812.9299998,809.0842,804.2491,809.0842,817.9487,844.94507
1694303812.934,780.07324,805.05493,807.0696,802.23444,931.1722
1694303812.9350002,777.25275,803.8461,801.8315,789.7436,824.3956
1694303812.9350002,807.8755,803.44324,801.02563,804.65204,730.9158
1694303812.936,828.8278,804.65204,802.6374,823.9927,890.87915
1694303812.936,807.47253,806.6667,804.2491,821.978,1236.9963
1694303812.937,770.0,804.65204,804.65204,796.99634,981.53845
1694303812.937,767.5824,802.6374,801.8315,788.1319,646.7033
1694303812.938,804.65204,805.4579,801.4286,803.44324,712.7839
1694303812.938,824.3956,805.4579,803.44324,811.50183,735.7509
1694303812.9390001,811.0989,804.2491,799.81683,803.8461,741.39197
1694303812.968,777.6557,802.6374,795.38464,780.87915,707.1429
1694303812.9689999,761.53845,803.44324,798.60803,770.40295,660.80585
1694303812.9699998,792.5641,802.6374,797.3993,786.9231,695.8608
1694303812.9699998,819.5604,798.20514,793.36993,805.4579,717.619
1694303812.971,813.1135,798.20514,794.9817,798.60803,753.0769
1694303812.972,787.326,804.2491,799.41394,781.685,863.0769
1694303812.972,769.19415,805.05493,796.99634,774.83514,799.81683
1694303812.973,792.96704,803.8461,796.5934,788.1319,680.54944
1694303812.973,824.7985,801.4286,801.8315,812.3077,690.6227
1694303812.9740002,820.3663,800.2198,804.65204,817.9487,751.4652
1694303812.9740002,786.1172,799.41394,806.26373,796.1905,706.7399
1694303812.9750001,768.3883,798.20514,803.8461,778.0586,596.337
1694303813.02,791.3553,798.60803,803.0403,794.57874,570.9524
1694303813.021,826.8132,802.6374,808.68134,831.2454,1061.3187
1694303813.022,827.619,803.0403,811.50183,842.1245,1265.2014
1694303813.022,800.6227,795.38464,810.696,815.5311,790.14655
1694303813.0259998,784.5055,794.9817,805.05493,796.99634,686.99634
1694303813.0259998,789.7436,799.011,798.60803,794.9817,766.77655
1694303813.027,830.4396,796.1905,797.8022,817.9487,747.8388
1694303813.027,851.39197,799.81683,794.57874,836.08057,688.20514
1694303813.028,819.9634,796.99634,793.36993,818.3516,794.17584
1694303813.029,805.4579,792.5641,794.57874,815.5311,1068.5714
1694303813.0300002,819.9634,793.7729,794.57874,827.2161,873.5531
1694303813.0300002,849.3773,794.57874,794.9817,840.5128,655.9707
1694303813.059,865.89746,796.1905,796.1905,853.4066,738.97437
1694303813.06,839.707,796.5934,796.1905,835.2747,736.9597
1694303813.0609999,807.0696,798.20514,796.1905,813.5165,673.69965
1694303813.0609999,812.3077,803.44324,796.5934,812.71063,620.9158
1694303813.062,844.5421,805.05493,794.57874,828.022,647.9121
1694303813.062,857.03296,805.8608,794.57874,838.49817,751.4652
1694303813.063,832.0513,804.2491,795.38464,823.1868,763.95605
1694303813.063,791.75824,796.5934,791.3553,799.81683,641.4652
1694303813.064,785.31134,793.7729,789.34064,802.6374,890.87915
1694303813.064,822.7839,794.9817,793.7729,826.4103,1042.7839
1694303813.0649998,842.52747,794.57874,793.36993,832.8571,725.6777
1694303813.0649998,822.381,794.17584,793.36993,822.7839,767.98535
1694303813.088,793.36993,799.011,799.81683,808.2784,797.3993
1694303813.088,791.75824,799.81683,801.4286,806.6667,676.52014
1694303813.089,827.2161,798.20514,801.02563,817.5458,709.15753
1694303813.089,848.1685,797.3993,800.6227,825.2015,865.4945
1694303813.09,830.84247,793.36993,799.41394,825.2015,975.4945
1694303813.09,799.81683,795.38464,798.60803,809.89014,838.0952
1694303813.093,791.3553,798.60803,797.3993,792.96704,748.24176
1694303813.094,819.9634,796.5934,797.8022,815.12823,779.2674
1694303813.095,838.49817,792.96704,795.78754,838.0952,1109.6703
1694303813.095,828.8278,796.99634,794.17584,827.619,1029.0842
1694303813.096,794.9817,799.011,791.75824,797.8022,662.01465
1694303813.096,776.04395,793.7729,792.1612,781.685,613.2601
1694303813.127,805.05493,792.96704,794.17584,801.02563,602.7839
1694303813.128,833.663,796.99634,792.96704,822.7839,618.9011
1694303813.129,827.619,794.9817,792.96704,823.1868,718.8278
1694303813.129,791.3553,791.75824,792.1612,801.4286,819.9634
1694303813.1299999,775.2381,796.1905,794.57874,790.54944,760.7326
1694303813.1299999,801.4286,798.60803,796.5934,804.2491,662.8205
1694303813.131,825.6044,795.78754,792.96704,821.978,681.3553
1694303813.131,823.5897,792.96704,794.17584,836.4835,981.13556
1694303813.134,793.36993,796.1905,793.36993,814.7253,1036.7399
1694303813.134,776.4469,800.6227,794.57874,788.1319,696.26373
1694303813.135,796.99634,802.6374,798.60803,800.2198,692.23444
1694303813.136,830.84247,803.8461,796.99634,826.8132,799.011
1694303813.231,834.87177,802.23444,801.02563,835.2747,816.337
1694303813.232,802.6374,795.78754,802.23444,819.15753,772.4176
1694303813.233,779.2674,793.7729,796.99634,799.41394,746.2271
1694303813.233,789.34064,793.7729,797.8022,805.4579,805.4579
1694303813.234,821.1722,792.5641,799.81683,823.9927,744.21246
1694303813.2350001,833.2601,792.5641,799.011,826.0073,721.6484
1694303813.2350001,805.4579,796.1905,797.8022,809.0842,869.92676
1694303813.236,776.8498,797.8022,797.3993,795.38464,1150.3663
1694303813.24,786.52014,799.011,799.81683,794.57874,896.52014
1694303813.241,828.022,801.02563,800.6227,812.71063,606.4103
1694303813.2419999,837.28937,797.3993,797.8022,823.5897,749.45056
1694303813.2419999,805.05493,794.9817,796.1905,804.65204,787.326
1694303813.2700002,774.0293,793.7729,791.75824,788.93774,682.96704
1694303813.2710001,776.8498,791.3553,792.1612,794.17584,624.5421
1694303813.2710001,818.7546,795.78754,795.38464,816.7399,694.65204
1694303813.272,836.08057,796.1905,794.57874,828.022,791.75824
1694303813.273,812.71063,792.96704,792.96704,812.3077,809.0842
1694303813.273,784.10254,794.17584,794.17584,791.3553,713.1868
1694303813.274,782.8938,796.5934,797.3993,790.9524,930.3663
1694303813.275,817.9487,800.2198,796.5934,804.65204,1098.7913
1694303813.275,838.0952,799.81683,792.96704,809.4872,818.3516
1694303813.276,825.2015,796.99634,793.36993,805.05493,730.5128
1694303813.276,793.7729,800.6227,795.78754,794.9817,788.5348
1694303813.277,795.38464,805.8608,790.54944,798.60803,708.7546
1694303813.278,816.7399,800.2198,795.78754,813.5165,610.4396
1694303813.279,814.7253,791.3553,807.0696,811.9048,806.26373
1694303813.28,815.9341,790.54944,806.6667,818.3516,931.978
1694303813.28,802.23444,790.14655,809.89014,814.3223,717.2161
1694303813.281,793.7729,789.7436,807.8755,806.26373,571.75824
1694303813.281,820.7692,792.1612,802.6374,825.6044,670.07324
1694303813.2819998,839.707,790.9524,801.4286,848.1685,1148.7546
1694303813.2819998,831.6484,788.5348,799.41394,841.31866,1081.0623
1694303813.283,797.3993,788.1319,798.20514,817.5458,653.1502
1694303813.283,780.4762,789.34064,796.99634,811.50183,628.1685
1694303813.2870002,802.6374,788.93774,794.9817,823.9927,639.45056
1694303813.2870002,825.2015,792.5641,794.17584,832.0513,704.3223
1694303813.334,828.022,795.38464,795.38464,821.5751,700.293
1694303813.335,799.41394,792.96704,794.9817,805.8608,843.73627
1694303813.336,771.2088,792.1612,793.7729,786.1172,838.9011
1694303813.336,787.326,795.38464,796.5934,791.3553,596.337
1694303813.337,822.381,798.20514,794.9817,818.7546,648.71796
1694303813.3379998,831.2454,796.99634,792.1612,821.978,821.5751
1694303813.3379998,799.41394,798.20514,796.1905,796.5934,851.79486
1694303813.339,771.6117,799.011,792.5641,774.43225,709.5604
1694303813.339,786.9231,795.38464,793.7729,786.9231,646.7033
1694303813.34,821.5751,796.5934,794.9817,817.1429,885.64105
1694303813.3409998,830.4396,799.011,795.38464,820.7692,904.17584
1694303813.3409998,799.011,799.41394,796.5934,796.5934,695.8608
1694303813.393,769.59705,798.20514,794.9817,784.10254,715.6044
1694303813.3939998,780.07324,800.2198,794.9817,789.34064,747.4359
1694303813.395,813.91943,798.60803,790.9524,811.50183,713.9927
1694303813.396,823.9927,794.17584,786.9231,821.1722,702.3077
1694303813.396,799.011,790.9524,786.52014,805.05493,793.36993
1694303813.3969998,780.4762,794.17584,789.34064,802.6374,1140.2931
1694303813.3980002,795.78754,798.60803,792.5641,811.9048,1026.2638
1694303813.3990002,815.5311,787.326,799.011,818.3516,703.5165
1694303813.4,824.3956,782.49084,805.8608,829.6337,840.10986
1694303813.4,822.7839,787.326,809.4872,834.4689,926.337
1694303813.401,802.23444,794.9817,805.8608,812.3077,693.8461
1694303813.402,795.38464,794.9817,798.20514,804.2491,599.15753
1694303813.436,832.8571,793.36993,797.8022,827.2161,654.35895
1694303813.437,850.58606,792.1612,802.23444,835.6777,730.5128
1694303813.4380002,829.2308,788.1319,800.2198,822.7839,718.8278
1694303813.4390001,799.41394,787.72894,799.011,812.3077,682.1612
1694303813.4390001,790.14655,788.1319,797.8022,809.0842,724.87177
1694303813.44,821.978,791.3553,796.99634,824.7985,744.21246
1694303813.441,848.97437,796.5934,800.6227,839.304,775.64105
1694303813.442,839.304,799.41394,803.8461,828.022,713.1868
1694303813.443,807.0696,801.02563,805.4579,812.3077,841.7216
1694303813.445,784.90845,797.8022,803.8461,805.05493,914.65204
1694303813.446,812.71063,796.99634,800.2198,822.381,634.21246
1694303813.446,840.10986,798.60803,795.38464,836.8865,697.0696
1694303813.471,823.1868,790.9524,795.78754,820.7692,795.38464
1694303813.472,789.7436,787.326,797.8022,795.78754,751.4652
1694303813.473,772.4176,784.90845,792.5641,776.4469,672.0879
1694303813.474,801.02563,787.72894,791.75824,792.96704,707.1429
1694303813.474,826.8132,792.96704,793.36993,816.7399,905.38464
1694303813.4750001,818.3516,790.14655,790.14655,809.89014,905.38464
1694303813.4750001,789.7436,790.14655,790.14655,789.34064,760.32965
1694303813.476,776.04395,796.1905,791.75824,784.5055,799.41394
1694303813.476,800.2198,799.011,794.17584,805.8608,1064.9451
1694303813.477,827.2161,794.17584,789.34064,819.9634,919.4872
1694303813.477,826.8132,792.96704,786.1172,814.3223,729.707
1694303813.4780002,792.96704,794.57874,794.9817,798.20514,767.1795
1694303813.526,772.4176,795.38464,795.38464,784.5055,707.9487
1694303813.527,787.72894,795.78754,794.57874,789.34064,637.03296
1694303813.532,819.9634,794.9817,793.36993,811.0989,674.10254
1694303813.533,826.0073,796.99634,792.5641,817.9487,762.3443
1694303813.5340002,794.9817,795.38464,795.38464,803.0403,755.4945
1694303813.535,776.4469,796.99634,795.78754,792.5641,766.3736
1694303813.535,786.9231,800.2198,797.3993,794.9817,716.4103
1694303813.536,813.91943,797.3993,795.78754,813.1135,960.989
1694303813.537,823.9927,795.38464,792.96704,821.5751,1124.1758
1694303813.537,796.99634,795.38464,796.1905,799.81683,783.69965
1694303813.5379999,769.59705,794.17584,798.20514,780.87915,621.7216
1694303813.5379999,778.0586,795.78754,795.78754,790.9524,678.5348
1694303813.5660002,815.12823,799.011,796.99634,812.71063,664.43225
1694303813.5670002,829.6337,796.5934,796.5934,815.5311,673.2967
1694303813.5670002,802.23444,789.34064,794.17584,802.23444,811.50183
1694303813.568,765.9707,788.1319,792.5641,783.2967,846.1539
1694303813.568,765.9707,792.96704,791.75824,778.46155,695.8608
1694303813.569,812.3077,796.99634,790.14655,801.8315,662.4176
1694303813.569,830.4396,796.5934,796.99634,821.978,898.5348
1694303813.57,792.5641,789.34064,800.2198,801.8315,1066.1538
1694303813.571,761.53845,780.4762,797.3993,774.0293,812.71063
1694303813.571,766.77655,778.46155,801.4286,772.8205,631.79486
1694303813.572,803.44324,781.685,796.99634,790.9524,686.5934
1694303813.572,822.7839,782.49084,793.36993,807.0696,782.49084
1694303813.605,803.8461,783.69965,795.78754,799.81683,770.80585
1694303813.6060002,764.35895,783.69965,793.7729,772.8205,643.8828
1694303813.607,756.7033,784.10254,795.38464,768.7912,693.44324
1694303813.607,796.5934,790.14655,796.1905,791.3553,743.00366
1694303813.613,823.5897,792.96704,794.9817,810.293,698.68134
1694303813.613,810.696,790.9524,799.81683,805.8608,767.1795
1694303813.614,777.25275,789.7436,796.5934,787.72894,1010.9524
1694303813.615,761.9414,794.9817,794.17584,778.86444,917.8755
1694303813.615,790.54944,798.20514,797.8022,792.96704,596.337
1694303813.616,818.7546,793.7729,795.38464,810.293,675.31134
1694303813.6169999,820.7692,794.57874,797.3993,815.5311,755.09155
1694303813.6169999,796.5934,799.81683,803.44324,803.44324,715.6044
1694303813.6569998,779.67035,801.4286,802.6374,790.54944,643.0769
1694303813.6579998,803.0403,799.011,803.8461,804.2491,746.63007
1694303813.6579998,835.2747,801.4286,806.26373,823.1868,945.2747
1694303813.6579998,840.10986,805.05493,805.05493,833.2601,881.2088
1694303813.6590002,808.68134,802.6374,805.4579,817.9487,728.49817
1694303813.6590002,784.10254,802.23444,808.2784,792.96704,793.36993
1694303813.6590002,799.81683,801.8315,807.47253,809.4872,1139.8901
1694303813.66,833.663,803.0403,803.8461,835.6777,1031.5018
1694303813.66,837.6923,803.8461,805.4579,830.4396,722.8571
1694303813.66,805.4579,804.65204,803.44324,813.1135,751.8681
1694303813.661,778.46155,803.8461,801.4286,798.60803,700.696
1694303813.661,794.57874,800.6227,803.44324,803.0403,656.77655
1694303813.7289999,828.4249,799.41394,802.6374,821.978,725.2747
1694303813.731,836.08057,799.011,802.23444,828.022,792.1612
1694303813.732,811.50183,801.02563,803.44324,813.5165,809.89014
1694303813.733,782.8938,801.4286,804.65204,799.81683,701.9048
1694303813.733,786.9231,801.4286,807.47253,805.4579,648.315
1694303813.7340002,821.1722,799.81683,808.2784,830.84247,953.3333
1694303813.738,855.0183,794.17584,809.89014,860.65936,1068.1685
1694303813.739,837.28937,799.011,810.293,837.6923,766.3736
1694303813.739,772.01465,808.2784,799.41394,778.0586,632.1978
1694303813.74,753.0769,811.0989,793.36993,764.35895,736.9597
1694303813.74,791.3553,814.3223,792.1612,782.0879,755.09155
1694303813.741,811.0989,815.12823,788.93774,796.1905,701.9048
1694303813.77,781.28204,811.0989,790.9524,782.8938,746.63007
1694303813.7710001,736.9597,811.50183,792.1612,751.8681,754.68866
1694303813.772,726.08057,812.71063,788.5348,737.76556,679.34064
1694303813.773,761.13556,814.7253,788.1319,754.2857,622.1245
1694303813.7740002,789.34064,813.5165,789.34064,776.04395,763.1502
1694303813.775,773.22345,808.68134,786.52014,768.7912,1030.6959
1694303813.776,744.21246,810.293,787.72894,752.674,938.4249
1694303813.776,749.0476,811.50183,794.17584,757.9121,691.8315
1694303813.777,778.0586,809.4872,796.1905,780.4762,790.9524
1694303813.7779999,800.2198,807.0696,795.78754,804.2491,991.6117
1694303813.7779999,793.7729,804.65204,795.38464,803.8461,824.3956
1694303813.779,761.53845,804.65204,791.75824,777.6557,656.77655
1694303813.8300002,747.8388,801.8315,790.9524,772.4176,730.9158
1694303813.831,779.67035,801.02563,792.5641,788.93774,749.45056
1694303813.832,806.26373,803.44324,793.36993,793.7729,663.22345
1694303813.832,805.05493,803.8461,792.1612,792.1612,669.2674
1694303813.833,773.6264,803.8461,790.9524,776.04395,663.6264
1694303813.8339999,749.0476,806.6667,790.9524,762.3443,703.91943
1694303813.8339999,771.6117,807.8755,790.14655,778.46155,726.4835
1694303813.835,804.65204,808.68134,788.93774,799.41394,686.5934
1694303813.839,805.05493,805.8608,792.1612,810.696,932.7839
1694303813.84,774.43225,800.2198,796.1905,794.17584,1012.1612
1694303813.84,759.12085,800.6227,794.57874,771.6117,717.619
1694303813.8409998,781.685,804.2491,793.7729,786.52014,678.93774
1694303813.868,815.12823,807.8755,795.38464,808.68134,812.71063
1694303813.869,817.1429,807.0696,794.17584,809.4872,857.8388
1694303813.8700001,787.72894,805.4579,792.5641,794.57874,773.22345
1694303813.8700001,765.16486,801.8315,793.36993,785.7143,730.9158
1694303813.871,774.43225,802.23444,795.78754,792.96704,805.05493
1694303813.871,809.89014,806.6667,796.99634,805.05493,753.8828
1694303813.872,826.4103,804.2491,796.99634,814.7253,726.4835
1694303813.873,797.8022,802.6374,797.8022,802.23444,826.4103
1694303813.873,769.59705,800.6227,798.20514,788.1319,981.9414
1694303813.8739998,776.8498,796.5934,795.38464,788.5348,778.86444
1694303813.8739998,811.0989,796.99634,790.9524,803.8461,621.31866
1694303813.875,825.2015,800.6227,791.75824,813.5165,726.08057
1694303813.907,800.2198,800.6227,796.99634,795.78754,762.3443
1694303813.909,781.28204,799.011,801.4286,787.326,678.1319
1694303813.91,782.49084,804.65204,798.20514,782.0879,595.9341
1694303813.911,805.8608,813.5165,788.1319,786.52014,718.4249
1694303813.912,835.6777,820.3663,785.7143,811.0989,778.86444
1694303813.912,822.7839,816.7399,787.72894,810.696,764.35895
1694303813.9129999,785.7143,806.26373,790.14655,786.9231,726.08057
1694303813.9129999,778.46155,803.8461,792.5641,789.34064,896.1172
1694303813.9139998,809.89014,803.44324,792.1612,807.0696,962.6007
1694303813.9139998,834.0659,801.4286,792.96704,809.0842,695.8608
1694303813.9180002,815.5311,798.60803,791.3553,807.0696,709.9634
1694303813.9180002,780.87915,797.3993,791.75824,792.96704,720.4396
1694303813.9459999,771.2088,797.8022,790.9524,788.1319,660.40295
1694303813.947,799.011,793.36993,789.34064,806.26373,676.9231
1694303813.948,828.8278,794.9817,791.3553,817.5458,776.8498
1694303813.948,820.7692,796.5934,790.54944,813.1135,1038.7546
1694303813.949,786.52014,793.7729,786.9231,785.7143,921.9048
1694303813.949,772.8205,796.1905,790.14655,772.4176,680.14655
1694303813.95,805.05493,796.5934,793.7729,803.44324,806.6667
1694303813.95,833.663,798.60803,794.17584,832.8571,1064.9451
1694303813.951,821.978,799.011,792.96704,821.5751,927.5458
1694303813.951,792.96704,796.5934,793.36993,797.8022,672.8938
1694303813.952,779.2674,799.011,795.38464,781.28204,669.2674
1694303813.9529998,799.81683,795.38464,794.9817,794.17584,696.6667
1694303813.982,827.619,797.8022,791.75824,818.3516,703.91943
1694303813.983,826.0073,801.02563,791.3553,818.7546,703.91943
1694303813.984,794.57874,799.011,794.17584,799.41394,695.8608
1694303813.984,772.01465,799.81683,792.5641,780.87915,674.10254
1694303813.985,788.5348,797.8022,789.7436,796.1905,711.5751
1694303813.985,819.9634,800.2198,790.14655,817.5458,804.65204
1694303813.9859998,829.2308,803.8461,792.96704,823.9927,1093.5531
1694303813.9859998,797.8022,799.81683,796.5934,814.3223,1146.7399
1694303813.987,774.43225,797.3993,795.38464,786.52014,736.1539
1694303813.987,791.75824,796.5934,793.36993,786.1172,618.9011
1694303813.988,822.7839,797.3993,791.3553,810.696,776.4469
1694303813.9889998,829.6337,801.4286,791.3553,815.12823,770.0
1694303814.033,805.4579,799.41394,790.9524,799.011,657.1795
1694303814.035,775.64105,796.1905,790.54944,784.5055,722.4542
1694303814.036,778.46155,798.20514,790.9524,787.72894,820.3663
1694303814.037,816.337,802.6374,793.7729,807.47253,765.9707
1694303814.038,829.2308,802.6374,795.78754,813.1135,723.663
1694303814.039,799.41394,799.41394,794.17584,796.5934,853.00366
1694303814.039,767.5824,798.60803,792.1612,782.8938,1182.6007
1694303814.04,775.2381,803.0403,789.34064,788.5348,932.7839
1694303814.041,802.6374,798.60803,787.326,804.65204,643.8828
1694303814.0419998,812.3077,791.75824,790.9524,811.9048,841.31866
1694303814.0419998,799.41394,791.3553,795.78754,802.6374,882.4176
1694303814.043,765.56775,789.7436,794.17584,778.46155,666.4469
1694303814.146,763.5531,788.1319,792.96704,778.46155,587.0696
1694303814.147,801.4286,790.9524,794.57874,802.23444,653.95605
1694303814.148,820.7692,792.96704,796.1905,812.71063,734.1392
1694303814.149,806.26373,794.57874,798.20514,807.0696,733.3333
1694303814.15,774.83514,793.36993,798.20514,794.17584,710.3663
1694303814.151,766.77655,791.75824,795.78754,789.7436,732.1245
1694303814.152,801.8315,793.36993,796.5934,806.26373,732.1245
1694303814.152,822.7839,793.36993,794.9817,815.5311,696.6667
1694303814.1529999,815.9341,791.75824,794.17584,810.293,697.0696
1694303814.1539998,786.52014,793.36993,797.3993,794.57874,867.1062
1694303814.1539998,769.59705,795.38464,796.1905,786.52014,849.7802
1694303814.155,805.05493,792.96704,793.36993,805.05493,657.1795
1694303814.1569998,830.4396,791.3553,791.75824,819.15753,691.8315
1694303814.1569998,818.7546,793.36993,792.96704,815.12823,917.8755
1694303814.162,786.1172,795.78754,796.1905,792.5641,848.1685
1694303814.162,768.7912,798.60803,799.41394,778.0586,608.8278
1694303814.163,799.81683,799.011,799.011,798.60803,697.0696
1694303814.164,828.8278,799.011,795.78754,817.9487,889.67035
1694303814.164,821.5751,799.011,796.1905,811.50183,869.12085
1694303814.165,788.5348,795.78754,794.9817,790.14655,732.52747
1694303814.1660001,763.5531,795.78754,792.5641,780.4762,773.6264
1694303814.1660001,784.10254,797.3993,790.54944,791.75824,839.707
1694303814.167,814.7253,795.78754,790.54944,804.65204,765.9707
1694303814.168,806.6667,794.9817,792.96704,805.05493,747.03296
1694303814.217,776.04395,792.1612,791.75824,791.75824,879.59705
1694303814.218,758.71796,788.93774,791.75824,780.87915,907.3993
1694303814.218,771.6117,790.14655,790.54944,776.8498,673.2967
1694303814.219,806.6667,793.7729,788.93774,794.17584,676.1172
1694303814.22,815.9341,794.17584,792.1612,804.2491,831.2454
1694303814.221,784.10254,791.75824,793.36993,789.7436,886.4469
1694303814.221,764.35895,794.17584,794.57874,772.01465,773.22345
1694303814.2220001,775.64105,796.1905,789.7436,771.6117,654.7619
1694303814.223,805.8608,793.36993,788.1319,802.6374,892.8938
1694303814.223,820.7692,792.1612,791.75824,819.5604,1008.5348
1694303814.224,791.75824,791.75824,788.5348,787.72894,706.7399
1694303814.225,761.53845,788.93774,788.1319,767.98535,668.46155
1694303814.247,768.7912,794.17584,791.3553,776.4469,677.72894
1694303814.248,800.2198,795.38464,788.93774,794.57874,756.7033
1694303814.2489998,815.9341,795.78754,791.75824,810.293,800.6227
1694303814.2499998,794.17584,799.011,796.1905,803.8461,763.95605
1694303814.2540002,765.9707,795.38464,796.99634,790.9524,922.71063
1694303814.255,768.7912,795.38464,796.99634,789.34064,793.7729
1694303814.255,803.0403,794.9817,796.1905,806.6667,623.3333
1694303814.256,823.9927,794.17584,800.6227,822.381,823.9927
1694303814.256,812.71063,796.5934,805.05493,820.3663,1015.78754
1694303814.257,787.326,797.8022,807.0696,799.81683,792.96704
1694303814.258,778.46155,794.9817,803.44324,785.31134,602.381
1694303814.258,812.71063,795.78754,800.2198,808.68134,687.3993
1694303814.264,839.304,797.3993,801.02563,828.022,749.85345
1694303814.2649999,821.1722,791.75824,795.38464,811.9048,724.87177
1694303814.2659998,789.34064,790.14655,797.3993,792.1612,685.78754
1694303814.2659998,780.4762,790.14655,801.02563,788.1319,670.4762
1694303814.267,808.2784,792.1612,799.011,801.4286,711.1722
1694303814.267,834.0659,795.78754,801.02563,814.7253,808.68134
1694303814.268,822.7839,792.5641,799.011,809.0842,823.9927
1694303814.268,783.69965,786.1172,795.38464,792.1612,1035.9341
1694303814.269,761.9414,788.1319,793.36993,783.69965,1068.9744
1694303814.269,788.1319,792.96704,792.5641,793.7729,686.99634
1694303814.2700002,818.7546,796.1905,793.7729,804.65204,679.34064
1694303814.2700002,815.12823,798.20514,794.17584,796.1905,801.02563
1694303814.295,780.07324,796.5934,793.7729,778.86444,738.97437
1694303814.296,761.9414,799.41394,792.96704,767.1795,675.31134
1694303814.297,782.8938,801.02563,791.75824,782.49084,718.8278
1694303814.297,813.91943,801.02563,794.17584,805.8608,866.30035
1694303814.2979999,815.5311,801.02563,793.36993,803.8461,794.17584
1694303814.2979999,783.69965,795.38464,791.3553,782.8938,711.5751
1694303814.302,768.3883,790.9524,794.57874,780.4762,839.707
1694303814.302,786.1172,792.96704,794.57874,796.99634,933.1868
1694303814.303,821.5751,801.02563,792.5641,811.0989,787.326
1694303814.303,833.2601,799.011,791.3553,815.12823,701.50183
1694303814.304,799.41394,792.96704,793.7729,799.81683,813.1135
1694303814.304,773.6264,796.99634,796.99634,787.326,771.2088
1694303814.3660002,782.0879,796.5934,795.38464,787.72894,639.45056
1694303814.367,810.696,793.7729,794.17584,799.81683,685.38464
1694303814.367,819.5604,792.96704,794.57874,802.23444,775.64105
1694303814.368,787.72894,792.96704,793.36993,787.72894,789.7436
1694303814.368,771.6117,796.5934,793.36993,786.52014,714.3956
1694303814.369,772.4176,790.9524,802.6374,784.5055,617.6923
1694303814.37,783.69965,787.326,801.8315,790.14655,937.619
1694303814.37,795.78754,787.326,796.5934,806.6667,1114.9084
1694303814.371,771.6117,781.28204,797.8022,791.3553,790.14655
1694303814.372,747.03296,784.10254,800.2198,773.22345,695.05493
1694303814.373,752.27106,790.14655,798.20514,770.0,669.67035
1694303814.374,780.87915,786.9231,793.7729,780.4762,639.85345
1694303814.4,794.17584,784.10254,794.57874,792.1612,691.02563
1694303814.401,782.49084,788.93774,796.99634,789.34064,788.5348
1694303814.401,761.53845,790.9524,799.41394,780.07324,1019.81683
1694303814.402,760.32965,789.7436,798.60803,783.69965,898.1319
1694303814.402,796.1905,788.93774,799.011,795.38464,645.89746
1694303814.403,817.5458,790.14655,801.4286,804.2491,879.59705
1694303814.404,800.2198,793.7729,799.011,807.0696,1085.0916
1694303814.404,770.0,793.7729,795.78754,785.7143,780.4762
1694303814.408,766.3736,794.9817,792.96704,772.4176,586.26373
1694303814.408,800.6227,798.20514,793.36993,791.75824,770.40295
1694303814.409,828.4249,801.8315,794.57874,813.5165,848.97437
1694303814.409,820.7692,802.6374,796.99634,811.50183,703.5165
1694303814.493,789.7436,800.6227,799.81683,792.96704,659.59705
1694303814.4940002,776.4469,800.6227,799.81683,784.10254,664.43225
1694303814.4940002,797.3993,798.20514,796.99634,794.17584,709.9634
1694303814.4950001,823.1868,799.011,794.57874,813.5165,779.67035
1694303814.4950001,821.5751,797.8022,795.38464,814.7253,728.9011
1694303814.496,791.3553,795.78754,796.5934,802.6374,1017.8022
1694303814.497,773.22345,794.17584,798.20514,797.3993,1108.8645
1694303814.497,793.7729,790.9524,797.3993,808.2784,711.5751
1694303814.498,824.7985,794.17584,796.5934,829.6337,666.8498
1694303814.499,828.8278,795.78754,796.1905,832.0513,780.4762
1694303814.499,795.38464,795.78754,797.3993,806.26373,753.0769
1694303814.5,772.4176,798.20514,801.8315,794.17584,628.1685
1694303814.527,792.96704,797.8022,801.4286,809.0842,637.03296
1694303814.528,825.6044,798.60803,798.20514,826.0073,752.27106
1694303814.529,830.84247,800.2198,797.8022,825.6044,817.5458
1694303814.53,798.20514,794.9817,799.81683,800.2198,679.7436
1694303814.53,773.22345,788.1319,800.6227,790.54944,676.52014
1694303814.5310001,784.90845,788.93774,800.2198,801.8315,919.0842
1694303814.5310001,809.89014,790.9524,799.41394,802.6374,903.7729
1694303814.532,819.9634,787.72894,796.99634,798.60803,784.5055
1694303814.533,792.96704,788.93774,795.78754,787.326,832.8571
1694303814.533,762.3443,790.9524,795.38464,776.4469,989.59705
1694303814.5379999,772.4176,791.75824,799.011,776.8498,760.32965
1694303814.5379999,812.3077,794.17584,801.4286,797.8022,584.2491
1694303814.5649998,826.0073,794.17584,796.99634,807.0696,689.41394
1694303814.5660002,804.2491,796.99634,795.38464,790.9524,739.3773
1694303814.5670002,771.2088,796.99634,795.38464,774.43225,678.5348
1694303814.5670002,770.40295,792.96704,796.1905,775.2381,612.4542
1694303814.568,813.91943,796.99634,796.99634,808.68134,670.07324
1694303814.569,833.663,799.41394,796.1905,824.7985,763.5531
1694303814.569,809.4872,792.5641,794.57874,805.05493,811.9048
1694303814.57,772.8205,789.34064,792.96704,784.5055,677.326
1694303814.57,770.80585,790.54944,794.57874,792.96704,847.3626
1694303814.571,805.4579,791.3553,798.60803,817.5458,1026.2638
1694303814.571,824.3956,794.57874,798.20514,816.7399,783.2967
1694303814.572,811.50183,793.7729,798.20514,806.6667,776.04395
1694303814.5939999,779.67035,791.3553,801.02563,789.7436,782.8938
1694303814.596,770.0,793.36993,798.20514,779.67035,713.5897
1694303814.596,807.47253,796.99634,794.57874,799.81683,656.3736
1694303814.597,830.0366,799.41394,793.7729,815.5311,736.9597
1694303814.598,815.9341,799.011,793.36993,812.3077,873.1502
1694303814.599,783.2967,797.3993,794.9817,790.14655,773.22345
1694303814.599,771.6117,796.1905,797.3993,783.2967,622.52747
1694303814.6,803.0403,799.41394,796.1905,802.6374,713.5897
1694303814.6,829.6337,802.23444,792.96704,815.12823,991.6117
1694303814.6009998,820.7692,800.6227,790.9524,813.91943,854.21246
1694303814.6019998,784.5055,794.17584,790.9524,791.3553,722.0513
1694303814.6019998,768.7912,795.38464,790.9524,784.90845,835.6777
1694303814.632,797.8022,798.60803,791.75824,798.20514,799.81683
1694303814.633,830.84247,805.05493,791.75824,807.0696,732.52747
1694303814.6339998,827.619,807.8755,794.9817,812.3077,743.8095
1694303814.6339998,795.38464,801.4286,800.2198,801.02563,729.304
1694303814.635,772.8205,799.81683,799.011,791.3553,686.99634
1694303814.635,793.36993,797.8022,793.7729,805.8608,697.47253
1694303814.636,827.2161,794.17584,796.5934,823.5897,699.0842
1694303814.636,835.2747,795.38464,801.8315,835.2747,925.5311
1694303814.6369998,802.23444,798.60803,799.41394,814.7253,1046.8132
1694303814.6369998,772.4176,804.2491,794.57874,778.0586,726.08057
1694303814.638,790.14655,805.05493,788.5348,782.49084,618.9011
1694303814.638,821.1722,802.6374,790.9524,808.2784,711.1722
1694303814.6990001,832.0513,804.65204,796.5934,820.3663,740.18317
1694303814.7,803.0403,802.23444,793.36993,803.44324,710.3663
1694303814.701,770.40295,800.2198,792.96704,788.93774,767.1795
1694303814.7020001,779.2674,802.23444,796.1905,800.6227,942.0513
1694303814.703,813.1135,805.4579,796.99634,823.9927,868.71796
1694303814.703,819.9634,806.6667,796.5934,823.1868,717.619
1694303814.704,790.14655,801.8315,794.57874,797.8022,848.1685
1694303814.704,762.74725,801.02563,794.9817,786.9231,924.3223
1694303814.705,765.56775,801.8315,796.99634,783.2967,695.8608
1694303814.7059999,799.011,797.3993,796.5934,799.41394,613.663
1694303814.7059999,815.12823,800.2198,796.99634,813.5165,754.2857
1694303814.707,792.1612,802.23444,798.60803,796.99634,773.22345
1694303814.745,761.9414,800.6227,795.38464,778.0586,674.5055
1694303814.7459998,767.98535,803.0403,795.78754,782.0879,601.978
1694303814.7510002,805.8608,803.8461,793.7729,803.44324,661.6117
1694303814.7510002,821.1722,805.4579,790.54944,818.7546,803.8461
1694303814.752,806.26373,803.8461,790.9524,814.7253,806.6667
1694303814.753,778.86444,804.65204,791.75824,789.7436,694.2491
1694303814.753,774.83514,804.65204,790.54944,783.2967,948.49817
1694303814.754,807.8755,802.23444,790.14655,803.0403,1122.5641
1694303814.755,823.9927,802.23444,792.1612,809.4872,782.8938
1694303814.755,815.12823,801.8315,792.96704,801.8315,685.78754
1694303814.756,785.7143,801.02563,794.57874,782.0879,689.011
1694303814.756,768.7912,801.02563,794.57874,768.7912,657.5824
1694303814.784,801.4286,796.99634,790.9524,788.5348,643.8828
1694303814.7849998,829.6337,797.8022,792.5641,808.2784,797.8022
1694303814.7859998,821.1722,801.02563,796.1905,802.6374,967.4359
1694303814.7859998,786.1172,798.20514,796.5934,785.7143,770.40295
1694303814.7870002,763.95605,794.9817,799.81683,776.04395,623.3333
1694303814.7870002,784.5055,795.78754,798.20514,789.7436,788.1319
1694303814.788,808.2784,792.5641,794.57874,814.3223,1044.3956
1694303814.789,806.6667,796.5934,794.57874,813.91943,954.1392
1694303814.789,774.0293,799.011,794.17584,791.75824,713.1868
1694303814.7900002,751.8681,793.36993,793.7729,784.10254,743.8095
1694303814.7900002,775.64105,794.57874,795.78754,800.2198,940.4396
1694303814.7910001,808.68134,794.57874,795.38464,815.12823,830.84247
1694303814.85,809.4872,792.96704,792.96704,809.89014,743.8095
1694303814.851,779.67035,797.3993,792.1612,790.14655,733.3333
1694303814.852,763.1502,801.4286,792.1612,775.2381,688.20514
1694303814.853,780.4762,799.81683,793.7729,785.31134,647.9121
1694303814.8569999,811.9048,798.60803,796.1905,801.8315,697.0696
1694303814.8579998,820.3663,797.8022,796.1905,812.3077,892.49084
1694303814.8579998,789.7436,800.2198,799.011,794.9817,879.19415
1694303814.859,761.9414,798.20514,801.02563,774.43225,722.0513
1694303814.859,772.8205,792.1612,792.96704,778.86444,687.3993
1694303814.86,805.8608,785.31134,789.34064,806.6667,962.1978
1694303814.8609998,813.5165,786.9231,790.54944,819.15753,1072.6007
1694303814.8609998,786.1172,792.96704,795.38464,791.75824,784.5055
1694303814.885,765.9707,794.9817,799.41394,780.07324,683.36993
1694303814.8860002,771.6117,793.7729,796.1905,790.14655,747.03296
1694303814.8860002,805.4579,795.38464,796.99634,809.4872,792.1612
1694303814.887,826.0073,800.6227,797.8022,816.7399,707.5458
1694303814.887,807.47253,799.011,797.3993,797.3993,765.9707
1694303814.888,785.7143,802.23444,805.4579,784.90845,1053.663
1694303814.888,786.1172,805.8608,803.8461,782.8938,915.05493
1694303814.889,811.0989,812.71063,797.3993,800.6227,628.1685
1694303814.889,823.1868,815.12823,795.78754,819.15753,751.06226
1694303814.8899999,804.2491,798.60803,787.72894,807.8755,891.685
1694303814.891,771.2088,795.38464,783.2967,782.0879,681.3553
1694303814.892,757.9121,799.41394,783.69965,768.3883,577.3993
1694303814.921,792.5641,798.60803,786.9231,792.1612,741.39197
1694303814.922,816.337,803.44324,792.96704,809.0842,814.7253
1694303814.923,823.1868,813.91943,794.9817,816.337,732.52747
1694303814.924,778.86444,811.9048,794.57874,781.685,674.10254
1694303814.924,737.76556,811.9048,805.05493,746.63007,666.04395
1694303814.925,758.315,810.696,806.26373,754.68866,771.6117
1694303814.928,763.5531,807.0696,809.0842,749.0476,806.26373
1694303814.929,746.63007,826.4103,808.68134,738.1685,696.6667
1694303814.9299998,700.293,827.619,800.2198,711.978,891.685
1694303814.9299998,660.80585,823.5897,802.6374,680.9524,942.8571
1694303814.9299998,663.6264,830.4396,803.8461,668.86444,664.43225
1694303814.931,666.8498,829.2308,806.6667,660.0,700.293
1694303815.018,640.2564,830.4396,811.50183,635.42126,758.315
1694303815.019,597.5458,831.2454,817.5458,610.84247,760.7326
1694303815.019,563.2967,827.619,815.5311,581.4286,738.1685
1694303815.02,570.14655,826.8132,819.5604,582.23444,712.381
1694303815.02,599.15753,830.84247,824.3956,606.0073,952.52747
1694303815.021,588.2784,832.4542,815.5311,584.2491,1006.52014
1694303815.022,538.71796,831.2454,821.978,539.5238,762.74725
1694303815.022,518.97437,829.6337,826.4103,528.6447,734.94507
1694303815.023,553.22345,828.022,828.022,557.25275,907.8022
1694303815.023,590.696,828.8278,825.2015,579.81683,785.31134
1694303815.024,591.50183,825.6044,818.7546,579.41394,678.93774
1694303815.0249999,570.9524,823.9927,821.978,567.72894,791.75824
1694303815.06,558.86444,826.8132,825.2015,564.90845,728.9011
1694303815.0609999,584.2491,828.022,829.6337,589.0842,603.1868
1694303815.062,628.97437,823.5897,828.8278,618.49817,655.56775
1694303815.063,644.2857,823.5897,822.381,634.61536,741.79486
1694303815.063,630.989,826.8132,817.9487,631.79486,724.87177
1694303815.064,628.5714,829.6337,815.9341,626.55676,674.10254
1694303815.0649998,657.5824,829.2308,813.91943,649.5238,662.8205
1694303815.0649998,701.9048,824.7985,810.293,688.60803,984.35895
1694303815.0700002,727.28937,819.5604,809.4872,705.9341,1108.4615
1694303815.0700002,724.87177,809.89014,810.696,710.7692,784.10254
1694303815.071,712.7839,809.0842,809.4872,712.7839,647.9121
1694303815.072,726.08057,813.91943,802.23444,724.4689,636.63007
1694303815.073,772.8205,807.47253,799.41394,762.3443,673.2967
1694303815.074,804.2491,805.4579,795.38464,784.90845,703.5165
1694303815.074,794.57874,811.0989,785.31134,779.67035,792.5641
1694303815.075,778.86444,810.696,786.9231,785.31134,841.31866
1694303815.076,788.1319,807.0696,788.5348,798.20514,711.5751
1694303815.077,823.9927,801.8315,783.2967,819.15753,682.1612
1694303815.077,852.1978,793.7729,779.2674,846.1539,873.95605
1694303815.078,849.3773,792.1612,773.6264,849.7802,996.4469
1694303815.078,814.3223,791.75824,774.83514,834.0659,787.72894
1694303815.079,810.293,790.14655,776.8498,830.4396,612.8571
1694303815.079,853.8095,790.9524,774.43225,859.45056,730.10986
1694303815.08,888.86444,790.14655,775.64105,890.87915,1112.4908
1694303815.109,885.2381,798.60803,772.01465,880.40295,1010.54944
1694303815.1100001,855.42126,803.44324,772.4176,849.3773,673.69965
1694303815.1100001,852.1978,799.41394,775.2381,848.1685,642.27106
1694303815.111,890.4762,796.5934,774.83514,878.7912,675.7143
1694303815.111,916.6667,796.1905,774.83514,892.49084,704.7253
1694303815.112,901.3553,795.78754,774.83514,885.64105,726.4835
1694303815.112,869.5238,796.1905,776.04395,875.16486,1009.34064
1694303815.113,855.0183,794.17584,773.22345,865.89746,1018.60803
1694303815.113,876.77655,792.5641,772.8205,875.16486,665.64105
1694303815.1139998,906.99634,790.54944,772.4176,892.49084,747.4359
1694303815.1169999,905.78754,790.9524,771.2088,887.25275,909.81683
1694303815.118,865.09155,793.36993,772.4176,871.13556,783.69965
1694303815.16,842.9304,795.38464,774.0293,860.65936,589.0842
1694303815.161,862.674,794.17584,772.4176,871.53845,664.0293
1694303815.161,886.4469,790.9524,770.40295,890.87915,950.10986
1694303815.162,882.4176,788.1319,771.2088,882.4176,917.8755
1694303815.162,846.9597,787.72894,771.6117,858.24176,684.9817
1694303815.163,822.381,786.9231,772.8205,844.5421,700.696
1694303815.163,839.707,788.93774,769.59705,846.9597,855.42126
1694303815.164,875.16486,794.17584,769.59705,863.8828,752.674
1694303815.165,884.0293,793.36993,771.6117,867.1062,652.3443
1694303815.165,851.39197,790.54944,773.22345,855.0183,815.9341
1694303815.1660001,818.7546,790.9524,775.64105,841.31866,870.32965
1694303815.167,824.7985,790.54944,772.01465,836.8865,633.8095
1694303815.1990001,860.65936,790.14655,773.22345,857.8388,639.0476
1694303815.2,871.9414,791.3553,776.04395,867.1062,851.79486
1694303815.201,843.73627,790.54944,778.46155,850.989,862.674
1694303815.201,807.47253,788.93774,780.87915,828.8278,656.77655
1694303815.202,805.8608,790.54944,778.46155,826.8132,656.77655
1694303815.202,845.7509,793.36993,778.0586,846.9597,790.54944
1694303815.203,861.06226,796.1905,780.07324,854.61536,853.00366
1694303815.203,831.6484,795.78754,782.8938,841.31866,830.0366
1694303815.204,801.4286,795.78754,783.2967,817.9487,672.49084
1694303815.204,805.4579,797.8022,785.31134,820.7692,834.4689
1694303815.205,840.10986,800.2198,782.49084,837.6923,957.3626
1694303815.205,856.2271,800.6227,777.6557,834.0659,747.8388
1694303815.2499998,836.08057,795.78754,780.07324,820.3663,782.8938
1694303815.2510002,800.2198,798.20514,780.4762,800.2198,803.0403
1694303815.252,790.54944,801.4286,778.86444,794.9817,737.3626
1694303815.253,826.4103,799.81683,779.2674,820.3663,665.2381
1694303815.2540002,854.61536,802.23444,783.2967,839.707,670.07324
1694303815.2540002,838.49817,801.02563,782.49084,836.08057,1104.4323
1694303815.255,795.38464,796.5934,780.07324,812.71063,1129.8169
1694303815.256,782.49084,796.99634,780.07324,794.9817,662.8205
1694303815.257,823.5897,800.2198,781.28204,817.5458,751.06226
1694303815.257,844.1392,797.3993,780.87915,831.2454,850.18317
1694303815.258,832.8571,794.9817,778.86444,823.9927,696.6667
1694303815.26,801.4286,795.78754,777.6557,808.68134,657.98535
1694303815.325,784.90845,798.60803,778.86444,792.96704,661.6117
1694303815.3260002,815.5311,802.6374,779.2674,808.2784,671.685
1694303815.3270001,842.9304,801.4286,782.49084,829.2308,703.91943
1694303815.3270001,843.73627,801.02563,784.90845,832.8571,745.82416
1694303815.328,807.8755,796.1905,781.685,811.0989,769.19415
1694303815.329,785.7143,791.3553,781.685,796.5934,778.0586
1694303815.329,811.0989,794.9817,781.685,813.91943,788.5348
1694303815.33,841.31866,798.20514,782.0879,831.6484,767.1795
1694303815.331,841.7216,798.60803,784.5055,837.28937,1013.7729
1694303815.332,808.68134,800.6227,785.31134,818.7546,1144.7252
1694303815.333,787.72894,802.23444,789.34064,799.81683,761.53845
1694303815.333,803.8461,799.81683,791.3553,803.44324,649.5238
1694303815.364,838.0952,797.8022,788.1319,815.9341,736.55676
1694303815.365,845.34796,798.60803,788.93774,828.022,811.9048
1694303815.369,815.9341,797.8022,790.9524,812.71063,760.7326
1694303815.37,792.5641,795.38464,788.1319,792.1612,680.9524
1694303815.37,792.96704,803.8461,782.49084,789.34064,750.65936
1694303815.371,821.5751,808.2784,775.2381,796.1905,779.67035
1694303815.372,840.9158,803.8461,775.2381,807.8755,796.1905
1694303815.373,818.7546,802.6374,776.8498,805.8608,821.1722
1694303815.373,785.7143,799.81683,776.8498,796.99634,1072.6007
1694303815.374,790.14655,801.8315,776.4469,788.1319,891.685
1694303815.374,825.2015,803.0403,775.64105,799.81683,605.2015
1694303815.375,844.5421,801.02563,781.28204,823.9927,751.8681
1694303815.409,823.1868,803.8461,782.0879,815.5311,796.5934
1694303815.4099998,792.96704,807.0696,784.5055,790.9524,671.685
1694303815.411,789.34064,805.4579,787.72894,790.9524,629.7802
1694303815.412,823.9927,802.23444,784.90845,816.337,701.50183
1694303815.4129999,844.94507,799.41394,786.52014,828.022,755.4945
1694303815.4129999,822.381,796.1905,788.1319,813.1135,798.60803
1694303815.414,789.34064,796.5934,787.326,791.3553,705.9341
1694303815.414,786.9231,794.9817,788.5348,792.5641,813.91943
1694303815.415,817.5458,792.5641,787.326,815.9341,952.52747
1694303815.415,836.08057,793.36993,788.1319,821.978,748.24176
1694303815.416,822.7839,796.1905,787.326,811.9048,735.34796
1694303815.416,787.72894,793.7729,786.9231,792.1612,811.9048
1694303815.444,772.01465,793.7729,788.1319,780.07324,707.9487
1694303815.445,796.5934,800.2198,786.1172,798.20514,678.1319
1694303815.445,822.7839,802.23444,786.1172,811.0989,770.80585
1694303815.446,815.5311,797.8022,786.9231,807.47253,952.52747
1694303815.4499998,781.28204,802.6374,790.14655,790.14655,840.5128
1694303815.451,766.77655,801.8315,789.7436,766.77655,620.9158
1694303815.4529998,796.1905,792.96704,785.7143,780.4762,795.78754
1694303815.4540002,823.9927,792.1612,786.52014,811.9048,1014.9817
1694303815.4550002,820.3663,792.96704,788.1319,808.68134,861.06226
1694303815.456,785.31134,793.7729,788.93774,782.8938,685.38464
1694303815.456,763.1502,795.78754,789.34064,765.56775,675.31134
1694303815.457,787.72894,795.38464,788.93774,772.8205,670.87915
1694303815.4889998,819.15753,795.78754,789.34064,796.5934,716.0073
1694303815.4899998,821.1722,796.99634,790.9524,804.65204,746.2271
1694303815.4899998,790.14655,799.81683,791.3553,782.8938,888.86444
1694303815.4910002,768.3883,799.011,788.93774,765.9707,821.978
1694303815.492,783.2967,794.17584,785.31134,777.6557,660.0
1694303815.493,815.9341,795.38464,786.52014,803.44324,715.6044
1694303815.493,820.7692,793.36993,788.93774,813.5165,1042.381
1694303815.4940002,783.2967,792.5641,788.93774,789.7436,1083.4799
1694303815.4940002,755.4945,792.96704,788.5348,758.71796,658.3883
1694303815.4950001,766.3736,787.72894,788.1319,767.98535,617.28937
1694303815.496,804.2491,786.9231,790.9524,792.96704,741.39197
1694303815.496,817.1429,788.5348,792.5641,801.4286,812.3077
1694303815.554,786.52014,785.7143,791.3553,788.93774,779.67035
1694303815.555,759.92676,786.52014,793.7729,774.83514,792.1612
1694303815.555,770.0,787.326,796.99634,777.6557,823.9927
1694303815.556,808.2784,787.72894,796.5934,799.81683,695.8608
1694303815.557,823.5897,789.7436,797.8022,814.3223,673.2967
1694303815.558,793.36993,784.90845,796.1905,795.38464,805.8608
1694303815.5609999,760.7326,782.49084,792.1612,776.8498,1121.3553
1694303815.5619998,765.56775,788.5348,793.36993,780.4762,1070.1831
1694303815.5619998,804.65204,790.54944,792.1612,793.36993,730.9158
1694303815.563,821.1722,786.52014,786.1172,799.81683,784.10254
1694303815.563,800.2198,784.90845,787.326,790.9524,827.2161
1694303815.564,768.3883,784.10254,790.54944,771.6117,662.01465
1694303815.612,763.1502,786.9231,790.14655,760.7326,586.6667
1694303815.613,799.011,790.14655,790.9524,786.9231,661.6117
1694303815.613,823.9927,789.34064,794.17584,810.696,718.022
1694303815.614,803.44324,788.5348,793.36993,796.5934,718.022
1694303815.615,764.7619,786.52014,791.3553,772.01465,674.5055
1694303815.615,756.7033,785.7143,794.57874,765.16486,695.8608
1694303815.616,792.5641,789.7436,794.57874,788.1319,810.293
1694303815.616,822.7839,794.17584,795.38464,812.3077,823.1868
1694303815.6169999,811.50183,793.7729,794.9817,809.0842,787.72894
1694303815.6169999,770.0,790.54944,789.34064,784.10254,771.2088
1694303815.6179998,757.50916,790.9524,792.1612,773.6264,672.8938
1694303815.6179998,785.31134,789.34064,792.5641,792.96704,625.7509
1694303815.647,811.0989,786.9231,788.5348,809.0842,653.95605
1694303815.648,813.1135,790.9524,791.3553,813.1135,1051.6483
1694303815.648,782.0879,793.36993,796.5934,792.96704,1208.7913
1694303815.649,755.89746,788.5348,797.8022,767.5824,718.8278
1694303815.6499999,779.2674,787.326,792.5641,782.8938,624.94507
1694303815.6499999,813.91943,792.96704,792.96704,814.7253,817.5458
1694303815.651,813.91943,791.3553,793.7729,817.5458,898.1319
1694303815.651,786.1172,793.7729,794.9817,790.9524,764.35895
1694303815.655,773.6264,798.20514,798.20514,779.2674,678.5348
1694303815.656,794.17584,795.78754,796.5934,797.3993,1006.1172
1694303815.656,825.6044,793.36993,795.78754,820.3663,966.63007
1694303815.6569998,833.663,792.96704,798.20514,824.3956,721.6484
1694303815.683,794.57874,790.9524,801.4286,804.65204,764.7619
1694303815.684,765.16486,789.7436,803.8461,781.28204,669.67035
1694303815.685,784.10254,791.3553,805.4579,788.1319,582.6374
1694303815.686,823.9927,792.5641,805.8608,815.9341,642.674
1694303815.686,829.6337,790.9524,794.17584,823.5897,714.7985
1694303815.687,792.96704,785.7143,786.52014,796.5934,755.89746
1694303815.687,764.7619,785.7143,786.9231,775.64105,742.6007
1694303815.688,772.8205,787.72894,789.34064,783.2967,630.989
1694303815.688,814.3223,786.52014,793.7729,812.71063,869.5238
1694303815.689,833.2601,791.75824,800.6227,832.0513,1035.1282
1694303815.689,806.6667,801.4286,809.89014,812.3077,753.8828
1694303815.6899998,777.25275,799.81683,809.4872,789.7436,662.8205
1694303815.712,775.2381,785.31134,794.57874,792.1612,719.2308
1694303815.7129998,803.44324,784.5055,791.3553,809.0842,768.7912
1694303815.714,821.5751,786.9231,802.23444,822.7839,759.12085
1694303815.7150002,800.2198,783.2967,803.44324,810.293,809.0842
1694303815.716,769.19415,785.31134,803.0403,787.72894,941.2454
1694303815.717,772.8205,784.10254,804.65204,784.10254,852.6007
1694303815.7180002,815.12823,782.8938,801.8315,807.0696,734.94507
1694303815.7180002,835.2747,787.72894,800.2198,826.4103,831.6484
1694303815.719,818.3516,793.36993,802.23444,828.8278,973.0769
1694303815.719,786.9231,792.5641,801.8315,801.4286,755.4945
1694303815.725,778.46155,792.1612,801.8315,784.10254,560.87915
1694303815.726,815.9341,796.1905,805.8608,812.71063,670.87915
1694303815.7859998,844.1392,802.23444,807.8755,828.022,764.35895
1694303815.7870002,829.2308,796.5934,808.68134,814.7253,753.8828
1694303815.7870002,791.3553,788.1319,799.011,787.326,653.5531
1694303815.788,774.83514,791.75824,794.9817,779.67035,677.326
1694303815.788,808.68134,794.9817,803.0403,808.2784,721.2454
1694303815.789,834.87177,795.78754,800.2198,823.5897,730.10986
1694303815.7900002,829.2308,800.2198,811.50183,819.15753,779.67035
1694303815.7900002,794.9817,796.1905,814.7253,804.2491,958.1685
1694303815.7910001,773.6264,796.1905,794.57874,783.2967,908.20514
1694303815.792,799.81683,804.2491,794.17584,791.75824,606.0073
1694303815.792,824.3956,784.10254,793.36993,826.0073,676.52014
