timestamp,RAW_TP9,RAW_AF7,RAW_AF8,RAW_TP10,AUX_RIGHT
1694130345.716,793.7729,782.8938,799.81683,803.8461,694.2491
1694130345.717,811.0989,783.2967,806.26373,819.15753,657.5824
1694130345.7180002,820.7692,797.8022,795.38464,823.9927,593.91943
1694130345.7180002,820.7692,801.4286,788.5348,825.6044,629.7802
1694130345.722,832.8571,796.99634,790.14655,829.2308,730.10986
1694130345.723,859.85345,803.8461,782.8938,826.0073,780.07324
1694130345.723,843.73627,803.0403,781.28204,824.7985,755.09155
1694130345.724,821.5751,795.78754,780.4762,815.9341,615.6777
1694130345.725,832.8571,797.8022,757.50916,827.2161,825.2015
1694130345.725,842.9304,803.8461,777.6557,838.0952,1001.28204
1694130345.726,838.9011,807.47253,826.8132,834.4689,732.52747
1694130345.727,819.15753,794.17584,816.337,810.293,719.2308
1694130345.728,809.4872,778.46155,788.1319,801.8315,990.40295
1694130345.7289999,814.7253,784.10254,779.2674,819.9634,931.978
1694130345.7289999,823.9927,803.0403,794.17584,828.8278,685.78754
1694130345.7289999,821.5751,805.05493,809.0842,825.2015,672.0879
1694130345.7299998,819.15753,802.23444,807.8755,817.5458,686.1905
1694130345.7299998,826.4103,798.20514,797.8022,816.7399,697.8755
1694130345.731,834.4689,798.20514,793.7729,826.0073,706.7399
1694130345.731,850.18317,818.3516,792.1612,854.21246,723.663
1694130345.732,855.42126,810.696,794.9817,871.13556,1008.1319
1694130345.732,840.10986,792.96704,811.9048,846.9597,853.8095
1694130345.733,826.8132,799.81683,815.5311,814.7253,576.1905
1694130345.733,816.337,790.14655,801.8315,799.011,614.4689
1694130345.779,812.71063,792.1612,792.5641,802.6374,668.0586
1694130345.779,823.9927,799.011,785.31134,815.5311,711.1722
1694130345.78,836.08057,806.6667,786.52014,826.0073,655.16486
1694130345.78,832.4542,812.3077,789.34064,819.15753,675.7143
1694130345.781,831.2454,817.5458,796.1905,819.9634,747.8388
1694130345.781,838.9011,815.12823,801.8315,829.6337,751.8681
1694130345.784,836.08057,804.2491,807.8755,834.87177,742.6007
1694130345.7849998,848.97437,808.68134,799.81683,841.7216,912.23444
1694130345.7849998,859.0476,826.8132,784.90845,849.7802,936.0073
1694130345.7859998,844.5421,828.8278,806.26373,838.0952,675.7143
1694130345.7870002,823.9927,806.6667,799.41394,814.3223,663.22345
1694130345.788,800.2198,796.1905,784.90845,806.26373,809.89014
1694130345.828,823.1868,803.8461,788.1319,821.1722,866.7033
1694130345.829,853.4066,823.1868,798.20514,840.5128,749.85345
1694130345.829,821.5751,805.4579,790.54944,818.7546,682.1612
1694130345.829,809.0842,793.7729,790.54944,813.1135,982.74725
1694130345.8300002,828.022,806.6667,811.9048,833.2601,1008.5348
1694130345.8300002,815.9341,800.6227,801.8315,816.7399,728.0952
1694130345.831,812.3077,803.8461,796.1905,807.0696,648.315
1694130345.831,804.65204,804.2491,793.36993,813.1135,944.0659
1694130345.832,807.0696,811.50183,784.10254,818.7546,994.83514
1694130345.832,834.87177,824.7985,778.86444,829.6337,731.31866
1694130345.833,822.381,803.0403,775.2381,808.68134,696.26373
1694130345.8339999,804.65204,788.93774,794.9817,788.5348,697.8755
1694130345.878,807.0696,793.36993,799.41394,789.7436,645.09155
1694130345.879,803.0403,791.75824,790.9524,794.9817,674.90845
1694130345.88,802.6374,788.1319,789.7436,809.89014,791.75824
1694130345.88,795.38464,791.75824,791.3553,804.65204,790.14655
1694130345.88,799.41394,799.011,795.38464,800.2198,709.9634
1694130345.881,811.9048,801.02563,786.9231,799.81683,771.2088
1694130345.881,809.0842,800.6227,780.87915,807.8755,895.31134
1694130345.882,792.1612,803.8461,785.7143,812.71063,903.7729
1694130345.885,800.2198,804.65204,783.2967,811.9048,773.22345
1694130345.885,813.5165,794.17584,782.8938,812.71063,657.5824
1694130345.8860002,814.7253,796.99634,804.65204,830.0366,861.8681
1694130345.8860002,806.6667,803.8461,809.4872,836.4835,994.83514
1694130345.928,803.8461,807.0696,777.25275,814.7253,765.9707
1694130345.929,802.23444,798.60803,765.16486,795.38464,746.2271
1694130345.929,807.47253,803.44324,785.7143,814.7253,919.89014
1694130345.9299998,817.1429,811.0989,803.8461,819.5604,780.4762
1694130345.9299998,797.3993,800.6227,821.978,798.20514,577.8022
1694130345.931,763.95605,790.9524,794.57874,785.31134,772.01465
1694130345.931,784.90845,782.49084,791.75824,791.3553,1134.652
1694130345.932,798.20514,790.54944,792.96704,800.2198,913.0403
1694130345.932,803.44324,803.0403,777.6557,797.3993,579.41394
1694130345.9329998,812.71063,799.41394,790.14655,790.54944,684.17584
1694130345.934,813.91943,797.3993,801.8315,806.26373,853.4066
1694130345.9350002,826.4103,810.293,815.9341,824.7985,739.3773
1694130345.978,811.0989,805.05493,805.8608,815.9341,617.6923
1694130345.979,808.68134,800.6227,788.1319,815.5311,627.3626
1694130345.98,832.4542,819.5604,794.17584,830.84247,690.6227
1694130345.98,806.26373,801.02563,759.5238,808.2784,676.52014
1694130345.981,807.47253,807.0696,774.43225,811.0989,702.71063
1694130345.981,817.5458,816.7399,791.75824,823.1868,829.2308
1694130345.982,816.7399,803.44324,804.65204,798.60803,850.18317
1694130345.983,798.60803,790.9524,811.9048,782.49084,775.64105
1694130345.983,786.1172,790.14655,794.17584,799.41394,686.5934
1694130345.984,814.7253,805.8608,801.02563,815.12823,862.674
1694130345.987,823.9927,814.7253,801.02563,819.9634,899.34064
1694130345.987,802.6374,807.8755,786.1172,805.8608,666.04395
1694130345.988,792.1612,799.81683,789.7436,789.34064,692.6374
1694130345.9889998,794.17584,799.011,798.20514,803.8461,975.89746
1694130345.99,801.02563,809.0842,796.1905,820.3663,969.85345
1694130345.99,801.8315,811.9048,790.9524,815.12823,748.24176
1694130345.9910002,819.5604,817.1429,778.0586,818.3516,725.6777
1694130345.992,830.84247,810.696,793.36993,815.9341,795.38464
1694130345.992,809.4872,798.60803,813.1135,804.65204,846.1539
1694130345.992,806.26373,808.68134,815.5311,812.71063,800.6227
1694130345.993,809.0842,811.0989,813.5165,830.84247,761.9414
1694130345.993,818.3516,803.44324,800.2198,830.0366,956.1539
1694130345.994,801.4286,803.8461,781.685,812.71063,750.2564
1694130345.9950001,781.685,793.7729,770.0,800.6227,583.44324
1694130346.034,778.86444,792.96704,788.93774,801.4286,699.0842
1694130346.035,793.36993,800.2198,788.1319,813.1135,718.8278
1694130346.035,818.3516,802.23444,784.5055,824.3956,701.9048
1694130346.036,809.4872,809.0842,800.6227,823.5897,623.3333
1694130346.037,805.4579,818.3516,800.6227,825.6044,752.674
1694130346.037,798.60803,798.60803,788.5348,817.5458,928.7546
1694130346.038,801.8315,790.9524,788.93774,813.5165,785.31134
1694130346.038,821.5751,819.5604,808.68134,830.84247,666.04395
1694130346.038,802.6374,808.2784,805.8608,818.3516,822.381
1694130346.039,781.28204,790.14655,786.1172,798.60803,952.52747
1694130346.039,773.6264,801.8315,782.49084,802.23444,752.674
1694130346.04,792.1612,794.17584,786.52014,794.9817,781.685
1694130346.078,807.0696,778.0586,785.31134,786.52014,928.7546
1694130346.079,813.5165,779.2674,760.32965,804.2491,770.40295
1694130346.079,831.6484,784.10254,772.8205,820.3663,611.6484
1694130346.079,824.3956,783.69965,796.5934,820.7692,697.8755
1694130346.08,805.8608,798.20514,803.44324,813.91943,874.35895
1694130346.08,789.7436,806.6667,821.978,806.6667,833.2601
1694130346.08,779.2674,793.7729,820.7692,806.26373,725.6777
1694130346.0809999,776.04395,790.54944,807.0696,805.8608,726.4835
1694130346.0809999,799.41394,792.96704,800.6227,826.4103,1026.6666
1694130346.0809999,821.978,798.20514,807.0696,842.52747,1007.326
1694130346.0819998,812.3077,804.2491,804.65204,821.978,714.3956
1694130346.0819998,784.10254,803.44324,804.2491,798.20514,669.67035
1694130346.1139998,789.34064,805.4579,813.1135,807.0696,683.7729
1694130346.115,793.7729,797.8022,796.5934,803.8461,695.4579
1694130346.116,783.2967,790.9524,782.0879,792.5641,714.7985
1694130346.116,784.10254,790.9524,805.4579,808.68134,740.18317
1694130346.1169999,797.8022,788.93774,813.5165,814.3223,760.7326
1694130346.1169999,801.02563,796.99634,822.7839,814.3223,718.4249
1694130346.118,799.81683,797.8022,817.5458,811.0989,651.9414
1694130346.119,803.0403,790.14655,789.7436,818.3516,921.50183
1694130346.119,791.3553,784.90845,794.57874,827.2161,1203.5531
1694130346.119,799.011,793.36993,807.8755,808.68134,791.3553
1694130346.12,790.54944,788.93774,804.65204,781.685,599.9634
1694130346.12,772.8205,782.49084,795.38464,786.1172,730.5128
1694130346.178,778.86444,782.49084,792.5641,786.52014,775.64105
1694130346.1790001,786.1172,774.0293,799.81683,776.4469,707.1429
1694130346.1820002,808.68134,776.8498,809.4872,802.6374,655.9707
1694130346.1820002,797.8022,789.7436,812.71063,811.50183,796.5934
1694130346.184,787.326,794.57874,811.0989,801.8315,751.06226
1694130346.184,813.1135,797.8022,809.4872,811.50183,713.9927
1694130346.185,812.3077,796.99634,800.6227,812.3077,805.4579
1694130346.1859999,815.9341,800.2198,802.6374,819.9634,1051.6483
1694130346.1859999,819.15753,795.38464,794.17584,803.0403,851.39197
1694130346.187,813.5165,785.31134,786.52014,790.54944,581.8315
1694130346.187,817.9487,797.8022,809.89014,812.71063,774.0293
1694130346.188,811.50183,803.44324,817.5458,811.9048,804.2491
1694130346.2350001,793.7729,789.34064,789.34064,794.9817,691.4286
1694130346.2350001,796.99634,793.7729,771.2088,797.8022,616.8865
1694130346.236,807.47253,797.3993,787.326,807.47253,689.81683
1694130346.237,807.0696,792.1612,803.8461,806.26373,837.28937
1694130346.237,807.8755,794.57874,805.4579,815.5311,743.4066
1694130346.237,814.7253,803.44324,808.68134,822.381,748.24176
1694130346.2380002,830.4396,807.0696,804.65204,812.71063,822.381
1694130346.2380002,832.0513,810.696,790.14655,807.47253,743.8095
1694130346.239,815.12823,815.5311,792.1612,801.4286,689.81683
1694130346.239,808.2784,814.7253,802.6374,803.8461,711.5751
1694130346.239,821.978,808.68134,796.1905,820.3663,892.8938
1694130346.239,825.2015,807.0696,796.5934,817.9487,938.8278
1694130346.272,813.5165,803.8461,804.2491,809.0842,732.52747
1694130346.273,813.1135,800.2198,802.6374,819.9634,763.1502
1694130346.273,805.8608,791.3553,795.78754,826.8132,1017.3993
1694130346.274,812.3077,809.0842,795.78754,837.28937,956.55676
1694130346.276,816.7399,817.1429,799.41394,823.9927,641.06226
1694130346.277,818.3516,801.4286,790.14655,807.47253,705.12823
1694130346.277,820.3663,803.8461,792.96704,819.9634,1001.28204
1694130346.278,804.2491,809.89014,805.05493,811.9048,817.1429
1694130346.278,806.6667,802.23444,807.0696,802.6374,612.4542
1694130346.279,829.2308,801.8315,812.3077,815.5311,658.3883
1694130346.279,821.5751,803.0403,770.40295,812.71063,722.8571
1694130346.28,805.4579,790.14655,765.56775,794.57874,674.90845
1694130346.368,780.4762,776.4469,790.9524,774.83514,680.9524
1694130346.368,779.2674,780.07324,798.20514,787.326,722.8571
1694130346.369,812.3077,811.9048,827.619,825.2015,701.0989
1694130346.37,790.9524,807.0696,815.12823,810.293,730.10986
1694130346.371,765.9707,786.52014,780.07324,781.685,689.81683
1694130346.372,790.14655,791.75824,767.1795,801.4286,904.17584
1694130346.373,821.978,801.4286,806.6667,826.8132,1297.033
1694130346.373,831.2454,804.2491,826.0073,822.7839,891.28204
1694130346.374,804.65204,799.011,790.14655,800.2198,635.42126
1694130346.375,796.5934,795.38464,778.46155,794.17584,778.0586
1694130346.375,793.7729,790.14655,785.7143,803.8461,761.13556
1694130346.376,791.3553,788.93774,799.81683,798.60803,683.36993
1694130346.3769999,793.36993,793.7729,811.50183,790.54944,731.7216
1694130346.3779998,783.69965,793.36993,807.47253,792.5641,854.21246
1694130346.379,782.8938,799.011,798.60803,794.9817,740.58606
1694130346.379,803.0403,812.3077,803.8461,803.44324,674.5055
1694130346.38,814.7253,808.68134,797.3993,813.5165,747.8388
1694130346.381,811.50183,809.89014,790.14655,807.47253,805.05493
1694130346.386,813.91943,817.1429,804.65204,808.2784,719.2308
1694130346.387,805.4579,803.0403,790.54944,802.23444,640.65936
1694130346.387,780.87915,792.1612,776.04395,794.17584,754.2857
1694130346.388,754.68866,788.1319,774.83514,801.02563,902.1612
1694130346.388,777.25275,797.3993,777.25275,809.89014,763.95605
1694130346.389,789.7436,794.9817,781.28204,794.9817,645.89746
1694130346.424,782.8938,789.7436,789.7436,789.34064,680.54944
1694130346.425,799.41394,801.4286,792.1612,803.44324,765.9707
1694130346.4259999,793.36993,796.99634,788.5348,794.9817,753.8828
1694130346.4259999,793.36993,780.07324,792.1612,786.1172,639.0476
1694130346.427,823.1868,786.1172,814.7253,806.6667,734.1392
1694130346.427,813.5165,796.99634,812.71063,819.15753,1151.978
1694130346.428,782.49084,784.90845,788.1319,796.99634,1048.8279
1694130346.428,788.5348,783.2967,782.0879,807.47253,782.49084
1694130346.429,796.99634,795.38464,783.2967,828.022,902.5641
1694130346.43,803.0403,793.36993,801.02563,823.5897,960.18317
1694130346.43,791.3553,788.93774,800.6227,805.4579,641.8681
1694130346.43,789.34064,792.96704,801.02563,800.6227,632.1978
1694130346.465,799.81683,798.20514,796.5934,812.3077,981.53845
1694130346.4659998,786.1172,806.26373,787.72894,800.6227,983.95605
1694130346.467,781.685,807.8755,795.38464,781.685,644.68866
1694130346.467,788.93774,800.2198,788.93774,788.5348,597.9487
1694130346.467,801.4286,805.05493,788.1319,799.41394,693.0403
1694130346.468,802.23444,811.50183,799.41394,803.8461,760.7326
1694130346.468,806.26373,809.4872,796.1905,807.8755,743.8095
1694130346.4689999,815.5311,809.89014,784.10254,809.4872,683.7729
1694130346.472,812.3077,809.89014,784.5055,805.4579,894.90845
1694130346.472,840.5128,816.7399,809.0842,823.9927,806.6667
1694130346.473,810.696,798.60803,791.75824,810.696,641.4652
1694130346.474,776.8498,794.57874,797.3993,799.81683,785.7143
1694130346.517,789.7436,803.44324,791.75824,809.0842,786.52014
1694130346.5180001,813.1135,811.9048,752.27106,806.26373,645.89746
1694130346.5180001,809.89014,811.50183,789.7436,793.7729,626.1539
1694130346.5180001,788.93774,799.011,811.0989,779.67035,727.6923
1694130346.519,799.011,791.75824,799.41394,773.6264,787.326
1694130346.519,784.5055,787.72894,800.2198,773.6264,797.3993
1694130346.519,765.16486,794.9817,792.96704,772.8205,676.1172
1694130346.52,785.7143,798.60803,794.57874,786.9231,780.07324
1694130346.52,801.4286,802.23444,800.6227,813.91943,990.80585
1694130346.52,804.65204,803.44324,796.5934,806.26373,798.60803
1694130346.521,792.96704,791.75824,791.3553,783.2967,710.7692
1694130346.5219998,785.7143,795.38464,790.14655,790.14655,781.28204
1694130346.5500002,790.14655,803.0403,793.36993,799.011,752.27106
1694130346.551,791.3553,799.41394,787.72894,807.8755,682.5641
1694130346.551,817.5458,798.20514,788.5348,812.71063,766.3736
1694130346.552,817.5458,794.57874,797.8022,809.0842,946.8865
1694130346.552,788.5348,796.99634,801.8315,794.9817,849.7802
1694130346.553,785.31134,795.78754,801.4286,784.5055,666.04395
1694130346.553,792.5641,791.3553,801.4286,794.57874,753.0769
1694130346.554,793.36993,791.3553,796.5934,805.05493,1039.1575
1694130346.554,797.3993,800.2198,788.5348,807.47253,898.5348
1694130346.554,809.89014,802.6374,781.685,797.8022,631.79486
1694130346.557,808.68134,795.38464,786.1172,799.41394,655.9707
1694130346.557,810.293,803.44324,799.011,803.0403,718.4249
1694130346.608,784.10254,799.011,774.43225,786.9231,700.696
1694130346.609,777.6557,799.41394,779.67035,793.7729,674.90845
1694130346.61,822.381,823.1868,827.2161,828.022,671.28204
1694130346.61,799.011,803.0403,800.6227,801.8315,659.19415
1694130346.611,768.3883,778.86444,775.2381,777.25275,666.8498
1694130346.612,792.1612,790.54944,795.38464,776.4469,694.65204
1694130346.612,802.23444,794.17584,801.8315,790.14655,924.7253
1694130346.612,796.99634,783.69965,780.07324,795.38464,1150.3663
1694130346.613,794.57874,798.20514,778.86444,789.7436,796.1905
1694130346.613,786.9231,808.2784,788.1319,790.54944,651.9414
1694130346.614,784.90845,795.78754,796.5934,787.72894,805.05493
1694130346.615,787.326,793.7729,801.02563,780.87915,761.13556
1694130346.6369998,784.10254,792.96704,793.36993,778.0586,736.55676
1694130346.638,792.1612,796.99634,797.3993,784.90845,739.3773
1694130346.6390002,785.31134,801.02563,796.1905,786.9231,802.23444
1694130346.6390002,781.28204,793.36993,784.5055,782.0879,763.5531
1694130346.64,791.75824,795.78754,792.96704,786.52014,688.60803
1694130346.64,792.5641,796.5934,799.41394,784.10254,712.7839
1694130346.641,782.0879,784.90845,788.1319,794.17584,1055.2748
1694130346.641,786.1172,786.52014,795.38464,801.8315,1172.5275
1694130346.642,806.6667,801.02563,809.4872,788.93774,800.6227
1694130346.642,826.0073,817.5458,810.696,807.8755,697.47253
1694130346.6430001,793.7729,805.4579,801.8315,810.293,751.4652
1694130346.6430001,774.43225,785.31134,796.99634,781.28204,659.19415
1694130346.7129998,794.57874,786.9231,804.2491,788.5348,644.68866
1694130346.714,806.26373,798.20514,794.57874,799.41394,688.60803
1694130346.7150002,806.6667,805.4579,777.25275,788.5348,714.7985
1694130346.716,797.3993,798.60803,784.10254,786.1172,649.5238
1694130346.716,787.326,790.9524,792.5641,783.69965,596.337
1694130346.717,790.9524,786.9231,796.5934,783.69965,789.7436
1694130346.7180002,783.2967,785.31134,790.14655,788.5348,921.9048
1694130346.719,792.1612,793.7729,781.685,787.72894,794.17584
1694130346.72,809.4872,796.5934,794.17584,797.3993,711.1722
1694130346.72,807.8755,786.1172,806.26373,805.4579,863.8828
1694130346.721,811.0989,793.36993,807.8755,801.02563,892.8938
1694130346.722,801.4286,799.41394,808.68134,801.4286,739.7802
1694130346.753,801.4286,792.5641,811.0989,796.5934,775.64105
1694130346.754,796.1905,791.3553,807.47253,798.20514,942.0513
1694130346.755,788.5348,792.1612,803.44324,798.60803,886.8498
1694130346.756,792.1612,796.1905,795.38464,794.57874,606.0073
1694130346.756,798.60803,802.6374,798.60803,793.36993,674.10254
1694130346.757,798.60803,797.8022,803.8461,799.41394,946.8865
1694130346.7580001,796.99634,796.99634,800.6227,807.47253,818.7546
1694130346.7580001,809.4872,796.5934,787.326,792.5641,595.12823
1694130346.759,813.1135,794.9817,794.57874,795.38464,635.42126
1694130346.759,807.47253,799.41394,806.6667,819.5604,956.1539
1694130346.76,815.5311,802.6374,806.6667,815.9341,846.1539
1694130346.761,820.7692,805.8608,803.8461,812.3077,630.18317
1694130346.792,805.05493,785.31134,784.10254,794.17584,705.9341
1694130346.793,803.8461,782.0879,784.90845,774.0293,688.60803
1694130346.797,801.4286,804.65204,790.9524,782.49084,644.68866
1694130346.798,805.4579,807.47253,780.07324,806.6667,678.5348
1694130346.799,815.9341,791.75824,796.99634,807.0696,736.55676
1694130346.799,809.0842,793.36993,819.15753,796.5934,773.6264
1694130346.8,802.6374,795.78754,810.293,798.60803,730.10986
1694130346.8,804.65204,797.3993,799.81683,801.4286,684.17584
1694130346.8009999,795.38464,802.6374,796.99634,799.81683,848.5714
1694130346.8009999,790.54944,799.41394,795.38464,782.0879,859.45056
1694130346.8019998,785.31134,798.20514,798.20514,779.67035,694.65204
1694130346.803,789.34064,794.9817,790.9524,796.1905,706.337
1694130346.826,806.26373,794.17584,784.90845,807.47253,1024.249
1694130346.8270001,803.0403,798.60803,792.5641,814.3223,1098.7913
1694130346.8270001,801.02563,794.9817,809.0842,806.26373,788.1319
1694130346.828,806.26373,788.93774,804.65204,798.60803,800.6227
1694130346.828,807.0696,789.34064,800.2198,804.65204,839.707
1694130346.829,814.7253,801.02563,814.7253,812.71063,767.5824
1694130346.829,818.7546,805.8608,819.5604,813.1135,832.8571
1694130346.8300002,807.8755,788.93774,803.8461,794.9817,832.0513
1694130346.8300002,803.0403,782.0879,796.99634,793.7729,752.27106
1694130346.831,811.9048,797.3993,796.5934,813.91943,684.57874
1694130346.831,789.34064,798.20514,777.6557,799.41394,628.1685
1694130346.832,776.04395,786.52014,773.6264,780.4762,755.4945
1694130346.859,809.0842,788.93774,812.71063,808.2784,1115.7142
1694130346.8609998,802.23444,783.2967,813.91943,807.47253,915.4579
1694130346.8630002,794.57874,793.36993,797.3993,796.1905,614.87177
1694130346.8630002,811.0989,809.89014,813.91943,804.65204,684.57874
1694130346.867,805.4579,801.8315,805.4579,794.17584,755.4945
1694130346.868,795.78754,799.011,792.5641,784.5055,781.685
1694130346.868,803.0403,795.78754,799.011,786.1172,705.5311
1694130346.869,810.696,793.36993,801.4286,799.41394,883.6264
1694130346.8700001,797.3993,797.3993,801.8315,810.696,1121.3553
1694130346.8700001,801.4286,805.05493,803.0403,803.0403,827.619
1694130346.871,826.4103,802.6374,788.93774,801.8315,687.8022
1694130346.871,837.28937,806.26373,801.8315,815.12823,774.43225
1694130346.9539998,826.0073,812.71063,823.1868,808.68134,759.5238
1694130346.9550002,804.65204,801.8315,792.96704,783.69965,655.9707
1694130346.956,796.1905,786.9231,792.5641,773.22345,672.49084
1694130346.957,802.6374,791.3553,803.44324,780.87915,902.96704
1694130346.957,792.96704,792.5641,796.1905,778.46155,840.9158
1694130346.9580002,782.8938,792.5641,783.69965,774.43225,703.5165
1694130346.959,789.34064,798.20514,787.326,791.3553,738.97437
1694130346.959,798.60803,793.7729,801.4286,808.68134,958.97437
1694130346.96,798.20514,794.57874,796.99634,815.9341,933.5897
1694130346.96,803.8461,799.41394,789.7436,808.2784,701.0989
1694130346.961,813.91943,801.4286,794.9817,810.696,680.14655
1694130346.962,817.9487,809.0842,797.3993,823.9927,741.79486
1694130346.9889998,830.84247,833.2601,816.7399,831.2454,698.2784
1694130346.9910002,824.7985,824.3956,826.0073,819.5604,680.54944
1694130346.9910002,790.9524,781.685,783.2967,783.69965,708.7546
1694130346.992,790.14655,788.5348,786.1172,783.2967,682.1612
1694130346.993,793.36993,807.8755,810.293,803.0403,655.56775
1694130346.993,796.5934,799.011,794.9817,788.5348,727.28937
1694130346.997,791.3553,784.90845,785.7143,781.685,931.1722
1694130346.9980001,798.20514,796.5934,787.72894,807.0696,1105.641
1694130346.999,794.9817,799.011,780.07324,793.36993,773.6264
1694130346.999,787.326,791.3553,780.87915,787.326,586.26373
1694130347.0,805.05493,801.8315,789.34064,797.8022,744.21246
1694130347.001,788.5348,803.0403,792.5641,791.3553,813.5165
1694130347.003,777.25275,800.6227,793.36993,787.326,753.8828
1694130347.003,805.4579,808.2784,803.0403,798.20514,716.0073
1694130347.004,809.0842,798.60803,810.293,805.4579,892.8938
1694130347.004,799.41394,795.78754,800.2198,809.4872,863.8828
1694130347.0049999,833.663,823.1868,819.5604,830.0366,655.9707
1694130347.006,818.3516,801.8315,796.1905,800.6227,822.7839
1694130347.006,776.8498,770.0,770.0,766.77655,1119.7435
1694130347.007,773.22345,780.07324,776.8498,768.7912,796.5934
1694130347.007,786.9231,784.5055,784.5055,776.04395,573.7729
1694130347.008,790.14655,783.2967,783.2967,781.685,727.6923
1694130347.008,802.23444,803.8461,791.75824,800.6227,782.0879
1694130347.0089998,811.0989,804.2491,806.26373,801.4286,723.663
1694130347.089,789.34064,771.6117,785.7143,768.7912,662.8205
1694130347.091,798.60803,794.57874,791.75824,790.54944,789.34064
1694130347.091,780.4762,797.8022,791.3553,792.1612,904.17584
1694130347.092,773.6264,788.5348,777.6557,776.8498,753.47986
1694130347.092,788.93774,795.38464,782.0879,786.1172,662.8205
1694130347.093,804.65204,799.81683,801.4286,801.02563,810.696
1694130347.094,819.15753,814.3223,796.5934,817.1429,801.8315
1694130347.094,794.17584,807.47253,783.2967,801.02563,682.5641
1694130347.0979998,770.80585,793.7729,786.52014,777.6557,710.3663
1694130347.099,780.07324,793.36993,776.4469,778.86444,877.1795
1694130347.099,788.1319,793.7729,763.5531,779.67035,845.34796
1694130347.1,795.78754,801.8315,783.69965,787.326,602.7839
1694130347.122,805.8608,811.9048,801.8315,804.65204,712.7839
1694130347.1230001,799.81683,804.2491,796.5934,800.6227,969.0476
1694130347.124,803.0403,801.8315,787.326,795.78754,885.64105
1694130347.125,819.5604,808.2784,781.28204,801.02563,672.0879
1694130347.125,818.3516,821.5751,812.71063,813.1135,761.9414
1694130347.1260002,782.49084,805.05493,803.0403,793.7729,1108.4615
1694130347.1260002,770.80585,790.9524,783.2967,778.0586,998.46155
1694130347.127,783.2967,793.36993,781.28204,780.4762,701.0989
1694130347.128,787.72894,794.17584,779.67035,782.0879,734.1392
1694130347.128,789.34064,796.99634,784.90845,792.96704,861.4652
1694130347.129,784.5055,802.23444,783.69965,795.38464,756.30035
1694130347.129,801.02563,809.89014,783.69965,794.17584,697.8755
1694130347.1590002,810.293,805.05493,779.67035,787.326,713.5897
1694130347.16,800.6227,802.23444,776.04395,788.93774,693.0403
1694130347.16,809.0842,807.47253,786.1172,799.41394,661.6117
1694130347.161,799.81683,809.89014,793.7729,800.2198,641.4652
1694130347.161,796.5934,804.65204,779.2674,805.8608,772.8205
1694130347.162,815.12823,801.8315,776.4469,815.12823,892.0879
1694130347.162,814.7253,821.1722,810.293,815.9341,811.9048
1694130347.163,788.1319,811.0989,796.99634,780.4762,720.4396
1694130347.163,775.64105,794.17584,780.07324,770.0,878.3883
1694130347.164,801.02563,801.02563,800.6227,807.0696,1134.249
1694130347.168,799.41394,810.293,794.57874,812.3077,828.4249
1694130347.168,776.4469,801.02563,780.07324,784.90845,621.31866
1694130347.191,766.77655,790.9524,780.07324,772.01465,871.53845
1694130347.192,778.0586,801.4286,786.52014,780.4762,780.87915
1694130347.1929998,805.8608,807.47253,793.36993,791.3553,695.8608
1694130347.1929998,815.12823,812.71063,793.7729,805.05493,769.19415
1694130347.1939998,799.41394,804.65204,775.2381,792.96704,736.1539
1694130347.1939998,797.3993,798.20514,775.2381,783.2967,713.5897
1694130347.1950002,792.5641,797.3993,783.2967,791.75824,663.22345
1694130347.196,785.31134,804.2491,793.7729,801.4286,648.71796
1694130347.1980002,816.7399,812.71063,804.65204,832.4542,972.674
1694130347.1990001,816.337,811.9048,797.3993,821.1722,934.7985
1694130347.1990001,799.81683,815.12823,792.96704,790.14655,651.13556
1694130347.2,792.96704,807.47253,780.4762,785.31134,614.87177
1694130347.233,782.49084,815.5311,784.10254,796.99634,759.12085
1694130347.234,793.36993,827.2161,800.2198,801.4286,762.3443
1694130347.2350001,800.2198,813.5165,791.3553,797.3993,683.36993
1694130347.2350001,793.36993,802.6374,772.01465,791.3553,667.25275
1694130347.236,794.57874,809.89014,785.31134,787.72894,680.54944
1694130347.236,795.78754,820.3663,794.17584,800.2198,771.6117
1694130347.237,792.1612,809.0842,778.0586,797.8022,779.2674
1694130347.2380002,803.0403,803.44324,781.28204,811.0989,921.9048
1694130347.2380002,833.2601,812.71063,794.17584,840.5128,1036.337
1694130347.239,815.5311,797.8022,780.87915,807.0696,703.5165
1694130347.239,789.34064,788.5348,787.326,787.326,639.0476
1694130347.24,823.1868,799.81683,812.71063,815.5311,776.4469
1694130347.329,820.7692,810.696,809.89014,813.1135,750.65936
1694130347.33,787.326,801.02563,791.75824,790.14655,635.42126
1694130347.331,782.8938,786.9231,777.25275,784.10254,620.10986
1694130347.332,776.4469,784.5055,776.04395,791.3553,922.3077
1694130347.332,791.3553,788.5348,788.93774,795.78754,958.5714
1694130347.333,808.2784,788.5348,786.1172,796.99634,800.2198
1694130347.334,798.60803,784.5055,776.4469,798.20514,828.4249
1694130347.334,790.54944,782.8938,782.8938,803.0403,965.42126
1694130347.335,794.9817,800.6227,794.9817,809.4872,834.4689
1694130347.335,819.9634,799.41394,813.91943,814.3223,689.81683
1694130347.336,839.304,801.4286,817.9487,826.4103,704.7253
1694130347.336,828.022,820.3663,797.8022,828.8278,653.1502
1694130347.3769999,787.326,775.2381,771.2088,789.7436,629.3773
1694130347.3779998,771.2088,760.7326,780.4762,772.4176,601.1722
1694130347.379,776.8498,787.326,788.5348,780.4762,727.6923
1694130347.38,776.4469,786.9231,783.2967,790.9524,807.8755
1694130347.38,773.6264,786.1172,786.9231,784.90845,693.44324
1694130347.381,781.28204,788.93774,790.54944,776.8498,709.5604
1694130347.381,782.49084,788.1319,791.75824,788.1319,858.24176
1694130347.3820002,787.326,793.7729,792.5641,800.2198,806.26373
1694130347.3830001,801.8315,799.41394,796.5934,803.44324,700.696
1694130347.3830001,813.1135,801.8315,799.41394,808.68134,670.87915
1694130347.384,813.1135,794.57874,779.67035,805.8608,854.21246
1694130347.385,799.41394,788.1319,784.90845,807.47253,1027.0696
1694130347.423,820.7692,813.1135,814.3223,826.0073,834.0659
1694130347.424,827.2161,823.9927,821.5751,827.619,817.9487
1694130347.428,779.67035,794.17584,796.99634,797.8022,943.663
1694130347.428,771.6117,791.3553,794.57874,784.5055,785.31134
1694130347.429,780.87915,786.1172,789.7436,775.2381,625.7509
1694130347.429,785.31134,787.72894,791.75824,781.28204,741.79486
1694130347.43,799.011,797.3993,799.41394,809.89014,968.6447
1694130347.431,812.3077,795.38464,802.6374,809.89014,873.95605
1694130347.431,794.57874,797.3993,792.5641,796.99634,635.0183
1694130347.432,785.7143,800.2198,783.2967,801.8315,666.4469
1694130347.432,799.011,793.36993,791.75824,816.337,997.6557
1694130347.4329998,806.6667,795.78754,796.1905,808.68134,939.6337
1694130347.477,828.022,811.50183,801.8315,820.7692,720.84247
1694130347.4780002,818.7546,799.81683,787.72894,827.2161,650.7326
1694130347.479,809.0842,803.8461,798.60803,814.7253,621.31866
1694130347.48,807.8755,813.5165,802.23444,810.696,680.9524
1694130347.481,785.31134,796.5934,782.0879,787.72894,720.84247
1694130347.4819999,797.3993,798.60803,788.93774,786.9231,851.79486
1694130347.483,789.34064,798.20514,782.0879,792.1612,807.0696
1694130347.484,779.2674,789.7436,778.0586,787.72894,649.12085
1694130347.484,798.20514,792.1612,789.34064,792.5641,640.65936
1694130347.485,794.9817,796.99634,790.14655,804.65204,876.77655
1694130347.485,787.72894,795.78754,776.8498,810.293,1110.4762
1694130347.486,795.78754,796.5934,780.4762,814.7253,760.7326
1694130347.488,811.0989,801.8315,787.326,808.68134,680.14655
1694130347.488,786.9231,796.5934,775.64105,800.6227,1006.9231
1694130347.4889998,776.04395,794.17584,770.40295,802.6374,921.50183
1694130347.4889998,793.36993,801.8315,771.6117,795.38464,686.1905
1694130347.493,800.2198,801.8315,783.2967,807.8755,654.7619
1694130347.4940002,798.20514,794.57874,809.89014,807.47253,755.09155
1694130347.4950001,789.34064,792.5641,810.696,794.57874,772.8205
1694130347.4950001,796.1905,804.2491,804.65204,795.38464,659.59705
1694130347.496,779.67035,787.326,780.87915,781.685,706.7399
1694130347.497,772.01465,777.6557,770.0,792.1612,914.65204
1694130347.498,787.72894,791.3553,783.2967,806.6667,787.326
1694130347.499,807.8755,798.20514,794.17584,810.293,670.87915
1694130347.559,788.93774,795.38464,791.3553,800.2198,755.4945
1694130347.56,792.1612,804.65204,795.78754,796.5934,792.96704
1694130347.5609999,820.3663,825.2015,805.05493,805.4579,724.87177
1694130347.5619998,786.1172,796.5934,774.43225,770.80585,660.80585
1694130347.5619998,787.72894,793.36993,783.69965,782.8938,698.2784
1694130347.563,788.5348,801.4286,790.54944,793.7729,857.4359
1694130347.564,757.50916,792.5641,776.8498,761.13556,870.7326
1694130347.5649998,770.80585,798.20514,786.52014,759.92676,635.42126
1694130347.5649998,784.10254,798.20514,793.36993,767.1795,728.49817
1694130347.5660002,783.69965,795.78754,786.52014,779.2674,928.7546
1694130347.5670002,786.9231,795.78754,787.72894,787.72894,729.707
1694130347.569,795.78754,801.02563,782.8938,801.4286,693.8461
1694130347.597,804.2491,807.8755,780.87915,811.0989,809.4872
1694130347.599,787.72894,806.26373,796.5934,800.6227,790.14655
1694130347.6,789.34064,814.3223,808.68134,807.8755,677.326
1694130347.6019998,794.17584,805.8608,798.20514,810.293,694.2491
1694130347.6030002,786.52014,783.69965,790.54944,802.23444,973.0769
1694130347.604,786.1172,793.7729,797.3993,803.8461,947.6923
1694130347.609,782.0879,790.9524,787.72894,789.7436,685.38464
1694130347.61,786.1172,790.54944,786.52014,785.7143,662.01465
1694130347.611,788.1319,796.99634,790.9524,790.9524,951.7216
1694130347.612,802.23444,795.78754,789.7436,790.54944,881.2088
1694130347.613,798.20514,803.8461,789.34064,797.8022,630.18317
1694130347.613,793.7729,813.91943,799.81683,799.41394,624.1392
1694130347.6460001,803.0403,801.8315,799.41394,790.54944,671.685
1694130347.647,790.14655,789.34064,788.1319,786.9231,723.2601
1694130347.648,778.0586,784.10254,787.326,787.72894,751.06226
1694130347.649,788.93774,779.67035,774.0293,790.14655,792.1612
1694130347.649,785.31134,776.8498,774.0293,779.2674,821.978
1694130347.6499999,790.14655,781.685,784.90845,781.28204,754.2857
1694130347.6499999,808.68134,791.75824,782.8938,790.9524,691.02563
1694130347.651,793.36993,788.93774,777.25275,801.8315,847.76556
1694130347.651,783.69965,786.1172,771.2088,805.8608,1116.1172
1694130347.652,804.2491,803.8461,793.7729,803.0403,798.60803
1694130347.652,797.8022,795.78754,797.3993,797.8022,603.1868
1694130347.6529999,790.54944,790.14655,782.8938,793.36993,747.8388
1694130347.654,786.9231,790.14655,782.0879,793.7729,795.78754
1694130347.654,772.8205,781.28204,786.52014,792.1612,702.3077
1694130347.655,785.7143,789.34064,790.54944,782.8938,672.49084
1694130347.655,796.1905,788.5348,790.14655,793.7729,851.79486
1694130347.656,790.54944,793.7729,790.9524,809.0842,770.0
1694130347.656,803.0403,807.8755,794.9817,810.696,718.022
1694130347.6569998,800.2198,793.7729,778.46155,802.6374,855.0183
1694130347.6579998,792.96704,780.07324,767.98535,800.2198,881.2088
1694130347.661,802.23444,793.7729,788.1319,801.8315,705.9341
1694130347.6620002,793.36993,796.5934,790.14655,790.54944,639.85345
1694130347.6620002,790.54944,792.1612,775.64105,788.93774,770.0
1694130347.663,793.36993,788.1319,775.2381,795.38464,1129.8169
1694130347.741,796.5934,797.3993,791.75824,807.47253,1029.8901
1694130347.742,802.23444,814.7253,802.23444,810.293,662.8205
1694130347.743,789.34064,811.50183,796.5934,801.8315,672.8938
1694130347.743,783.2967,801.02563,792.1612,789.34064,747.03296
1694130347.744,791.75824,799.41394,786.9231,790.54944,763.1502
1694130347.745,791.3553,800.2198,788.5348,796.5934,730.5128
1694130347.745,792.96704,792.1612,787.72894,793.36993,853.4066
1694130347.7459998,803.8461,793.7729,788.1319,807.47253,966.63007
1694130347.7459998,797.3993,803.44324,790.9524,801.8315,751.4652
1694130347.747,791.3553,796.1905,788.93774,789.7436,735.7509
1694130347.747,788.1319,793.7729,786.9231,796.99634,871.13556
1694130347.748,793.36993,799.81683,786.1172,793.36993,727.28937
1694130347.7740002,804.65204,800.2198,791.75824,792.5641,608.8278
1694130347.775,811.0989,803.8461,788.5348,801.4286,701.50183
1694130347.776,815.9341,802.6374,780.87915,815.5311,942.8571
1694130347.776,822.381,802.6374,784.10254,813.5165,860.2564
1694130347.777,809.4872,802.6374,796.99634,804.65204,629.7802
1694130347.7779999,813.91943,800.2198,802.23444,803.8461,761.9414
1694130347.7779999,813.5165,799.011,796.5934,811.9048,1112.0879
1694130347.779,815.5311,803.8461,804.2491,829.2308,948.9011
1694130347.78,811.0989,805.4579,802.6374,826.8132,712.7839
1694130347.78,786.9231,788.93774,781.685,797.3993,709.15753
1694130347.7849998,783.69965,782.8938,775.64105,788.5348,667.6557
1694130347.7859998,782.0879,792.5641,778.0586,795.78754,699.0842
1694130347.829,780.07324,794.17584,789.7436,805.4579,734.1392
1694130347.8300002,795.38464,789.7436,794.9817,805.05493,716.0073
1694130347.831,798.20514,784.5055,799.41394,801.8315,762.74725
1694130347.832,780.4762,781.685,799.41394,792.5641,693.0403
1694130347.832,789.34064,788.93774,788.5348,803.8461,669.67035
1694130347.833,798.60803,795.38464,784.90845,815.5311,944.0659
1694130347.8339999,784.10254,798.60803,792.5641,796.1905,997.6557
1694130347.835,773.22345,797.8022,801.02563,782.8938,722.4542
1694130347.835,792.5641,796.1905,792.1612,787.72894,630.18317
1694130347.836,799.41394,799.41394,782.8938,795.38464,828.8278
1694130347.837,778.86444,803.44324,796.1905,791.3553,892.49084
1694130347.838,768.3883,789.7436,792.1612,784.10254,741.39197
1694130347.901,779.67035,781.685,790.54944,778.46155,763.95605
1694130347.9020002,774.43225,782.49084,803.44324,781.685,881.6117
1694130347.903,772.8205,793.36993,810.293,791.75824,837.6923
1694130347.904,794.9817,805.8608,808.68134,806.26373,712.7839
1694130347.905,780.87915,789.34064,795.78754,788.93774,695.8608
1694130347.906,784.5055,791.3553,808.2784,780.07324,782.0879
1694130347.907,774.83514,782.0879,797.8022,776.04395,735.7509
1694130347.908,764.7619,779.67035,781.685,764.7619,636.2271
1694130347.908,776.4469,783.2967,790.54944,779.2674,672.0879
1694130347.909,799.41394,778.86444,789.7436,796.5934,1031.0989
1694130347.91,802.6374,792.1612,790.14655,794.9817,948.0952
1694130347.911,793.7729,800.6227,796.99634,794.17584,577.8022
1694130347.9550002,785.31134,791.75824,793.36993,794.9817,688.60803
1694130347.956,798.60803,796.1905,800.6227,804.2491,818.7546
1694130347.957,806.26373,801.4286,805.4579,802.6374,767.98535
1694130347.9580002,786.9231,788.1319,794.17584,779.67035,714.7985
1694130347.9580002,801.02563,784.5055,779.67035,779.2674,709.5604
1694130347.959,798.60803,790.9524,778.0586,792.5641,792.5641
1694130347.959,796.5934,788.93774,797.3993,792.5641,828.8278
1694130347.96,811.9048,793.36993,801.4286,786.52014,775.64105
1694130347.96,810.293,788.93774,792.1612,799.41394,866.7033
1694130347.961,803.8461,785.7143,789.7436,811.9048,1052.0513
1694130347.961,795.78754,794.17584,795.38464,801.4286,745.0183
1694130347.962,790.9524,790.54944,792.96704,795.78754,661.2088
1694130347.964,792.1612,793.36993,793.36993,800.2198,969.45056
1694130347.964,811.9048,804.65204,803.44324,808.68134,826.8132
1694130347.965,815.9341,799.41394,802.23444,806.26373,588.68134
1694130347.965,803.44324,793.7729,801.4286,798.20514,632.6007
1694130347.966,803.0403,801.02563,801.8315,805.8608,757.9121
1694130347.966,788.1319,802.6374,792.5641,796.5934,817.1429
1694130347.967,788.93774,800.2198,789.34064,789.34064,755.4945
1694130347.967,799.011,800.6227,794.57874,794.9817,713.5897
1694130347.968,807.47253,809.0842,798.20514,794.57874,747.4359
1694130347.968,806.26373,815.12823,799.81683,804.65204,691.02563
1694130347.9689999,808.68134,809.0842,792.5641,805.4579,665.2381
1694130347.9689999,820.3663,802.6374,798.20514,799.41394,732.52747
1694130348.04,811.0989,802.23444,812.71063,799.41394,854.61536
1694130348.041,796.1905,805.05493,808.68134,797.3993,701.50183
1694130348.0460002,791.75824,806.26373,802.6374,799.011,597.5458
1694130348.0470002,792.96704,805.05493,799.81683,811.50183,799.81683
1694130348.0470002,799.41394,803.0403,796.99634,818.3516,1050.4396
1694130348.048,814.7253,798.60803,795.38464,809.89014,846.9597
1694130348.048,812.3077,801.8315,794.9817,812.3077,633.8095
1694130348.049,804.2491,805.05493,792.96704,817.5458,769.59705
1694130348.05,814.7253,807.8755,790.14655,823.1868,954.1392
1694130348.05,804.2491,814.3223,805.8608,821.1722,724.0659
1694130348.051,798.60803,813.91943,822.7839,817.9487,620.10986
1694130348.052,799.011,794.17584,805.05493,802.23444,735.34796
1694130348.08,800.2198,790.14655,799.011,791.3553,721.6484
1694130348.0809999,805.05493,800.2198,792.5641,794.9817,637.03296
1694130348.0819998,800.6227,800.6227,787.72894,807.47253,700.293
1694130348.0819998,791.3553,794.17584,790.54944,807.0696,874.7619
1694130348.0830002,793.36993,796.5934,794.17584,809.89014,748.6447
1694130348.084,801.02563,800.6227,792.1612,801.8315,633.4066
1694130348.084,796.1905,793.7729,782.0879,791.75824,786.52014
1694130348.085,795.38464,792.5641,780.87915,797.3993,1039.1575
1694130348.085,806.26373,800.6227,786.9231,791.3553,893.2967
1694130348.0860002,794.17584,801.02563,790.14655,796.1905,633.8095
1694130348.0860002,786.1172,803.0403,790.14655,800.6227,656.3736
1694130348.0870001,793.7729,807.47253,796.99634,806.26373,724.0659
1694130348.094,792.96704,801.4286,797.8022,818.3516,708.3516
1694130348.095,807.0696,802.6374,803.0403,817.1429,649.12085
1694130348.096,807.47253,813.5165,799.011,815.9341,655.16486
1694130348.096,795.78754,813.5165,784.90845,805.05493,733.3333
1694130348.1009998,793.36993,805.4579,782.8938,795.38464,731.31866
1694130348.1009998,794.9817,796.5934,787.326,793.7729,743.4066
1694130348.1020002,797.8022,792.1612,794.9817,803.44324,955.34796
1694130348.1020002,787.326,797.3993,790.14655,808.68134,1200.7325
1694130348.1030002,783.2967,803.0403,782.8938,794.17584,821.1722
1694130348.1030002,803.8461,800.2198,793.7729,796.99634,676.9231
1694130348.104,791.75824,787.72894,785.7143,799.011,786.9231
1694130348.104,780.4762,787.72894,775.2381,792.96704,774.43225
1694130348.129,793.36993,794.57874,781.685,783.69965,744.61536
1694130348.1299999,801.8315,795.38464,790.14655,793.36993,684.17584
1694130348.131,794.57874,788.5348,795.78754,799.011,930.7692
1694130348.131,792.1612,788.1319,794.17584,784.90845,980.7326
1694130348.132,798.60803,796.5934,790.9524,784.90845,772.4176
1694130348.132,810.293,794.9817,785.7143,786.9231,776.8498
1694130348.133,802.6374,788.5348,787.72894,807.0696,1104.0293
1694130348.133,784.10254,791.3553,794.9817,811.9048,1016.5934
1694130348.134,792.96704,798.20514,796.5934,792.96704,704.3223
1694130348.134,791.3553,801.8315,797.3993,794.9817,693.0403
1694130348.135,787.72894,801.4286,794.9817,796.1905,654.35895
1694130348.135,795.38464,803.8461,784.10254,793.36993,635.42126
1694130348.192,798.60803,803.8461,780.87915,782.8938,653.95605
1694130348.1929998,803.8461,798.60803,777.25275,780.07324,732.9304
1694130348.1929998,794.9817,786.52014,774.83514,786.52014,772.01465
1694130348.1939998,799.81683,789.7436,788.5348,802.23444,691.4286
1694130348.1939998,796.5934,797.3993,793.7729,801.8315,641.06226
1694130348.1950002,790.9524,786.9231,796.1905,792.5641,800.6227
1694130348.1990001,805.05493,796.1905,810.293,807.47253,940.4396
1694130348.1990001,801.02563,801.8315,804.65204,794.9817,843.73627
1694130348.2,780.87915,782.8938,783.69965,771.6117,699.4872
1694130348.2,771.6117,782.49084,783.69965,793.36993,815.12823
1694130348.201,784.90845,794.57874,784.90845,808.2784,924.7253
1694130348.201,799.011,798.60803,779.2674,788.93774,690.2198
1694130348.23,790.9524,793.36993,782.0879,775.64105,761.9414
1694130348.231,794.9817,792.5641,778.0586,780.87915,853.00366
1694130348.232,788.93774,793.7729,780.4762,781.685,670.07324
1694130348.232,782.49084,798.20514,793.7729,778.46155,600.3663
1694130348.233,787.72894,797.3993,790.9524,792.96704,664.83514
1694130348.233,794.9817,790.14655,784.90845,800.2198,1007.326
1694130348.234,803.0403,796.5934,787.72894,798.20514,1037.9487
1694130348.234,795.78754,798.20514,785.31134,783.69965,623.73627
1694130348.236,772.01465,797.8022,784.5055,775.64105,645.89746
1694130348.237,774.43225,798.60803,782.0879,796.5934,1023.8461
1694130348.2380002,798.20514,799.41394,784.10254,788.5348,854.61536
1694130348.239,795.38464,803.44324,780.07324,782.49084,622.9304
1694130348.2700002,792.1612,811.9048,775.64105,797.8022,647.9121
1694130348.2710001,785.7143,807.47253,785.31134,794.57874,646.30035
1694130348.272,788.1319,803.44324,784.10254,792.96704,665.2381
1694130348.273,780.87915,798.60803,784.5055,796.1905,674.5055
1694130348.273,784.90845,794.57874,791.3553,790.54944,687.3993
1694130348.274,802.6374,802.6374,796.99634,793.7729,718.8278
1694130348.275,801.4286,803.8461,795.38464,799.41394,713.5897
1694130348.275,788.5348,796.99634,782.49084,788.5348,635.0183
1694130348.279,798.20514,799.81683,780.87915,789.34064,817.1429
1694130348.28,821.1722,817.1429,803.44324,827.2161,1019.81683
1694130348.28,802.23444,803.8461,796.99634,807.47253,740.58606
1694130348.281,779.67035,782.49084,783.69965,772.4176,601.5751
1694130348.3630002,797.3993,790.9524,796.1905,789.7436,963.00366
1694130348.365,794.9817,796.99634,789.7436,799.41394,1088.7179
1694130348.365,779.2674,796.5934,791.75824,794.57874,763.5531
1694130348.3660002,788.93774,801.02563,804.65204,792.96704,677.326
1694130348.3660002,791.3553,801.8315,797.8022,794.17584,795.78754
1694130348.367,798.20514,805.05493,795.38464,799.81683,846.9597
1694130348.368,806.6667,807.47253,785.7143,811.9048,815.5311
1694130348.368,789.34064,799.41394,778.0586,808.2784,771.2088
1694130348.369,786.52014,791.3553,786.1172,796.99634,980.7326
1694130348.369,805.05493,794.9817,790.9524,789.34064,822.7839
1694130348.37,797.8022,800.6227,795.38464,792.1612,581.8315
1694130348.37,799.011,797.8022,796.5934,796.5934,694.2491
1694130348.3779998,814.3223,799.011,793.7729,799.41394,746.2271
1694130348.379,801.02563,808.68134,793.36993,799.81683,692.23444
1694130348.379,785.31134,804.2491,789.34064,792.5641,722.4542
1694130348.38,786.52014,799.41394,787.326,799.81683,722.4542
1694130348.381,792.5641,792.96704,777.25275,800.6227,778.0586
1694130348.381,797.3993,791.75824,779.2674,796.5934,850.18317
1694130348.3820002,800.2198,798.20514,790.9524,801.02563,772.4176
1694130348.3820002,786.52014,792.96704,793.7729,800.6227,762.3443
1694130348.3830001,802.23444,793.36993,792.1612,800.6227,791.75824
1694130348.384,807.8755,804.2491,793.7729,809.4872,722.4542
1694130348.388,788.5348,797.3993,792.5641,808.2784,720.84247
1694130348.388,797.3993,790.14655,789.7436,799.81683,957.76556
1694130348.415,803.44324,796.5934,787.72894,796.99634,1000.4762
1694130348.416,792.1612,802.23444,790.9524,795.38464,682.96704
1694130348.4169998,788.1319,792.96704,795.38464,800.2198,695.05493
1694130348.418,795.38464,779.67035,787.326,794.57874,836.8865
1694130348.418,809.4872,794.57874,788.5348,799.41394,763.5531
1694130348.4190001,803.0403,799.011,790.9524,803.0403,732.52747
1694130348.4190001,783.69965,789.34064,796.5934,780.87915,776.04395
1694130348.42,786.9231,785.7143,800.2198,786.1172,1081.8682
1694130348.42,774.43225,790.9524,791.75824,802.6374,1139.8901
1694130348.421,777.6557,801.02563,788.93774,786.52014,720.84247
1694130348.421,786.1172,794.17584,778.0586,776.04395,572.5641
1694130348.4220002,788.1319,803.8461,780.4762,791.3553,608.4249
1694130348.479,794.9817,809.89014,794.17584,800.6227,644.68866
1694130348.48,801.02563,792.96704,796.5934,786.52014,664.83514
1694130348.48,793.36993,781.28204,791.75824,780.87915,670.07324
1694130348.481,783.2967,784.10254,786.9231,782.49084,661.2088
1694130348.4819999,787.326,789.34064,786.9231,790.54944,579.011
1694130348.4819999,792.96704,796.5934,792.1612,801.8315,626.55676
1694130348.483,798.60803,799.41394,797.8022,802.23444,852.6007
1694130348.483,794.17584,795.78754,799.011,798.60803,832.8571
1694130348.484,780.4762,798.20514,794.57874,793.7729,675.7143
1694130348.484,798.60803,807.0696,797.3993,794.17584,618.0952
1694130348.485,790.9524,794.57874,786.9231,797.8022,854.61536
1694130348.486,781.28204,782.8938,767.5824,805.05493,1156.0073
1694130348.576,786.52014,787.72894,774.43225,789.7436,869.92676
1694130348.577,785.7143,791.3553,787.72894,782.49084,681.3553
1694130348.5779998,794.9817,791.3553,797.8022,789.7436,840.10986
1694130348.579,791.75824,795.38464,798.60803,785.7143,766.77655
1694130348.58,803.0403,800.6227,797.8022,799.011,606.8132
1694130348.58,812.71063,794.9817,798.20514,805.05493,776.8498
1694130348.5809999,795.38464,793.36993,784.10254,800.6227,1100.8059
1694130348.5809999,792.1612,804.65204,782.49084,797.3993,877.5824
1694130348.582,788.5348,800.2198,793.7729,786.52014,574.17584
1694130348.5830002,792.1612,792.1612,793.7729,787.326,721.2454
1694130348.5830002,789.7436,791.75824,786.52014,792.1612,1058.4982
1694130348.584,799.41394,796.1905,786.9231,791.3553,849.3773
1694130348.591,801.4286,797.3993,794.57874,796.99634,581.02563
1694130348.592,786.52014,795.78754,794.17584,792.96704,606.8132
1694130348.593,797.8022,800.6227,786.52014,781.685,662.01465
1694130348.593,803.44324,798.20514,777.25275,783.2967,677.326
1694130348.5939999,793.7729,797.3993,778.86444,788.1319,658.3883
1694130348.595,806.26373,797.8022,785.31134,792.96704,747.4359
1694130348.596,803.8461,797.3993,787.326,786.52014,753.8828
1694130348.598,798.20514,801.4286,791.3553,793.36993,674.90845
1694130348.598,805.05493,794.17584,786.52014,802.23444,716.0073
1694130348.599,806.6667,788.5348,790.14655,801.02563,798.60803
1694130348.6,803.8461,787.72894,796.1905,787.326,747.8388
1694130348.6009998,795.78754,787.72894,792.5641,791.75824,660.80585
1694130348.627,803.44324,795.38464,794.9817,815.9341,801.8315
1694130348.629,794.57874,789.7436,786.9231,813.91943,1021.02563
1694130348.635,790.9524,784.10254,790.14655,809.89014,873.1502
1694130348.636,798.20514,785.31134,799.011,809.4872,682.5641
1694130348.6369998,790.9524,788.5348,791.75824,799.81683,709.15753
1694130348.638,783.2967,793.7729,786.9231,799.011,1094.762
1694130348.638,790.9524,798.20514,791.75824,811.9048,1446.1172
1694130348.6390002,796.99634,797.3993,792.96704,810.293,1205.9707
1694130348.64,797.8022,801.8315,784.90845,796.5934,767.1795
1694130348.64,804.2491,798.20514,793.7729,795.38464,598.3516
1694130348.641,805.05493,787.326,799.81683,799.011,623.3333
1694130348.642,791.3553,791.75824,791.75824,794.17584,690.6227
1694130348.676,777.25275,787.72894,788.5348,785.7143,700.293
1694130348.677,788.5348,789.34064,802.6374,790.9524,686.1905
1694130348.6780002,801.02563,790.54944,793.36993,789.34064,663.6264
1694130348.6790001,796.99634,787.326,784.5055,792.96704,635.0183
1694130348.68,794.57874,785.31134,788.93774,799.41394,756.7033
1694130348.681,794.57874,786.52014,784.10254,800.6227,935.2015
1694130348.682,792.96704,788.1319,778.0586,797.8022,806.26373
1694130348.683,794.17584,788.5348,780.87915,789.7436,589.0842
1694130348.683,799.011,793.7729,784.5055,797.3993,743.8095
1694130348.684,805.05493,798.60803,781.685,808.68134,959.3773
1694130348.685,803.0403,801.8315,784.90845,800.6227,706.337
1694130348.685,800.2198,796.5934,792.96704,799.41394,608.022
1694130348.7129998,803.0403,799.41394,791.75824,803.44324,830.0366
1694130348.714,807.47253,808.2784,800.6227,799.41394,780.4762
1694130348.7150002,797.8022,801.8315,805.4579,799.41394,700.696
1694130348.716,811.0989,808.2784,813.1135,806.6667,794.17584
1694130348.72,824.7985,816.7399,814.3223,808.2784,761.9414
1694130348.721,801.8315,788.93774,793.7729,800.2198,667.25275
1694130348.721,789.7436,782.49084,780.87915,797.8022,728.9011
1694130348.722,789.7436,794.57874,778.86444,806.6667,836.4835
1694130348.722,794.9817,787.326,780.4762,815.5311,1079.8535
1694130348.723,809.89014,793.7729,785.7143,801.8315,981.13556
1694130348.723,805.4579,804.2491,786.9231,783.69965,630.58606
1694130348.724,795.78754,798.20514,785.7143,790.9524,605.2015
1694130348.753,799.41394,797.3993,788.93774,803.0403,715.6044
1694130348.754,807.0696,799.81683,791.75824,814.7253,731.7216
1694130348.754,808.2784,796.1905,799.011,807.8755,645.4945
1694130348.755,797.3993,784.10254,799.41394,794.57874,630.58606
1694130348.755,794.17584,781.685,792.5641,784.90845,683.7729
1694130348.756,800.6227,788.5348,782.8938,781.28204,773.6264
1694130348.756,798.20514,782.8938,781.28204,788.1319,855.0183
1694130348.757,803.8461,784.10254,788.93774,791.3553,883.22345
1694130348.7580001,800.2198,790.54944,796.1905,791.75824,815.5311
1694130348.7580001,796.5934,786.52014,799.81683,793.7729,722.0513
1694130348.759,794.17584,787.326,796.99634,802.6374,667.25275
1694130348.76,800.2198,789.34064,789.34064,809.89014,910.6227
1694130348.782,821.978,789.34064,788.1319,822.7839,1282.5275
1694130348.783,819.9634,798.60803,786.52014,813.91943,914.65204
1694130348.783,812.3077,801.8315,795.78754,801.4286,576.5934
1694130348.784,812.71063,805.8608,823.9927,816.337,682.96704
1694130348.784,792.96704,790.14655,817.9487,807.47253,703.5165
1694130348.7849998,767.98535,775.64105,794.57874,786.52014,680.9524
1694130348.788,782.0879,788.1319,794.17584,790.14655,719.2308
1694130348.789,797.8022,790.14655,792.5641,802.23444,942.0513
1694130348.789,800.2198,797.3993,788.1319,807.47253,854.21246
1694130348.7900002,816.7399,805.4579,790.14655,814.3223,635.42126
1694130348.7910001,799.81683,796.5934,787.326,801.02563,727.6923
1694130348.7910001,789.7436,789.7436,790.14655,787.326,822.7839
1694130348.8830001,790.14655,789.34064,794.17584,795.78754,719.6337
1694130348.884,796.5934,788.1319,797.8022,801.8315,689.81683
1694130348.885,797.8022,787.326,800.2198,802.6374,745.42126
1694130348.8860002,791.3553,783.69965,798.60803,796.99634,761.9414
1694130348.8860002,780.4762,781.685,799.81683,795.78754,692.23444
1694130348.887,774.43225,780.87915,799.81683,800.6227,672.0879
1694130348.887,795.78754,783.2967,796.99634,813.91943,853.8095
1694130348.888,805.8608,790.9524,786.52014,820.3663,1045.6044
1694130348.888,801.8315,802.23444,788.1319,802.23444,809.89014
1694130348.889,799.011,799.011,805.4579,793.7729,647.1062
1694130348.8899999,799.81683,788.5348,808.2784,792.96704,679.7436
1694130348.8899999,799.81683,785.7143,802.6374,796.99634,686.5934
1694130348.916,797.8022,789.7436,801.4286,807.47253,765.16486
1694130348.9169998,792.5641,796.1905,804.2491,806.26373,833.663
1694130348.9180002,803.8461,794.9817,793.7729,808.2784,987.5824
1694130348.9190001,805.4579,799.011,780.87915,811.50183,904.57874
1694130348.92,799.41394,798.60803,786.52014,807.0696,622.9304
1694130348.921,802.6374,795.78754,799.81683,813.5165,710.3663
1694130348.922,804.2491,798.60803,804.2491,818.3516,1030.6959
1694130348.923,813.91943,798.20514,789.34064,816.337,835.2747
1694130348.927,809.4872,794.17584,774.43225,811.50183,580.2198
1694130348.928,813.1135,806.6667,803.0403,821.5751,650.32965
1694130348.929,795.38464,796.5934,815.12823,807.8755,716.0073
1694130348.929,780.4762,780.07324,793.7729,788.1319,721.2454
1694130348.963,792.5641,788.1319,792.1612,799.41394,681.75824
1694130348.964,798.20514,788.1319,788.93774,802.6374,671.685
1694130348.965,801.4286,794.17584,792.96704,803.8461,690.2198
1694130348.965,797.8022,790.54944,795.38464,797.8022,720.4396
1694130348.966,793.36993,786.1172,778.0586,792.1612,737.76556
1694130348.967,791.3553,790.54944,783.69965,799.011,894.10254
1694130348.968,799.011,792.5641,796.99634,811.50183,1172.9304
1694130348.9689999,793.36993,801.4286,799.011,807.0696,870.7326
1694130348.9699998,800.6227,807.47253,798.60803,813.91943,650.7326
1694130348.9699998,809.0842,798.60803,788.1319,829.2308,834.0659
1694130348.971,803.8461,795.78754,792.5641,823.5897,813.91943
1694130348.972,804.65204,794.17584,790.9524,807.47253,660.80585
1694130348.973,799.41394,789.7436,774.0293,798.20514,716.0073
1694130348.9740002,796.99634,791.3553,776.8498,797.3993,917.8755
1694130348.9740002,798.20514,793.7729,795.38464,801.4286,849.7802
1694130348.9750001,803.44324,805.8608,805.4579,807.8755,674.90845
1694130348.9750001,807.0696,803.44324,804.65204,797.3993,662.8205
1694130348.976,803.0403,797.8022,794.57874,792.96704,783.2967
1694130348.976,799.81683,806.6667,796.5934,805.8608,807.47253
1694130348.977,798.60803,805.05493,794.9817,803.8461,720.84247
1694130348.978,801.02563,800.2198,782.0879,803.0403,762.74725
1694130348.978,796.5934,803.44324,784.90845,804.2491,853.4066
1694130348.982,796.5934,802.23444,782.49084,799.81683,708.7546
1694130348.983,791.3553,800.6227,772.01465,795.38464,608.8278
1694130349.062,795.38464,802.6374,780.87915,803.8461,778.86444
1694130349.063,801.8315,801.8315,791.3553,817.1429,1095.1648
1694130349.063,799.011,797.8022,799.41394,804.2491,865.89746
1694130349.064,799.41394,800.2198,800.2198,786.9231,619.707
1694130349.0649998,793.7729,805.05493,790.14655,788.1319,692.23444
1694130349.0649998,791.3553,808.2784,788.1319,796.99634,794.17584
1694130349.066,795.38464,805.4579,787.326,804.65204,863.8828
1694130349.0670002,801.4286,804.2491,787.326,804.2491,748.24176
1694130349.0670002,809.0842,809.4872,791.3553,809.4872,812.3077
1694130349.068,809.4872,810.696,796.1905,807.47253,998.0586
1694130349.069,801.4286,805.05493,781.28204,791.75824,808.68134
1694130349.069,800.2198,803.0403,780.87915,801.4286,711.978
1694130349.071,811.9048,801.02563,802.6374,813.1135,945.6777
1694130349.072,808.68134,803.44324,801.8315,807.47253,894.90845
1694130349.073,793.7729,803.0403,791.3553,798.20514,620.10986
1694130349.073,792.1612,800.2198,790.9524,805.05493,693.0403
1694130349.074,800.6227,798.60803,793.7729,807.8755,781.685
1694130349.075,796.1905,792.96704,791.3553,801.02563,760.32965
1694130349.076,794.57874,795.38464,786.9231,803.44324,744.21246
1694130349.076,796.1905,794.57874,784.5055,798.60803,725.6777
1694130349.077,803.0403,794.9817,787.72894,808.2784,798.60803
1694130349.078,801.02563,798.20514,801.02563,811.9048,776.8498
1694130349.078,786.9231,799.011,797.3993,799.41394,686.99634
1694130349.079,790.14655,794.9817,788.5348,795.78754,727.6923
1694130349.125,805.4579,790.54944,788.93774,809.0842,1098.7913
1694130349.127,806.26373,799.011,794.57874,811.9048,1002.49084
1694130349.128,797.3993,806.26373,797.3993,809.4872,737.76556
1694130349.128,791.75824,803.8461,789.34064,807.8755,732.52747
1694130349.129,793.36993,802.6374,781.685,800.6227,670.87915
1694130349.1299999,798.60803,803.8461,772.8205,802.23444,758.71796
1694130349.131,798.20514,800.6227,779.2674,811.0989,774.83514
1694130349.132,793.36993,789.7436,786.9231,796.5934,841.31866
1694130349.133,790.14655,786.52014,786.9231,796.5934,981.9414
1694130349.134,801.02563,790.14655,790.54944,794.17584,696.6667
1694130349.135,797.3993,786.52014,792.96704,788.93774,580.2198
1694130349.136,790.14655,779.2674,795.38464,796.5934,730.10986
1694130349.187,797.8022,783.69965,794.17584,805.8608,844.1392
1694130349.189,802.6374,788.5348,794.57874,804.65204,795.38464
1694130349.189,804.65204,787.72894,797.3993,800.2198,707.5458
1694130349.19,795.38464,782.8938,788.5348,812.3077,926.7399
1694130349.191,792.1612,782.49084,785.31134,817.5458,962.1978
1694130349.191,798.20514,787.326,786.9231,813.1135,796.1905
1694130349.192,812.71063,808.68134,809.0842,830.84247,826.8132
1694130349.1929998,807.0696,799.011,808.68134,825.2015,969.85345
1694130349.1929998,795.78754,792.96704,786.9231,803.0403,797.8022
1694130349.1939998,800.2198,804.65204,791.75824,794.17584,593.1135
1694130349.1950002,795.78754,803.44324,809.0842,794.9817,697.8755
1694130349.1950002,793.7729,800.6227,799.41394,803.0403,787.326
1694130349.2649999,796.1905,797.3993,794.57874,793.7729,706.7399
1694130349.267,793.36993,792.5641,800.2198,781.28204,646.7033
1694130349.272,788.93774,795.78754,791.75824,783.69965,689.81683
1694130349.273,786.52014,801.4286,786.52014,790.54944,755.89746
1694130349.275,785.7143,799.011,799.41394,792.96704,727.28937
1694130349.276,773.6264,795.38464,800.2198,775.2381,657.1795
1694130349.277,755.89746,790.54944,788.93774,765.9707,816.7399
1694130349.278,765.56775,782.49084,776.4469,778.46155,1138.2784
1694130349.279,755.09155,788.1319,785.7143,762.3443,872.74725
1694130349.28,741.39197,792.5641,800.6227,738.5714,662.01465
1694130349.281,743.00366,785.31134,802.23444,740.18317,748.6447
1694130349.2819998,725.2747,779.2674,794.17584,730.10986,642.674
1694130349.284,721.2454,788.1319,803.44324,729.304,609.6337
1694130349.2849998,704.3223,780.87915,799.81683,722.4542,716.0073
1694130349.286,692.6374,758.315,763.95605,703.1135,916.26373
1694130349.2870002,717.2161,782.8938,779.2674,723.2601,867.1062
1694130349.2870002,725.6777,796.99634,800.2198,732.9304,653.95605
1694130349.288,705.12823,775.2381,785.31134,702.71063,696.26373
1694130349.289,698.68134,771.6117,799.41394,693.0403,855.82416
1694130349.29,703.1135,783.69965,809.4872,710.3663,829.6337
1694130349.29,698.68134,784.5055,794.17584,708.3516,712.7839
1694130349.2910001,711.5751,779.67035,778.46155,714.7985,677.326
1694130349.293,743.8095,799.81683,782.8938,745.0183,728.9011
1694130349.293,754.2857,807.8755,782.49084,748.24176,701.9048
1694130349.332,743.8095,789.34064,776.4469,738.1685,672.0879
1694130349.333,743.8095,787.326,786.1172,745.0183,765.56775
1694130349.334,752.27106,793.7729,790.9524,751.4652,926.7399
1694130349.334,754.68866,794.9817,796.99634,747.03296,776.04395
1694130349.339,759.92676,796.5934,792.1612,750.2564,649.92676
1694130349.339,763.1502,795.38464,781.28204,765.16486,851.39197
1694130349.34,769.59705,796.5934,788.1319,781.685,1239.011
1694130349.3409998,770.0,805.4579,796.5934,783.2967,1026.6666
1694130349.3420002,771.2088,800.6227,787.326,767.98535,648.315
1694130349.3430002,769.59705,790.9524,773.6264,776.8498,666.8498
1694130349.3430002,780.07324,794.9817,787.326,791.75824,741.79486
1694130349.344,792.5641,800.6227,801.4286,794.57874,809.89014
1694130349.368,809.0842,807.0696,802.6374,798.20514,759.5238
1694130349.369,802.6374,792.5641,787.326,792.5641,861.8681
1694130349.369,792.96704,792.96704,785.31134,792.1612,906.1905
1694130349.37,794.17584,803.44324,793.7729,801.8315,705.9341
1694130349.37,792.96704,796.5934,790.14655,803.44324,678.93774
1694130349.371,798.60803,794.17584,787.72894,810.293,753.8828
1694130349.372,801.8315,794.57874,786.1172,814.7253,757.1062
1694130349.372,807.47253,805.8608,770.40295,815.5311,683.7729
1694130349.373,824.3956,812.3077,777.6557,819.9634,717.2161
1694130349.374,819.5604,798.60803,797.8022,814.7253,1037.9487
1694130349.375,811.9048,794.9817,796.1905,810.696,907.8022
1694130349.376,809.0842,801.4286,796.99634,810.293,602.381
1694130349.4129999,812.71063,810.293,795.78754,815.12823,673.2967
1694130349.414,814.3223,814.3223,789.7436,823.1868,825.2015
1694130349.415,812.3077,804.65204,790.14655,813.1135,796.5934
1694130349.415,818.7546,794.57874,791.75824,805.8608,703.5165
1694130349.416,821.978,801.8315,801.4286,815.12823,740.58606
1694130349.416,826.4103,805.4579,794.57874,817.5458,786.52014
1694130349.42,830.0366,805.05493,784.10254,819.9634,821.978
1694130349.421,840.5128,810.293,794.17584,826.8132,786.1172
1694130349.421,846.55676,802.23444,797.3993,834.4689,841.7216
1694130349.4220002,855.42126,807.8755,792.1612,852.6007,1060.1099
1694130349.4220002,828.022,810.696,790.9524,828.022,774.83514
1694130349.423,813.1135,799.011,799.81683,818.7546,642.674
1694130349.445,819.15753,797.3993,792.5641,826.8132,923.1135
1694130349.446,813.91943,805.8608,784.90845,825.6044,847.76556
1694130349.446,830.0366,812.3077,805.05493,828.4249,611.6484
1694130349.447,823.1868,809.4872,809.4872,819.15753,612.4542
1694130349.447,810.696,801.02563,802.6374,824.3956,887.25275
1694130349.448,817.9487,798.60803,799.81683,814.3223,907.3993
1694130349.448,829.2308,805.8608,793.7729,815.5311,757.9121
1694130349.449,833.663,809.89014,776.8498,832.0513,683.7729
1694130349.449,830.4396,803.44324,802.23444,832.8571,892.0879
1694130349.4499998,829.2308,806.26373,820.3663,834.4689,881.2088
1694130349.4499998,820.7692,801.8315,801.4286,825.2015,699.89014
1694130349.451,813.91943,795.38464,795.78754,823.1868,718.8278
1694130349.4910002,812.3077,806.26373,793.36993,820.7692,686.99634
1694130349.492,810.696,805.05493,788.5348,809.89014,627.3626
1694130349.493,811.9048,800.6227,795.38464,814.7253,622.9304
1694130349.4940002,815.12823,797.3993,798.20514,820.3663,702.71063
1694130349.4940002,819.5604,802.23444,801.8315,818.3516,763.1502
1694130349.4950001,825.2015,803.0403,789.34064,813.5165,775.2381
1694130349.496,826.4103,798.20514,780.07324,808.2784,681.3553
1694130349.496,816.7399,797.8022,795.78754,801.8315,806.6667
1694130349.501,793.36993,789.34064,793.36993,810.293,1131.8315
1694130349.501,796.1905,792.5641,790.9524,817.1429,892.8938
1694130349.502,809.4872,801.8315,799.41394,811.0989,606.4103
1694130349.503,802.23444,793.36993,802.6374,805.8608,660.0
1694130349.529,805.05493,795.38464,803.8461,803.44324,709.9634
1694130349.5310001,813.91943,807.8755,799.81683,809.0842,721.2454
1694130349.532,813.1135,805.8608,798.20514,816.337,767.1795
1694130349.532,826.4103,804.65204,804.2491,827.619,928.7546
1694130349.5340002,811.50183,792.1612,788.1319,804.2491,787.326
1694130349.536,784.5055,788.5348,774.43225,790.54944,645.89746
1694130349.537,792.5641,794.9817,794.9817,809.89014,809.4872
1694130349.539,806.26373,788.1319,798.20514,828.4249,1035.5311
1694130349.539,809.4872,788.5348,793.36993,822.7839,918.68134
1694130349.541,796.1905,794.9817,800.2198,803.0403,701.9048
1694130349.542,790.9524,804.2491,799.011,809.4872,722.8571
1694130349.543,795.38464,794.17584,796.99634,803.44324,826.0073
1694130349.615,793.7729,788.1319,799.81683,798.60803,808.2784
1694130349.616,797.8022,798.20514,791.75824,811.50183,728.9011
1694130349.6169999,806.6667,796.5934,787.326,803.8461,685.78754
1694130349.6179998,802.23444,795.38464,796.1905,797.3993,722.8571
1694130349.6179998,804.2491,800.2198,791.3553,806.26373,759.5238
1694130349.619,811.50183,796.1905,788.1319,820.7692,778.86444
1694130349.619,810.696,794.57874,798.60803,823.5897,899.34064
1694130349.62,807.8755,795.78754,794.9817,811.9048,873.95605
1694130349.621,808.68134,808.68134,800.2198,817.1429,722.8571
1694130349.621,811.50183,811.50183,807.0696,821.5751,711.1722
1694130349.626,806.26373,797.8022,786.1172,815.9341,890.87915
1694130349.627,801.02563,790.9524,784.10254,798.20514,944.4689
1694130349.6790001,803.0403,792.5641,796.1905,788.93774,709.15753
1694130349.68,806.6667,799.011,794.57874,805.8608,643.47986
1694130349.68,810.293,803.44324,800.6227,818.7546,911.4286
1694130349.681,820.7692,811.0989,807.0696,828.022,977.1062
1694130349.681,817.1429,807.8755,790.9524,821.1722,711.978
1694130349.682,821.5751,810.696,784.5055,802.23444,730.5128
1694130349.683,836.4835,827.2161,807.47253,823.1868,1027.4725
1694130349.683,816.337,808.68134,795.78754,826.8132,872.3443
1694130349.684,814.3223,793.7729,783.69965,807.0696,663.22345
1694130349.684,803.0403,794.57874,787.326,803.0403,722.0513
1694130349.685,790.9524,791.3553,781.685,799.011,703.91943
1694130349.686,800.2198,797.3993,783.69965,801.8315,630.58606
1694130349.7129998,797.3993,801.4286,786.52014,808.68134,632.6007
1694130349.714,812.71063,804.2491,775.64105,815.9341,736.55676
1694130349.7150002,823.5897,810.293,785.7143,819.5604,809.89014
1694130349.716,818.3516,804.65204,811.0989,819.5604,710.7692
1694130349.717,821.1722,800.2198,796.99634,819.15753,575.78754
1694130349.7180002,836.8865,799.41394,786.52014,826.8132,775.64105
1694130349.719,815.12823,794.17584,809.0842,825.2015,1267.619
1694130349.72,783.69965,799.41394,814.3223,799.011,966.63007
1694130349.721,792.5641,803.0403,811.9048,800.2198,596.7399
1694130349.721,811.9048,802.23444,800.2198,811.9048,719.2308
1694130349.722,807.8755,804.65204,794.57874,807.8755,716.0073
1694130349.722,795.78754,800.2198,802.23444,799.011,695.8608
1694130349.727,801.4286,798.60803,796.5934,796.5934,739.7802
1694130349.727,811.9048,803.44324,785.31134,806.26373,854.61536
1694130349.728,817.1429,807.0696,790.54944,815.12823,801.8315
1694130349.728,831.2454,809.89014,810.293,814.3223,609.6337
1694130349.7289999,821.5751,806.6667,808.2784,816.7399,679.7436
1694130349.7299998,795.78754,802.23444,788.93774,814.7253,876.3736
1694130349.7299998,794.9817,799.41394,786.9231,806.26373,826.4103
1694130349.731,803.0403,797.3993,796.99634,794.9817,695.8608
1694130349.731,796.1905,792.5641,798.20514,790.14655,674.5055
1694130349.732,790.9524,791.75824,792.96704,806.26373,1016.1905
1694130349.733,798.60803,796.99634,794.17584,810.696,971.8681
1694130349.733,803.8461,796.99634,783.2967,806.6667,657.1795
1694130349.779,798.20514,797.3993,776.8498,801.8315,630.989
1694130349.78,809.89014,809.0842,801.02563,807.47253,668.46155
1694130349.781,809.4872,814.3223,801.02563,813.5165,692.6374
1694130349.781,791.3553,802.6374,782.49084,794.57874,680.9524
1694130349.782,796.1905,795.38464,797.8022,788.5348,698.2784
1694130349.783,797.8022,796.5934,796.99634,784.5055,676.1172
1694130349.783,790.14655,799.81683,782.8938,788.93774,711.5751
1694130349.784,794.57874,801.4286,787.72894,807.0696,776.4469
1694130349.784,794.57874,801.8315,793.36993,817.1429,947.6923
1694130349.7849998,779.67035,800.6227,790.14655,813.5165,1062.1245
1694130349.7859998,788.93774,803.44324,783.2967,809.0842,749.85345
1694130349.7859998,810.696,799.81683,780.87915,802.23444,583.8461
1694130349.869,823.1868,792.96704,785.31134,817.1429,903.7729
1694130349.871,819.5604,797.3993,788.1319,829.2308,1095.1648
1694130349.8769999,797.8022,793.7729,790.14655,805.05493,754.2857
1694130349.878,805.4579,792.5641,788.5348,801.4286,606.0073
1694130349.879,810.696,783.2967,786.52014,805.05493,639.0476
1694130349.88,800.6227,779.2674,787.326,805.05493,668.0586
1694130349.881,796.5934,799.41394,792.1612,807.8755,743.8095
1694130349.882,797.8022,801.4286,796.5934,801.4286,777.25275
1694130349.8830001,805.05493,792.96704,791.3553,802.6374,960.18317
1694130349.887,796.5934,795.38464,788.93774,805.4579,842.52747
1694130349.888,796.99634,792.5641,788.93774,803.0403,635.42126
1694130349.889,822.381,793.7729,787.72894,810.696,717.2161
1694130349.8990002,818.3516,805.05493,796.99634,815.5311,851.39197
1694130349.9,804.65204,803.0403,805.8608,809.0842,730.9158
1694130349.901,807.8755,797.3993,802.6374,811.50183,592.3077
1694130349.9020002,813.1135,809.0842,804.2491,819.15753,627.3626
1694130349.903,798.20514,807.47253,793.36993,821.978,719.2308
1694130349.903,806.26373,800.6227,788.1319,822.7839,781.685
1694130349.904,821.5751,805.05493,803.44324,821.978,736.55676
1694130349.905,819.5604,808.2784,790.9524,824.3956,715.2015
1694130349.905,821.978,805.8608,784.10254,820.7692,742.6007
1694130349.906,801.02563,803.8461,806.26373,811.50183,740.18317
1694130349.907,794.57874,802.23444,808.68134,808.68134,718.8278
1694130349.908,788.5348,785.31134,796.99634,805.4579,923.91943
1694130349.936,790.54944,785.7143,788.5348,815.5311,1124.5787
1694130349.937,802.23444,797.8022,782.8938,814.3223,799.81683
1694130349.937,788.93774,796.1905,792.5641,793.7729,662.01465
1694130349.938,794.57874,797.8022,802.23444,806.6667,887.6557
1694130349.943,800.2198,799.81683,798.60803,817.1429,834.4689
1694130349.943,795.78754,794.17584,801.4286,792.96704,658.3883
1694130349.944,796.99634,792.96704,800.6227,793.36993,740.989
1694130349.945,799.011,792.1612,797.3993,813.91943,1021.8315
1694130349.945,801.02563,799.81683,795.38464,818.3516,923.5165
1694130349.9459999,801.4286,798.60803,789.34064,813.1135,688.20514
1694130349.9459999,792.5641,792.96704,781.28204,806.26373,669.2674
1694130349.947,793.7729,799.81683,794.9817,806.6667,639.45056
1694130349.977,796.1905,803.8461,801.8315,806.26373,648.71796
1694130349.978,792.5641,799.41394,793.7729,807.47253,693.0403
1694130349.979,796.99634,794.9817,795.38464,812.71063,731.7216
1694130349.979,799.41394,793.36993,796.1905,809.89014,698.2784
1694130349.98,796.1905,790.9524,788.93774,807.0696,646.7033
1694130349.98,807.8755,795.78754,792.96704,813.1135,671.685
1694130349.981,795.38464,794.57874,801.4286,818.3516,913.44324
1694130349.981,783.2967,786.1172,799.011,819.9634,1207.9854
1694130349.982,782.8938,795.78754,799.011,801.02563,871.13556
1694130349.982,772.4176,805.05493,801.4286,792.96704,617.6923
1694130349.983,783.2967,803.44324,804.2491,807.8755,732.9304
1694130349.983,800.6227,800.6227,805.05493,811.0989,760.32965
1694130350.017,805.05493,801.8315,795.78754,813.5165,812.3077
1694130350.018,794.17584,802.6374,793.7729,807.47253,770.40295
1694130350.018,798.60803,800.2198,798.60803,810.293,844.5421
1694130350.019,815.5311,805.4579,790.9524,818.3516,849.7802
1694130350.02,816.337,805.8608,800.2198,814.7253,692.23444
1694130350.02,806.6667,800.2198,805.8608,815.12823,780.87915
1694130350.024,806.6667,800.6227,799.41394,819.15753,1089.5238
1694130350.0249999,809.0842,807.0696,810.696,816.7399,906.1905
1694130350.0249999,805.4579,811.50183,804.2491,805.8608,593.91943
1694130350.0259998,809.89014,807.8755,798.20514,803.8461,695.8608
1694130350.0259998,806.6667,805.8608,807.47253,816.337,886.4469
1694130350.027,791.75824,799.41394,813.1135,803.0403,726.4835
1694130350.071,792.96704,799.011,815.5311,796.5934,561.685
1694130350.072,806.6667,803.0403,807.8755,800.6227,624.5421
1694130350.073,811.0989,798.20514,801.02563,792.5641,697.8755
1694130350.073,806.26373,795.38464,796.5934,794.17584,705.5311
1694130350.074,813.1135,794.17584,799.41394,805.8608,644.68866
1694130350.074,806.26373,802.23444,800.6227,819.15753,762.3443
1694130350.075,809.4872,801.8315,794.9817,828.022,899.34064
1694130350.076,801.4286,793.36993,789.34064,812.71063,756.30035
1694130350.077,779.2674,787.72894,788.1319,791.75824,678.93774
1694130350.078,786.1172,790.9524,793.36993,791.75824,850.58606
1694130350.079,796.99634,799.011,798.60803,796.1905,924.7253
1694130350.079,799.41394,799.011,793.7729,796.99634,710.3663
1694130350.1299999,811.0989,798.60803,785.31134,803.8461,725.2747
1694130350.131,814.7253,795.78754,787.72894,807.8755,923.5165
1694130350.131,807.8755,800.2198,799.41394,807.8755,877.98535
1694130350.132,810.696,803.44324,795.38464,803.44324,621.31866
1694130350.133,802.6374,799.81683,788.93774,803.8461,606.8132
1694130350.133,792.96704,797.8022,796.99634,811.50183,780.4762
1694130350.134,801.4286,802.6374,799.41394,816.337,832.4542
1694130350.135,806.26373,803.8461,806.6667,812.71063,711.978
1694130350.1390002,801.02563,792.96704,805.8608,801.8315,658.3883
1694130350.14,819.5604,802.23444,807.8755,814.7253,899.34064
1694130350.141,805.05493,812.3077,803.0403,800.6227,824.7985
1694130350.141,784.5055,798.60803,780.87915,783.2967,702.71063
1694130350.169,802.23444,798.60803,789.34064,801.02563,744.61536
1694130350.1699998,796.1905,797.8022,809.4872,800.6227,767.98535
1694130350.171,791.3553,799.011,815.12823,792.96704,672.8938
1694130350.172,801.4286,796.99634,812.71063,801.02563,648.315
1694130350.172,794.17584,797.3993,805.4579,808.2784,716.0073
1694130350.174,789.7436,800.2198,805.05493,813.5165,793.36993
1694130350.175,792.96704,801.4286,806.6667,806.26373,823.5897
1694130350.175,790.9524,802.6374,802.23444,792.5641,679.34064
1694130350.176,788.93774,797.3993,792.96704,795.78754,840.9158
1694130350.177,792.96704,793.36993,783.69965,811.0989,1063.3334
1694130350.177,800.6227,799.011,790.54944,803.8461,781.685
1694130350.178,800.6227,801.02563,807.0696,790.9524,711.1722
1694130350.202,798.20514,797.3993,812.3077,798.60803,926.7399
1694130350.203,791.75824,799.011,805.05493,807.47253,837.6923
1694130350.204,782.49084,798.20514,794.9817,802.23444,751.06226
1694130350.206,786.9231,794.57874,793.36993,794.9817,751.06226
1694130350.208,787.326,792.1612,790.9524,799.41394,863.8828
1694130350.2099998,786.1172,797.3993,788.93774,799.41394,827.2161
1694130350.211,785.31134,804.2491,792.1612,799.81683,693.8461
1694130350.2129998,791.3553,799.41394,782.0879,801.8315,759.12085
1694130350.2140002,803.44324,799.81683,774.0293,799.81683,823.5897
1694130350.2150002,799.81683,811.9048,800.2198,803.8461,739.7802
1694130350.22,796.5934,811.9048,811.9048,803.8461,612.4542
1694130350.22,804.65204,805.8608,803.8461,794.9817,664.43225
1694130350.2499998,809.0842,805.8608,803.0403,812.3077,1023.8461
1694130350.2510002,816.7399,808.68134,794.17584,822.7839,901.3553
1694130350.252,805.05493,804.65204,778.46155,798.60803,632.1978
1694130350.252,784.90845,798.20514,780.07324,790.14655,634.61536
1694130350.253,798.60803,793.7729,793.36993,802.23444,652.3443
1694130350.253,807.0696,801.02563,796.99634,811.50183,784.5055
1694130350.2540002,792.5641,802.6374,790.9524,807.47253,803.0403
1694130350.2540002,797.8022,804.2491,796.99634,804.65204,863.8828
1694130350.255,796.99634,807.8755,801.8315,819.5604,1075.8242
1694130350.255,792.96704,798.60803,790.54944,808.68134,811.50183
1694130350.256,784.90845,790.9524,779.67035,799.011,656.77655
1694130350.256,793.7729,795.38464,785.31134,813.5165,777.25275
1694130350.2870002,812.3077,807.0696,788.5348,810.696,786.9231
1694130350.288,799.011,812.3077,787.326,793.36993,681.75824
1694130350.288,790.14655,802.6374,800.6227,795.38464,655.9707
1694130350.289,793.36993,790.9524,803.8461,810.696,871.9414
1694130350.289,789.7436,795.78754,795.38464,809.0842,859.45056
1694130350.29,800.2198,805.4579,799.81683,801.8315,783.69965
1694130350.2910001,802.23444,803.44324,795.78754,805.05493,765.56775
1694130350.2910001,808.2784,801.02563,799.011,821.5751,996.8498
1694130350.292,812.71063,804.65204,797.8022,823.1868,1033.5165
1694130350.292,800.6227,800.2198,788.93774,801.8315,745.0183
1694130350.293,797.8022,792.1612,791.3553,799.011,729.707
1694130350.293,805.05493,793.36993,782.0879,804.65204,754.2857
1694130350.3270001,809.4872,796.5934,782.49084,806.26373,644.68866
1694130350.328,812.71063,799.41394,795.78754,805.4579,624.5421
1694130350.328,811.0989,806.6667,797.8022,807.8755,705.9341
1694130350.329,807.47253,801.8315,795.78754,808.2784,713.9927
1694130350.329,811.50183,797.3993,798.20514,801.4286,655.56775
1694130350.33,812.71063,799.011,790.14655,806.26373,759.5238
1694130350.33,803.8461,794.9817,783.2967,802.23444,846.9597
1694130350.331,808.2784,799.011,788.93774,805.8608,779.67035
1694130350.331,813.5165,796.1905,789.7436,808.68134,704.3223
1694130350.332,802.6374,788.5348,791.75824,797.3993,656.3736
1694130350.332,789.34064,796.1905,791.3553,793.7729,859.85345
1694130350.333,788.1319,795.78754,786.1172,806.26373,1129.8169
1694130350.38,790.9524,796.1905,776.04395,796.1905,886.4469
1694130350.381,796.99634,802.23444,781.28204,792.1612,719.6337
1694130350.381,800.6227,799.81683,782.8938,813.5165,917.0696
1694130350.3820002,806.26373,809.89014,791.3553,823.9927,818.3516
1694130350.3820002,802.6374,806.6667,813.91943,818.3516,603.9927
1694130350.3830001,795.38464,791.75824,809.89014,803.0403,761.9414
1694130350.384,796.99634,789.34064,793.7729,800.6227,1068.9744
1694130350.384,796.5934,797.3993,792.5641,802.23444,867.1062
1694130350.385,796.1905,802.23444,792.5641,792.5641,603.5897
1694130350.385,793.36993,796.5934,792.96704,797.3993,677.72894
1694130350.385,792.96704,797.3993,787.326,805.8608,775.64105
1694130350.386,810.696,805.4579,786.9231,808.68134,738.97437
1694130350.416,813.5165,802.23444,786.52014,799.41394,712.7839
1694130350.4169998,793.7729,796.5934,789.34064,796.5934,738.97437
1694130350.421,788.93774,800.2198,796.99634,800.6227,718.4249
1694130350.421,789.7436,796.5934,794.9817,795.38464,700.696
1694130350.4220002,799.41394,794.57874,802.23444,800.6227,670.87915
1694130350.4220002,809.0842,795.38464,799.81683,806.6667,799.011
1694130350.423,805.8608,794.17584,789.34064,807.47253,874.7619
1694130350.424,798.60803,790.54944,792.5641,805.8608,693.8461
1694130350.424,803.8461,791.75824,793.36993,800.6227,655.56775
1694130350.425,810.293,790.9524,792.96704,807.47253,880.40295
1694130350.425,805.4579,785.31134,790.9524,824.7985,1100.0
1694130350.4259999,809.4872,801.8315,784.90845,811.0989,782.49084
1694130350.514,805.05493,806.26373,790.54944,796.99634,625.7509
1694130350.516,801.02563,795.38464,799.81683,806.26373,868.315
1694130350.516,804.2491,805.05493,806.6667,807.8755,840.9158
1694130350.517,801.4286,807.0696,800.2198,803.0403,689.81683
1694130350.5180001,799.011,794.57874,797.8022,798.60803,690.6227
1694130350.5180001,796.99634,788.93774,801.02563,794.9817,952.9304
1694130350.519,801.8315,797.8022,799.011,797.8022,873.5531
1694130350.52,805.8608,802.23444,791.75824,799.41394,650.32965
1694130350.52,806.26373,800.2198,791.75824,805.8608,682.1612
1694130350.521,808.2784,791.75824,793.36993,807.8755,821.978
1694130350.5219998,804.65204,790.14655,788.1319,790.9524,704.7253
1694130350.5219998,802.6374,798.60803,785.31134,794.17584,600.3663
1694130350.551,799.011,798.60803,782.8938,807.0696,745.82416
1694130350.552,798.20514,799.011,787.72894,796.99634,799.41394
1694130350.553,802.6374,799.81683,789.7436,796.5934,749.85345
1694130350.554,798.20514,797.8022,791.3553,796.5934,680.9524
1694130350.558,797.8022,800.2198,791.75824,793.7729,708.3516
1694130350.558,803.0403,798.20514,787.72894,809.4872,871.13556
1694130350.559,804.2491,802.23444,791.3553,810.696,850.989
1694130350.56,807.8755,806.26373,791.75824,800.6227,675.7143
1694130350.56,811.0989,804.65204,790.14655,810.696,751.4652
1694130350.5609999,809.89014,800.2198,785.31134,830.0366,1093.1501
1694130350.5619998,801.02563,798.20514,790.14655,814.3223,880.40295
1694130350.5619998,811.50183,809.4872,799.011,807.0696,696.26373
1694130350.564,811.9048,809.4872,781.28204,807.0696,929.9634
1694130350.5649998,794.17584,803.8461,783.2967,798.60803,808.2784
1694130350.5649998,791.75824,801.8315,784.10254,796.5934,583.0403
1694130350.5660002,803.8461,805.05493,791.3553,808.2784,677.326
1694130350.5660002,807.8755,805.8608,813.91943,821.5751,796.1905
1694130350.5670002,782.8938,792.96704,806.26373,801.8315,786.9231
1694130350.568,780.07324,790.54944,796.5934,783.2967,701.9048
1694130350.568,793.7729,795.78754,795.78754,791.75824,624.5421
1694130350.569,794.17584,796.1905,794.9817,805.8608,969.0476
1694130350.569,791.3553,798.60803,791.3553,807.47253,1035.9341
1694130350.57,789.7436,796.5934,788.93774,802.6374,685.38464
1694130350.571,785.31134,792.96704,792.5641,800.6227,579.81683
1694130350.641,779.67035,788.5348,788.5348,792.96704,604.3956
1694130350.642,784.5055,786.9231,787.326,789.7436,645.89746
1694130350.642,788.93774,792.96704,792.96704,795.38464,693.8461
1694130350.6430001,788.1319,790.14655,788.1319,792.96704,709.15753
1694130350.644,796.99634,791.3553,787.72894,790.54944,719.6337
1694130350.644,794.57874,793.7729,791.75824,786.9231,806.26373
1694130350.648,785.7143,799.41394,796.1905,789.7436,797.8022
1694130350.648,791.75824,801.8315,800.6227,805.05493,968.6447
1694130350.649,800.2198,796.99634,808.2784,822.381,1215.238
1694130350.6499999,799.41394,799.81683,805.05493,819.9634,866.30035
1694130350.6499999,801.4286,800.2198,790.9524,815.9341,616.4835
1694130350.651,800.6227,796.5934,792.96704,815.5311,842.9304
1694130350.6729999,806.26373,805.4579,805.05493,810.696,851.79486
1694130350.6739998,812.71063,812.3077,807.47253,808.2784,686.1905
1694130350.675,800.2198,799.81683,800.2198,801.4286,666.04395
1694130350.675,795.38464,790.9524,796.99634,806.26373,864.68866
1694130350.676,806.6667,794.57874,793.7729,811.9048,822.381
1694130350.677,807.47253,797.3993,791.75824,811.0989,681.3553
1694130350.6780002,798.60803,798.60803,792.96704,807.0696,813.91943
1694130350.6790001,799.41394,795.78754,798.20514,802.6374,801.8315
1694130350.6790001,803.0403,787.72894,796.99634,801.4286,670.87915
1694130350.68,810.293,800.6227,795.78754,807.8755,660.80585
1694130350.681,804.65204,807.47253,798.20514,814.3223,741.79486
1694130350.681,793.36993,795.78754,793.36993,822.7839,1039.5604
1694130350.7180002,795.78754,802.23444,786.1172,817.9487,863.8828
1694130350.719,796.1905,805.8608,794.57874,803.8461,612.4542
1694130350.72,801.8315,805.05493,793.36993,809.4872,706.337
1694130350.721,807.8755,805.4579,791.75824,820.3663,761.13556
1694130350.722,813.91943,803.44324,794.17584,814.3223,709.15753
1694130350.722,823.1868,801.8315,793.36993,806.26373,694.65204
1694130350.723,804.2491,794.57874,796.5934,808.2784,856.2271
1694130350.724,789.34064,788.1319,793.36993,798.60803,973.8828
1694130350.728,790.14655,796.1905,796.99634,790.9524,761.53845
1694130350.728,786.52014,799.41394,793.7729,798.20514,693.8461
1694130350.7289999,803.44324,792.96704,786.9231,796.99634,740.18317
1694130350.7289999,809.4872,794.57874,790.9524,792.5641,683.36993
1694130350.798,802.23444,796.99634,789.7436,794.57874,725.6777
1694130350.799,801.02563,792.5641,786.9231,802.23444,759.92676
1694130350.8,805.05493,794.9817,788.93774,813.1135,911.8315
1694130350.8009999,796.5934,796.5934,780.4762,803.44324,851.79486
1694130350.8009999,782.8938,793.7729,784.90845,789.34064,689.81683
1694130350.8019998,794.9817,790.14655,791.75824,788.1319,757.9121
1694130350.803,804.65204,789.7436,788.93774,806.6667,997.25275
1694130350.803,792.5641,795.38464,783.69965,816.337,1025.8608
1694130350.804,788.5348,794.57874,794.17584,795.78754,686.1905
1694130350.8060002,793.36993,794.57874,807.0696,789.7436,606.4103
1694130350.8070002,782.8938,798.60803,799.41394,796.5934,675.31134
1694130350.808,786.1172,798.20514,794.57874,795.38464,674.90845
1694130350.815,796.5934,796.99634,793.36993,793.36993,666.4469
1694130350.816,806.26373,805.4579,798.20514,805.05493,629.7802
1694130350.817,808.2784,807.47253,792.96704,812.71063,639.45056
1694130350.8179998,801.02563,800.6227,786.1172,808.2784,613.663
1694130350.819,796.1905,800.2198,786.1172,797.8022,603.1868
1694130350.82,791.3553,797.3993,786.52014,800.2198,801.02563
1694130350.8209999,789.34064,796.5934,788.1319,804.2491,978.71796
1694130350.822,789.34064,801.4286,796.99634,799.011,767.98535
1694130350.823,796.99634,805.8608,802.6374,801.8315,587.47253
1694130350.824,796.1905,804.2491,796.99634,805.4579,741.79486
1694130350.8339999,791.75824,802.23444,794.57874,804.2491,834.0659
1694130350.836,798.60803,804.65204,792.1612,797.8022,726.4835
1694130350.866,809.89014,807.0696,791.3553,799.41394,736.9597
1694130350.867,802.6374,800.2198,794.9817,800.2198,966.2271
1694130350.868,797.8022,796.5934,799.41394,805.4579,1104.8352
1694130350.868,811.0989,806.6667,801.8315,808.68134,805.05493
1694130350.869,811.50183,805.05493,790.9524,804.2491,724.4689
1694130350.8700001,804.65204,799.011,789.7436,811.50183,812.3077
1694130350.8700001,807.8755,802.6374,796.99634,809.89014,750.65936
1694130350.871,813.91943,803.8461,804.2491,801.4286,648.71796
1694130350.872,803.44324,802.23444,816.337,807.8755,683.7729
1694130350.873,799.41394,795.38464,807.47253,820.3663,1012.1612
1694130350.8739998,807.47253,795.78754,791.75824,808.68134,861.06226
1694130350.875,812.71063,803.8461,795.38464,804.2491,577.8022
1694130350.9139998,814.3223,796.1905,795.78754,808.2784,652.3443
1694130350.915,817.1429,790.14655,796.1905,808.68134,742.6007
1694130350.916,806.26373,793.7729,793.36993,815.5311,726.08057
1694130350.9169998,795.78754,791.75824,793.36993,801.8315,650.32965
1694130350.9190001,804.65204,790.9524,799.41394,798.60803,614.4689
1694130350.92,802.6374,797.8022,800.6227,808.2784,695.8608
1694130350.92,800.6227,803.44324,802.6374,807.47253,806.26373
1694130350.921,797.3993,802.6374,798.20514,808.2784,719.6337
1694130350.922,800.6227,798.20514,789.7436,809.0842,779.2674
1694130350.922,804.2491,803.44324,789.7436,809.4872,967.03296
1694130350.923,797.8022,815.5311,795.38464,801.4286,732.9304
1694130350.924,804.2491,814.7253,797.3993,811.9048,695.4579
1694130350.9529998,810.696,801.8315,803.44324,810.696,940.0366
1694130350.9539998,800.2198,794.9817,800.6227,794.17584,864.68866
1694130350.9550002,804.65204,799.011,788.5348,792.5641,660.0
1694130350.9550002,815.12823,805.8608,797.3993,799.011,606.4103
1694130350.956,803.44324,801.8315,804.65204,811.50183,902.1612
1694130350.956,789.34064,798.20514,799.81683,813.1135,1018.20514
1694130350.957,792.5641,798.60803,798.60803,810.293,763.1502
1694130350.9580002,798.60803,794.57874,802.23444,810.293,662.01465
1694130350.9580002,800.6227,793.36993,798.60803,809.4872,983.5531
1694130350.959,795.78754,796.99634,793.36993,809.89014,1069.7803
1694130350.959,797.8022,798.20514,789.34064,809.89014,788.93774
1694130350.96,803.44324,794.57874,786.52014,803.0403,743.8095
1694130350.992,795.78754,792.5641,791.75824,793.36993,741.79486
1694130350.993,788.93774,796.1905,797.8022,791.75824,664.0293
1694130350.993,789.34064,797.3993,794.57874,793.36993,670.87915
1694130350.994,799.41394,803.8461,792.1612,797.3993,794.9817
1694130350.994,804.65204,808.2784,792.96704,793.36993,848.1685
1694130350.9950001,803.44324,808.68134,794.9817,794.17584,761.53845
1694130350.9950001,804.65204,808.68134,794.57874,803.8461,633.4066
1694130350.996,806.6667,805.4579,782.0879,805.05493,776.04395
1694130350.996,804.65204,799.41394,780.07324,806.6667,1037.5458
1694130350.997,796.1905,795.38464,787.326,805.4579,812.71063
1694130350.9980001,796.1905,794.17584,788.5348,802.23444,644.2857
1694130350.9980001,790.14655,793.36993,791.75824,799.41394,740.989
1694130351.0470002,788.1319,794.57874,794.9817,802.23444,751.06226
1694130351.048,797.8022,795.38464,794.17584,806.26373,671.685
1694130351.052,791.75824,787.72894,794.9817,801.4286,709.5604
1694130351.053,782.49084,786.52014,789.34064,805.05493,805.4579
1694130351.053,788.1319,796.99634,784.5055,803.8461,683.7729
1694130351.0540001,790.54944,797.8022,790.14655,795.78754,657.5824
1694130351.055,791.75824,790.9524,788.1319,796.99634,860.65936
1694130351.056,795.78754,789.7436,784.90845,807.0696,1243.0403
1694130351.056,795.78754,795.38464,788.5348,811.0989,1338.5348
1694130351.057,807.0696,797.8022,788.5348,809.4872,878.3883
1694130351.0579998,817.1429,800.6227,786.52014,823.1868,623.3333
1694130351.0579998,796.1905,802.23444,785.7143,808.68134,684.9817
1694130351.088,788.5348,800.6227,784.90845,793.7729,691.02563
1694130351.089,801.4286,800.2198,781.685,800.6227,651.53845
1694130351.09,810.696,797.3993,779.2674,798.20514,619.707
1694130351.091,812.3077,803.0403,778.46155,801.4286,645.4945
1694130351.091,799.81683,808.68134,781.28204,805.4579,705.5311
1694130351.092,805.4579,805.05493,786.9231,808.68134,761.53845
1694130351.093,819.15753,806.26373,788.1319,819.9634,875.9707
1694130351.093,812.71063,806.26373,786.1172,833.663,1023.44324
1694130351.094,808.68134,807.0696,792.1612,823.1868,796.5934
1694130351.094,815.12823,809.4872,792.96704,816.337,598.3516
1694130351.095,815.12823,804.65204,779.67035,827.2161,759.5238
1694130351.096,823.1868,801.4286,784.5055,829.2308,817.9487
1694130351.136,821.1722,804.2491,795.38464,818.3516,718.022
1694130351.1369998,802.6374,803.0403,792.1612,811.0989,701.9048
1694130351.1379998,801.02563,797.8022,792.1612,815.12823,864.2857
1694130351.1390002,805.05493,802.23444,795.38464,820.3663,893.2967
1694130351.1430001,812.3077,808.2784,800.6227,820.7692,702.71063
1694130351.144,823.1868,799.81683,801.4286,816.337,697.0696
1694130351.144,819.5604,796.5934,799.81683,824.3956,1066.5568
1694130351.145,809.0842,803.44324,799.41394,819.9634,1011.75824
1694130351.145,798.20514,799.011,799.41394,807.47253,749.85345
1694130351.146,802.6374,796.1905,797.3993,801.8315,768.7912
1694130351.147,811.50183,802.6374,796.99634,801.4286,774.0293
1694130351.147,811.0989,801.02563,795.38464,803.44324,684.17584
1694130351.216,801.4286,789.7436,791.75824,797.3993,597.9487
1694130351.218,788.93774,796.1905,796.5934,807.47253,691.8315
1694130351.219,799.011,801.8315,795.38464,815.5311,829.2308
1694130351.22,808.68134,798.60803,787.326,805.4579,719.6337
1694130351.221,809.0842,803.0403,781.685,798.60803,585.05493
1694130351.221,808.68134,811.0989,787.326,815.9341,742.1978
1694130351.2220001,813.5165,811.50183,788.93774,829.2308,927.5458
1694130351.223,805.4579,803.0403,790.14655,822.7839,782.49084
1694130351.224,802.6374,802.6374,796.1905,811.50183,666.04395
1694130351.224,810.696,806.26373,793.36993,807.47253,771.6117
1694130351.225,805.05493,800.6227,792.1612,813.1135,811.0989
1694130351.2259998,803.8461,797.3993,796.1905,815.5311,736.1539
1694130351.257,801.02563,799.41394,794.17584,813.1135,743.00366
1694130351.258,790.9524,793.7729,790.54944,812.71063,962.1978
1694130351.259,796.1905,790.54944,791.3553,804.65204,947.28937
1694130351.259,805.05493,798.60803,790.9524,794.17584,676.52014
1694130351.26,799.011,799.011,788.93774,801.02563,730.9158
1694130351.261,796.1905,795.38464,786.52014,799.81683,890.87915
1694130351.2659998,801.8315,800.6227,784.10254,794.57874,874.7619
1694130351.267,791.3553,800.2198,783.2967,795.38464,711.5751
1694130351.268,786.52014,801.4286,786.52014,794.9817,689.011
1694130351.269,794.17584,803.0403,783.69965,808.68134,989.59705
1694130351.2700002,800.6227,803.8461,785.7143,807.8755,900.9524
1694130351.2700002,797.8022,801.8315,790.14655,792.96704,676.1172
1694130351.3059998,795.38464,797.3993,783.69965,796.5934,727.28937
1694130351.3070002,798.20514,796.1905,788.1319,808.68134,747.03296
1694130351.308,790.9524,793.7729,802.6374,797.3993,699.89014
1694130351.308,792.5641,791.75824,804.2491,793.7729,688.60803
1694130351.309,797.8022,793.36993,798.20514,803.8461,801.02563
1694130351.309,790.54944,793.36993,794.17584,799.81683,844.1392
1694130351.3100002,794.9817,791.3553,789.7436,795.38464,722.8571
1694130351.311,790.54944,795.78754,789.34064,794.57874,661.6117
1694130351.311,796.1905,798.60803,796.5934,809.0842,816.7399
1694130351.312,801.4286,800.2198,796.99634,819.15753,1014.9817
1694130351.312,784.10254,803.0403,794.9817,796.1905,747.03296
1694130351.313,785.31134,802.23444,802.6374,787.326,643.47986
1694130351.314,788.93774,792.96704,803.8461,793.36993,913.8461
1694130351.315,786.1172,793.36993,799.41394,793.36993,886.4469
1694130351.315,797.3993,803.44324,801.8315,799.81683,750.65936
1694130351.316,800.6227,805.05493,801.4286,802.23444,732.1245
1694130351.317,792.1612,799.011,790.9524,799.011,722.4542
1694130351.317,784.5055,792.96704,785.31134,799.011,732.52747
1694130351.318,789.34064,797.8022,786.52014,797.3993,841.7216
1694130351.318,792.1612,808.68134,785.31134,799.41394,900.14655
1694130351.323,792.96704,809.4872,786.52014,790.54944,832.4542
1694130351.323,796.1905,803.44324,786.52014,785.7143,697.8755
1694130351.324,805.05493,811.9048,791.3553,804.65204,642.27106
1694130351.325,796.1905,809.4872,787.326,805.4579,722.4542
1694130351.3609998,781.685,793.7729,780.4762,805.8608,1069.3773
1694130351.362,784.10254,792.96704,788.1319,809.4872,1004.10254
1694130351.362,792.5641,796.5934,798.20514,807.47253,677.326
1694130351.3630002,792.96704,798.60803,801.02563,806.6667,693.0403
1694130351.364,784.10254,797.3993,790.14655,804.65204,745.42126
1694130351.364,781.28204,803.0403,794.57874,803.44324,828.4249
1694130351.365,790.9524,805.8608,792.5641,793.36993,793.7729
1694130351.3660002,795.78754,805.05493,777.6557,799.81683,780.4762
1694130351.367,789.7436,807.0696,783.69965,810.293,955.34796
1694130351.367,786.1172,806.26373,792.1612,794.17584,848.97437
1694130351.368,794.17584,804.65204,797.8022,783.2967,711.978
1694130351.369,805.4579,802.6374,800.2198,787.72894,801.02563
1694130351.416,798.20514,801.4286,789.7436,791.3553,729.304
1694130351.4169998,787.72894,804.2491,786.9231,796.1905,585.05493
1694130351.418,786.1172,810.293,789.7436,797.8022,664.43225
1694130351.4190001,786.1172,798.20514,786.52014,803.44324,880.40295
1694130351.4190001,788.1319,790.9524,784.5055,802.23444,803.44324
1694130351.42,788.5348,795.78754,784.90845,791.75824,644.68866
1694130351.42,789.7436,797.3993,785.7143,801.4286,695.05493
1694130351.42,795.78754,795.78754,786.9231,809.0842,927.9487
1694130351.421,801.02563,801.02563,784.90845,801.02563,868.315
1694130351.421,801.02563,803.44324,790.14655,797.3993,662.4176
1694130351.423,796.5934,798.20514,790.14655,792.1612,639.45056
1694130351.424,791.3553,792.5641,782.0879,793.7729,620.10986
1694130351.452,788.5348,780.4762,788.1319,795.78754,675.31134
1694130351.4529998,792.96704,784.10254,792.96704,792.1612,730.5128
1694130351.4529998,804.65204,793.7729,796.5934,797.3993,769.59705
1694130351.4540002,796.1905,794.17584,794.9817,805.8608,807.47253
1694130351.4540002,784.5055,792.96704,789.34064,801.8315,738.1685
1694130351.4550002,789.34064,789.34064,786.9231,786.9231,691.4286
1694130351.4550002,790.14655,789.34064,788.5348,790.9524,923.1135
1694130351.456,792.1612,794.17584,791.3553,796.99634,1038.3517
1694130351.457,799.81683,796.5934,790.54944,790.54944,751.4652
1694130351.457,794.17584,795.78754,791.3553,789.7436,593.1135
1694130351.458,802.23444,796.1905,797.8022,797.8022,775.2381
1694130351.458,807.0696,802.6374,798.20514,802.6374,958.5714
1694130351.5500002,786.1172,799.81683,794.9817,785.31134,859.0476
1694130351.551,787.72894,797.8022,794.17584,777.6557,684.57874
1694130351.552,807.47253,800.6227,786.9231,795.38464,885.64105
1694130351.553,798.60803,799.81683,775.64105,801.02563,979.92676
1694130351.553,786.1172,801.8315,779.67035,796.99634,732.1245
1694130351.554,792.1612,802.6374,788.5348,795.38464,795.78754
1694130351.554,793.7729,793.36993,795.38464,797.3993,1066.1538
1694130351.555,788.93774,790.9524,794.17584,796.99634,871.53845
1694130351.556,796.99634,792.96704,789.7436,790.9524,616.4835
1694130351.556,798.60803,789.34064,790.54944,793.7729,691.02563
1694130351.557,794.17584,790.9524,788.1319,794.9817,701.9048
1694130351.558,801.4286,797.8022,787.72894,791.3553,667.25275
1694130351.568,804.65204,797.8022,789.7436,788.1319,615.2747
1694130351.569,790.14655,788.5348,788.5348,783.2967,642.674
1694130351.57,782.0879,792.96704,790.9524,788.5348,781.28204
1694130351.571,790.54944,795.78754,791.75824,797.8022,767.5824
1694130351.571,799.41394,789.34064,792.96704,794.17584,631.39197
1694130351.572,797.3993,787.326,796.1905,792.1612,748.24176
1694130351.573,790.9524,793.36993,790.14655,795.78754,919.0842
1694130351.573,796.1905,797.8022,795.78754,794.17584,780.87915
1694130351.5740001,790.9524,796.99634,801.02563,790.9524,672.0879
1694130351.575,782.8938,794.57874,800.6227,796.99634,748.24176
1694130351.576,790.54944,796.5934,801.8315,809.89014,789.7436
1694130351.576,797.8022,798.60803,792.1612,812.71063,657.5824
1694130351.605,792.1612,792.1612,788.5348,803.44324,660.0
1694130351.6060002,789.34064,784.90845,795.38464,801.4286,918.68134
1694130351.6060002,788.5348,784.90845,797.8022,802.23444,983.5531
1694130351.607,782.0879,788.93774,793.7729,794.17584,658.7912
1694130351.608,788.5348,791.3553,785.31134,805.4579,630.989
1694130351.608,791.75824,788.5348,782.8938,815.5311,787.72894
1694130351.609,801.02563,788.93774,790.54944,813.5165,736.9597
1694130351.609,809.89014,791.75824,792.1612,808.68134,643.47986
1694130351.61,804.2491,787.72894,794.9817,799.81683,610.84247
1694130351.61,807.0696,784.90845,801.02563,813.1135,863.8828
1694130351.611,802.6374,787.326,801.8315,815.5311,865.09155
1694130351.612,787.326,788.5348,795.78754,795.38464,670.07324
1694130351.645,784.90845,786.1172,794.17584,785.7143,676.9231
1694130351.6460001,789.7436,785.7143,795.38464,795.78754,670.87915
1694130351.6499999,799.011,787.326,793.36993,808.68134,665.64105
1694130351.651,797.3993,788.1319,793.36993,811.50183,719.2308
1694130351.652,787.326,785.7143,791.3553,805.05493,818.7546
1694130351.652,796.1905,785.7143,784.10254,801.02563,866.7033
1694130351.6529999,804.65204,784.5055,778.46155,810.696,825.2015
1694130351.6529999,796.99634,782.8938,785.7143,803.0403,707.9487
1694130351.654,795.38464,787.72894,796.99634,804.2491,796.5934
1694130351.655,799.81683,786.52014,803.44324,820.7692,1023.0403
1694130351.655,806.6667,788.93774,802.6374,809.0842,870.7326
1694130351.656,802.6374,796.5934,792.96704,795.38464,683.7729
1694130351.686,794.57874,798.20514,792.1612,809.0842,934.3956
1694130351.687,798.20514,805.4579,802.23444,812.71063,1040.3663
1694130351.687,789.7436,804.65204,795.38464,791.3553,698.2784
1694130351.688,796.1905,796.99634,788.93774,796.1905,653.95605
1694130351.689,811.0989,796.5934,790.9524,802.23444,691.8315
1694130351.689,804.2491,799.011,786.1172,790.54944,649.12085
1694130351.692,794.9817,801.4286,790.9524,794.17584,683.7729
1694130351.692,808.2784,801.02563,800.6227,807.47253,722.8571
1694130351.6929998,808.68134,800.2198,802.6374,811.0989,989.19415
1694130351.6940002,794.17584,798.60803,801.02563,803.0403,901.75824
1694130351.6940002,796.5934,801.8315,795.78754,799.011,628.5714
1694130351.6950002,794.57874,799.81683,794.57874,803.44324,673.69965
1694130351.7289999,793.7729,796.5934,793.7729,799.011,745.42126
1694130351.731,801.02563,798.60803,786.1172,789.34064,764.7619
1694130351.731,807.47253,802.6374,788.93774,794.57874,696.26373
1694130351.732,800.2198,803.44324,790.9524,797.8022,701.0989
1694130351.736,792.1612,807.0696,797.3993,795.38464,792.1612
1694130351.737,799.011,807.8755,806.6667,801.8315,767.1795
1694130351.738,813.1135,805.05493,799.011,799.011,753.47986
1694130351.738,819.5604,804.2491,797.8022,803.44324,810.696
1694130351.739,803.0403,804.2491,801.8315,809.0842,944.4689
1694130351.74,790.9524,807.0696,794.17584,801.02563,735.7509
1694130351.74,804.65204,807.0696,790.14655,802.6374,671.685
1694130351.741,814.7253,805.4579,792.5641,811.50183,828.4249
1694130351.838,812.71063,805.8608,797.8022,813.1135,823.9927
1694130351.839,798.20514,803.44324,800.2198,806.26373,689.41394
1694130351.84,796.5934,802.23444,798.60803,809.4872,630.989
1694130351.84,796.5934,801.8315,802.6374,809.89014,970.2564
1694130351.8409998,790.9524,800.2198,798.60803,800.6227,1033.5165
1694130351.8419998,801.02563,799.41394,793.7729,802.6374,801.8315
1694130351.8419998,804.2491,800.6227,793.7729,799.011,760.32965
1694130351.8430002,804.65204,799.81683,789.7436,805.8608,928.7546
1694130351.8430002,811.9048,802.6374,778.0586,818.7546,872.3443
1694130351.844,812.71063,802.23444,779.2674,812.3077,658.7912
1694130351.844,811.0989,799.81683,792.1612,797.8022,660.0
1694130351.845,808.68134,803.0403,795.78754,796.99634,626.9597
1694130351.853,813.91943,803.44324,796.1905,811.50183,614.87177
1694130351.854,813.1135,801.4286,790.9524,823.1868,664.0293
1694130351.854,781.685,790.14655,793.7729,803.44324,730.5128
1694130351.855,759.92676,786.1172,803.0403,772.01465,757.9121
1694130351.856,761.9414,784.90845,794.9817,770.80585,634.21246
1694130351.856,770.80585,788.93774,792.96704,795.38464,653.5531
1694130351.86,758.315,781.685,801.02563,788.1319,876.77655
1694130351.8609998,745.42126,773.6264,793.36993,766.3736,888.0586
1694130351.8620002,771.6117,791.75824,788.1319,777.25275,754.68866
1694130351.8620002,783.69965,794.9817,807.47253,774.43225,653.95605
1694130351.8630002,740.58606,769.59705,800.6227,747.03296,742.1978
1694130351.8630002,738.1685,772.4176,791.75824,755.09155,835.2747
1694130351.889,754.2857,783.69965,799.011,770.80585,749.85345
1694130351.8899999,755.89746,782.0879,803.0403,770.40295,700.293
1694130351.891,769.59705,784.10254,799.81683,778.0586,873.95605
1694130351.891,771.2088,788.1319,793.36993,791.75824,1103.2234
1694130351.892,769.19415,792.1612,794.57874,786.1172,780.07324
1694130351.892,778.0586,792.5641,797.3993,780.4762,728.9011
1694130351.893,792.1612,791.3553,798.20514,791.75824,1009.34064
1694130351.893,786.52014,789.7436,786.9231,791.3553,805.05493
1694130351.894,775.64105,787.72894,795.38464,777.25275,606.4103
1694130351.894,783.2967,791.3553,809.89014,774.43225,685.78754
1694130351.895,780.07324,787.326,806.26373,790.14655,1051.2454
1694130351.895,784.10254,796.1905,804.2491,799.011,1124.9817
1694130351.949,795.78754,807.0696,809.89014,792.1612,702.3077
1694130351.95,792.96704,799.81683,804.65204,782.8938,572.5641
1694130351.95,787.72894,799.81683,773.22345,786.52014,655.16486
1694130351.951,797.3993,799.41394,757.50916,804.2491,693.0403
1694130351.951,813.91943,810.696,806.26373,821.5751,691.8315
1694130351.952,809.4872,806.6667,820.7692,815.12823,799.41394
1694130351.952,780.87915,784.5055,794.17584,793.36993,864.2857
1694130351.9529998,780.87915,789.34064,801.02563,793.36993,668.46155
1694130351.957,784.10254,795.38464,805.8608,798.60803,624.94507
1694130351.9580002,785.31134,788.5348,791.75824,792.1612,788.5348
1694130351.9580002,790.54944,790.9524,792.5641,794.9817,809.4872
1694130351.959,795.78754,790.54944,796.5934,801.4286,647.50916
1694130351.982,807.47253,790.9524,796.5934,802.6374,644.2857
1694130351.983,804.2491,801.02563,800.2198,817.1429,915.05493
1694130351.984,798.20514,803.0403,797.8022,821.5751,1045.6044
1694130351.984,805.05493,802.6374,803.44324,819.5604,768.3883
1694130351.985,805.4579,797.3993,787.72894,809.4872,672.0879
1694130351.985,807.47253,801.8315,796.1905,811.50183,823.9927
1694130351.9859998,830.4396,818.3516,824.7985,828.4249,819.5604
1694130351.987,809.0842,800.2198,807.8755,809.0842,698.68134
1694130351.9889998,785.31134,783.2967,792.1612,795.78754,678.1319
1694130351.9889998,794.17584,787.326,796.1905,808.2784,876.3736
1694130351.99,805.05493,793.36993,799.41394,806.26373,742.6007
1694130351.9910002,795.78754,788.1319,792.5641,791.3553,650.7326
1694130352.023,786.1172,797.3993,794.57874,802.6374,781.28204
1694130352.024,797.8022,806.26373,799.011,805.4579,804.65204
1694130352.0249999,801.02563,803.0403,798.20514,801.02563,792.96704
1694130352.0249999,796.99634,805.8608,795.38464,794.57874,670.4762
1694130352.0259998,806.26373,804.2491,790.54944,802.6374,722.0513
1694130352.0259998,809.0842,799.41394,788.1319,812.71063,950.9158
1694130352.027,797.8022,798.60803,793.36993,805.8608,897.326
1694130352.027,801.8315,798.60803,802.23444,804.2491,732.1245
1694130352.028,809.89014,792.5641,791.75824,803.0403,755.09155
1694130352.028,804.65204,794.57874,786.9231,808.2784,943.2601
1694130352.032,806.6667,806.26373,800.6227,800.6227,746.2271
1694130352.033,809.4872,799.81683,803.44324,797.3993,657.5824
1694130352.074,809.4872,790.54944,797.8022,807.0696,855.82416
1694130352.075,810.293,793.7729,792.1612,801.4286,740.18317
1694130352.076,807.0696,797.3993,790.54944,800.2198,582.23444
1694130352.077,814.7253,803.44324,792.96704,809.89014,645.89746
1694130352.078,813.1135,803.0403,789.34064,815.9341,989.59705
1694130352.078,803.8461,799.81683,780.87915,809.89014,983.95605
1694130352.079,801.8315,800.6227,784.10254,795.78754,722.4542
1694130352.08,800.2198,795.78754,785.31134,793.36993,671.685
1694130352.08,799.011,789.7436,779.2674,807.0696,1015.78754
1694130352.0809999,799.81683,799.011,786.1172,815.9341,1139.0842
1694130352.0819998,805.8608,805.05493,800.6227,801.8315,708.3516
1694130352.0819998,805.05493,799.011,803.44324,792.96704,597.5458
1694130352.1529999,799.011,794.9817,794.9817,800.6227,713.9927
1694130352.1539998,800.6227,796.5934,795.38464,800.6227,685.38464
1694130352.155,793.36993,799.011,790.14655,796.5934,660.0
1694130352.156,793.7729,795.78754,787.326,803.44324,686.99634
1694130352.1569998,802.23444,796.99634,790.9524,806.6667,672.0879
1694130352.1580002,792.5641,792.96704,786.9231,801.02563,680.54944
1694130352.1590002,784.90845,790.14655,784.10254,787.326,769.59705
1694130352.1590002,789.7436,790.54944,789.34064,791.3553,892.49084
1694130352.16,792.1612,794.17584,797.8022,805.4579,1089.1208
1694130352.161,790.14655,798.60803,799.011,799.41394,841.31866
1694130352.162,794.57874,798.20514,796.1905,791.3553,584.65204
1694130352.163,792.96704,788.93774,788.1319,786.1172,718.8278
1694130352.1990001,791.3553,789.34064,795.78754,785.7143,800.2198
1694130352.2,785.31134,795.38464,792.1612,787.326,716.0073
1694130352.201,784.5055,792.96704,786.52014,789.7436,640.2564
1694130352.202,791.3553,796.5934,803.8461,795.78754,729.707
1694130352.202,786.9231,805.05493,809.4872,796.5934,737.3626
1694130352.203,792.5641,806.26373,807.47253,799.41394,785.31134
1694130352.204,798.60803,807.47253,803.44324,795.38464,803.0403
1694130352.204,796.5934,799.011,786.1172,800.6227,987.1795
1694130352.205,802.23444,795.38464,786.1172,816.337,1144.7252
1694130352.205,794.9817,806.26373,793.36993,803.44324,784.5055
1694130352.206,768.3883,803.8461,788.1319,783.2967,718.8278
1694130352.207,770.80585,802.6374,801.02563,788.1319,976.30035
1694130352.243,789.7436,811.50183,805.8608,797.8022,778.46155
1694130352.244,774.83514,802.23444,788.93774,780.87915,608.8278
1694130352.245,768.3883,776.04395,778.0586,765.16486,670.4762
1694130352.245,771.6117,767.5824,771.2088,767.98535,725.6777
1694130352.246,771.6117,783.2967,779.67035,769.19415,725.6777
1694130352.246,780.07324,790.9524,796.99634,766.3736,700.293
1694130352.247,788.93774,799.41394,805.05493,773.6264,790.54944
1694130352.247,790.14655,800.6227,799.81683,784.90845,777.6557
1694130352.248,789.7436,796.5934,790.54944,791.3553,718.4249
1694130352.248,799.41394,792.1612,783.2967,794.9817,694.2491
1694130352.2489998,803.0403,790.14655,790.54944,809.89014,759.5238
1694130352.2499998,797.8022,796.5934,792.96704,814.7253,883.6264
1694130352.277,797.3993,804.65204,784.5055,801.02563,772.01465
1694130352.278,794.57874,797.8022,792.96704,800.6227,752.674
1694130352.2819998,804.65204,792.1612,801.8315,826.8132,968.6447
1694130352.283,810.293,805.05493,793.36993,829.2308,985.9707
1694130352.284,789.34064,799.011,787.72894,794.57874,671.28204
1694130352.2849998,797.3993,797.8022,812.71063,789.7436,653.1502
1694130352.286,813.5165,809.0842,825.2015,817.5458,1017.8022
1694130352.286,805.8608,802.23444,805.05493,814.7253,931.1722
1694130352.2870002,796.99634,797.3993,796.1905,798.60803,621.7216
1694130352.2870002,804.65204,795.38464,794.17584,800.2198,629.7802
1694130352.288,805.8608,794.9817,795.78754,810.696,814.7253
1694130352.289,799.81683,805.05493,802.6374,816.337,732.1245
1694130352.345,795.38464,799.41394,790.9524,815.5311,695.4579
1694130352.3470001,790.54944,784.90845,778.46155,796.1905,743.4066
1694130352.348,798.20514,794.57874,790.54944,792.1612,670.07324
1694130352.3500001,807.47253,797.3993,789.7436,797.3993,732.52747
1694130352.3500001,803.0403,799.81683,789.34064,802.6374,711.1722
1694130352.351,799.41394,803.44324,789.34064,808.68134,843.73627
1694130352.352,799.41394,794.9817,790.14655,809.0842,1216.044
1694130352.352,798.60803,799.011,797.3993,798.20514,900.14655
1694130352.353,796.1905,806.26373,794.9817,800.2198,575.38464
1694130352.353,795.78754,803.0403,789.7436,811.50183,697.0696
1694130352.3539999,800.6227,806.6667,793.7729,805.8608,738.1685
1694130352.355,799.41394,807.0696,794.17584,799.41394,691.4286
1694130352.412,808.68134,802.23444,793.36993,796.99634,710.3663
1694130352.4129999,807.0696,797.8022,788.1319,801.4286,842.1245
1694130352.414,796.5934,802.6374,784.5055,807.47253,831.2454
1694130352.414,795.78754,808.68134,797.8022,803.8461,658.3883
1694130352.4190001,795.38464,803.8461,799.41394,802.6374,678.93774
1694130352.42,793.36993,801.8315,792.5641,795.38464,801.8315
1694130352.421,796.99634,808.68134,792.5641,790.9524,779.2674
1694130352.421,800.2198,816.337,795.38464,798.60803,720.4396
1694130352.4220002,793.7729,809.4872,796.1905,806.6667,684.17584
1694130352.4220002,796.1905,798.20514,793.36993,809.0842,1008.93774
1694130352.423,796.99634,794.57874,784.90845,803.0403,1033.1135
1694130352.424,800.2198,802.6374,785.31134,805.05493,668.46155
1694130352.432,807.0696,807.0696,794.57874,817.1429,660.80585
1694130352.4339998,794.9817,803.0403,790.14655,810.293,780.07324
1694130352.4350002,801.8315,797.8022,781.685,794.57874,770.40295
1694130352.436,807.0696,794.57874,786.52014,794.9817,705.12823
1694130352.437,790.14655,796.5934,796.99634,796.5934,696.26373
1694130352.4380002,785.7143,798.20514,800.2198,796.1905,766.77655
1694130352.4380002,786.9231,796.99634,791.75824,799.41394,785.31134
1694130352.4390001,783.2967,793.36993,786.52014,799.81683,741.39197
1694130352.44,789.34064,792.1612,798.20514,797.3993,792.5641
1694130352.441,781.685,795.38464,798.60803,794.9817,778.0586
1694130352.441,794.9817,799.011,792.1612,797.3993,642.27106
1694130352.442,797.3993,793.7729,788.1319,796.5934,672.49084
1694130352.47,789.7436,788.5348,786.9231,795.78754,968.24176
1694130352.471,799.41394,795.38464,795.78754,809.0842,1191.8682
1694130352.471,801.02563,796.99634,804.2491,806.26373,854.21246
1694130352.472,794.9817,794.57874,801.8315,795.78754,622.1245
1694130352.472,795.78754,799.41394,797.8022,796.1905,765.9707
1694130352.473,785.31134,792.1612,791.75824,790.14655,843.73627
1694130352.477,778.46155,784.5055,788.1319,781.28204,734.5421
1694130352.4780002,782.8938,782.8938,790.14655,786.1172,643.0769
1694130352.4780002,784.5055,780.07324,786.1172,794.9817,906.5934
1694130352.479,786.1172,791.75824,786.1172,796.5934,910.6227
1694130352.479,788.93774,796.99634,797.3993,793.7729,657.1795
1694130352.48,792.5641,789.7436,796.99634,794.17584,678.93774
1694130352.5110002,792.96704,796.1905,792.1612,799.41394,749.45056
1694130352.512,791.3553,804.2491,788.5348,801.4286,653.5531
1694130352.512,791.3553,798.20514,790.14655,802.23444,636.63007
1694130352.513,793.7729,793.7729,792.1612,792.96704,732.1245
1694130352.513,803.0403,796.1905,796.99634,786.1172,761.9414
1694130352.513,805.05493,802.6374,801.4286,787.72894,747.4359
1694130352.514,798.60803,806.6667,798.60803,790.54944,740.18317
1694130352.514,796.5934,802.6374,794.9817,797.8022,751.06226
1694130352.515,798.20514,809.0842,790.14655,804.65204,788.1319
1694130352.515,804.65204,813.5165,787.72894,807.0696,774.43225
1694130352.516,805.8608,807.47253,794.17584,806.26373,644.68866
1694130352.516,801.8315,801.4286,794.9817,804.2491,793.36993
1694130352.557,798.60803,801.8315,790.14655,812.3077,1253.5165
1694130352.558,792.96704,802.23444,798.60803,810.696,1095.1648
1694130352.558,796.99634,794.17584,800.6227,794.9817,747.4359
1694130352.559,789.7436,793.36993,797.3993,799.41394,787.326
1694130352.56,786.52014,794.17584,796.99634,801.4286,708.3516
1694130352.56,794.17584,791.3553,794.9817,795.38464,662.4176
1694130352.5609999,791.3553,799.011,792.1612,796.99634,830.84247
1694130352.5619998,793.36993,797.3993,792.1612,806.6667,1068.5714
1694130352.5649998,795.78754,797.8022,793.36993,807.0696,894.10254
1694130352.5660002,790.9524,801.8315,786.9231,795.78754,578.20514
1694130352.5670002,794.17584,801.8315,776.4469,799.81683,593.5165
1694130352.5670002,792.1612,801.02563,788.1319,810.696,702.3077
1694130352.6179998,788.93774,801.4286,799.011,804.65204,736.55676
1694130352.619,789.7436,798.60803,785.31134,790.9524,684.57874
1694130352.62,790.9524,795.38464,797.8022,794.9817,657.1795
1694130352.62,789.7436,784.5055,803.44324,796.99634,660.40295
1694130352.621,795.78754,778.0586,800.2198,801.4286,742.6007
1694130352.625,796.1905,784.5055,801.02563,797.3993,786.52014
1694130352.626,800.2198,793.36993,801.8315,801.02563,840.5128
1694130352.627,800.6227,796.1905,800.6227,807.47253,1063.3334
1694130352.627,801.4286,800.6227,795.38464,799.011,853.8095
1694130352.628,806.26373,802.6374,793.7729,798.60803,643.8828
1694130352.629,805.4579,801.8315,790.54944,801.02563,738.5714
1694130352.629,802.6374,804.2491,790.14655,799.41394,730.10986
1694130352.654,794.9817,789.7436,784.5055,784.10254,683.7729
1694130352.656,785.31134,782.49084,778.86444,776.04395,630.18317
1694130352.6569998,794.17584,786.52014,787.326,796.5934,835.2747
1694130352.6579998,805.05493,794.9817,794.57874,804.2491,899.34064
1694130352.6590002,805.05493,798.60803,791.3553,791.75824,743.8095
1694130352.66,809.0842,805.8608,796.99634,794.57874,760.32965
1694130352.66,790.9524,804.2491,790.14655,808.2784,984.7619
1694130352.661,782.0879,794.9817,790.54944,800.2198,965.0183
1694130352.6620002,791.75824,797.8022,801.4286,789.7436,738.97437
1694130352.6620002,788.5348,800.6227,796.1905,794.57874,773.22345
1694130352.666,788.93774,796.99634,793.7729,799.41394,927.1429
1694130352.667,787.72894,796.1905,799.41394,790.54944,753.47986
1694130352.707,779.67035,800.6227,799.41394,790.14655,661.6117
1694130352.708,773.22345,799.81683,797.8022,801.4286,773.6264
1694130352.7089999,779.67035,795.78754,791.75824,788.1319,821.5751
1694130352.71,791.75824,797.8022,794.9817,785.31134,716.8132
1694130352.711,800.2198,800.6227,801.02563,793.7729,621.31866
1694130352.711,797.8022,794.57874,788.1319,787.72894,764.35895
1694130352.712,788.5348,791.3553,789.7436,791.75824,879.19415
1694130352.7129998,791.3553,797.3993,801.8315,797.8022,738.97437
1694130352.7129998,787.326,797.8022,800.2198,791.75824,603.9927
1694130352.714,792.1612,797.8022,790.14655,800.2198,788.93774
1694130352.7150002,799.81683,801.02563,788.93774,817.9487,1074.2124
1694130352.716,800.2198,799.011,795.78754,812.3077,869.92676
1694130352.776,797.8022,794.9817,792.96704,801.02563,708.3516
1694130352.777,789.7436,796.1905,796.5934,794.17584,832.8571
1694130352.7779999,787.72894,800.2198,796.1905,791.75824,776.4469
1694130352.779,790.54944,805.05493,793.36993,794.17584,609.2308
1694130352.779,799.011,801.8315,797.3993,804.2491,699.4872
1694130352.78,799.81683,796.99634,796.5934,806.6667,893.69965
1694130352.781,799.41394,801.4286,792.5641,808.68134,832.8571
1694130352.781,802.6374,797.8022,790.14655,805.8608,689.011
1694130352.782,797.8022,802.23444,790.14655,798.20514,655.16486
1694130352.782,796.1905,804.2491,792.96704,808.68134,1004.90845
1694130352.783,802.6374,803.8461,790.14655,815.5311,1075.8242
1694130352.784,806.26373,811.0989,792.1612,809.4872,732.52747
1694130352.822,796.1905,800.6227,793.36993,799.011,678.93774
1694130352.823,807.0696,802.6374,786.1172,803.0403,711.978
1694130352.824,801.02563,805.8608,785.31134,797.8022,699.4872
1694130352.824,781.685,785.31134,780.07324,782.49084,679.34064
1694130352.825,784.90845,784.5055,788.93774,785.7143,684.57874
1694130352.826,792.5641,785.7143,793.7729,787.72894,784.5055
1694130352.826,790.9524,788.1319,787.72894,791.3553,803.8461
1694130352.8270001,790.54944,796.99634,789.34064,800.6227,708.7546
1694130352.8270001,797.8022,796.99634,789.7436,805.8608,792.5641
1694130352.828,804.2491,804.65204,788.1319,811.0989,1087.1062
1694130352.828,805.05493,805.05493,788.5348,799.011,783.69965
1694130352.829,798.20514,799.41394,792.1612,791.3553,543.95605
1694130352.8300002,791.75824,795.38464,788.5348,799.011,821.5751
1694130352.831,791.75824,788.5348,786.9231,796.5934,804.2491
1694130352.831,800.2198,792.5641,791.75824,804.65204,660.80585
1694130352.832,801.02563,796.5934,790.14655,802.6374,677.72894
1694130352.832,794.17584,796.1905,785.31134,804.65204,790.54944
1694130352.833,796.5934,796.5934,781.685,820.3663,859.0476
1694130352.833,804.2491,793.36993,784.90845,813.91943,782.8938
1694130352.8339999,810.293,788.93774,786.1172,803.8461,718.8278
1694130352.8339999,806.6667,782.8938,782.8938,801.02563,910.6227
1694130352.835,809.4872,789.7436,790.9524,798.60803,845.7509
1694130352.836,811.50183,802.6374,794.57874,796.99634,637.4359
1694130352.836,805.05493,804.2491,790.9524,804.65204,731.7216
1694130352.8899999,810.293,800.6227,798.20514,809.89014,774.0293
1694130352.891,807.8755,794.57874,806.6667,809.89014,685.78754
1694130352.895,809.0842,795.38464,803.8461,807.47253,637.03296
1694130352.896,804.2491,796.99634,797.3993,796.99634,703.5165
1694130352.8969998,794.57874,801.02563,791.75824,792.1612,784.5055
1694130352.8979998,801.4286,802.23444,784.90845,801.02563,848.1685
1694130352.8990002,804.65204,797.8022,788.1319,795.38464,770.40295
1694130352.9,810.293,802.6374,798.60803,796.99634,794.57874
1694130352.901,813.5165,801.8315,804.2491,820.3663,1108.0586
1694130352.9020002,815.5311,794.57874,796.1905,820.3663,931.1722
1694130352.9020002,815.9341,797.8022,790.9524,805.8608,687.8022
1694130352.903,808.2784,800.6227,800.2198,801.8315,718.8278
1694130352.927,805.4579,803.44324,805.4579,801.02563,676.52014
1694130352.928,801.8315,805.8608,800.6227,803.8461,657.5824
1694130352.929,803.8461,801.8315,799.41394,811.50183,700.293
1694130352.9299998,809.89014,801.4286,799.41394,814.7253,909.41394
1694130352.931,802.6374,804.2491,794.9817,806.6667,886.8498
1694130352.932,799.41394,809.0842,801.02563,807.0696,693.8461
1694130352.932,794.9817,799.41394,793.36993,798.60803,711.5751
1694130352.9329998,788.1319,788.5348,785.7143,805.8608,1027.8755
1694130352.9329998,789.34064,796.5934,790.54944,814.7253,1136.6666
1694130352.934,797.8022,801.8315,783.69965,793.36993,731.31866
1694130352.9350002,793.36993,799.41394,778.46155,786.9231,626.9597
1694130352.9350002,780.07324,802.6374,784.10254,791.3553,686.5934
1694130352.988,790.14655,807.8755,791.3553,790.54944,667.6557
1694130352.9889998,796.99634,803.0403,794.17584,792.1612,664.83514
1694130352.99,796.99634,798.60803,793.7729,794.9817,659.59705
1694130352.9910002,791.75824,799.011,793.36993,792.1612,686.5934
1694130352.996,780.4762,794.9817,789.7436,783.69965,684.9817
1694130352.997,793.36993,795.78754,789.7436,791.75824,654.35895
1694130352.9980001,802.6374,793.7729,791.75824,807.8755,806.6667
1694130352.999,796.1905,790.54944,794.17584,810.696,1054.0659
1694130352.999,798.60803,793.36993,790.9524,800.2198,774.83514
1694130353.0,802.6374,789.7436,778.46155,802.23444,595.12823
1694130353.001,797.8022,794.57874,787.72894,800.6227,801.4286
1694130353.0019999,799.81683,800.6227,801.8315,804.2491,866.30035
1694130353.059,803.8461,796.99634,798.20514,809.89014,778.0586
1694130353.06,785.7143,796.5934,788.5348,802.23444,686.5934
1694130353.0609999,790.9524,797.3993,794.17584,805.4579,736.9597
1694130353.0609999,802.6374,798.60803,803.0403,809.4872,767.1795
1694130353.0609999,792.96704,802.6374,799.011,806.6667,692.23444
1694130353.062,801.4286,808.2784,796.99634,814.3223,724.4689
1694130353.062,811.9048,801.02563,796.1905,824.3956,1036.337
1694130353.063,802.6374,794.9817,800.2198,813.91943,1145.9341
1694130353.063,782.8938,792.96704,797.3993,793.7729,788.93774
1694130353.063,776.4469,786.9231,792.5641,793.7729,659.59705
1694130353.064,781.685,790.9524,802.6374,794.9817,741.79486
1694130353.064,795.78754,798.20514,805.8608,804.2491,679.34064
1694130353.1169999,803.0403,796.99634,801.4286,810.696,612.8571
1694130353.118,802.23444,794.17584,798.60803,811.50183,755.4945
1694130353.119,804.2491,795.78754,798.20514,818.7546,871.53845
1694130353.119,802.6374,799.81683,796.1905,815.5311,776.4469
1694130353.12,799.41394,800.2198,794.9817,808.68134,656.3736
1694130353.12,797.3993,795.78754,794.57874,807.8755,730.9158
1694130353.124,797.8022,796.5934,797.3993,817.9487,915.4579
1694130353.124,802.6374,803.0403,798.60803,810.696,819.5604
1694130353.125,804.2491,806.26373,795.78754,804.65204,718.022
1694130353.125,801.02563,810.293,795.38464,815.9341,791.3553
1694130353.1260002,797.3993,810.696,798.20514,814.7253,822.381
1694130353.1260002,795.78754,807.47253,795.38464,801.8315,691.4286
1694130353.151,797.8022,811.9048,802.23444,803.0403,741.79486
