timestamp,RAW_TP9,RAW_AF7,RAW_AF8,RAW_TP10,AUX_RIGHT
1694297169.063,788.5348,823.5897,805.05493,786.1172,979.12085
1694297169.063,787.326,815.12823,801.4286,786.9231,935.6044
1694297169.064,788.93774,811.0989,807.0696,788.93774,825.2015
1694297169.0649998,781.28204,825.6044,807.8755,793.7729,944.87177
1694297169.0649998,783.2967,830.84247,805.8608,801.02563,1217.2528
1694297169.066,790.54944,819.9634,801.4286,795.38464,1115.3114
1694297169.066,790.14655,813.91943,803.0403,793.7729,943.663
1694297169.0670002,785.31134,814.3223,805.05493,796.5934,1020.2198
1694297169.068,777.6557,821.5751,801.02563,788.5348,1057.2894
1694297169.068,769.19415,817.9487,796.5934,780.4762,846.1539
1694297169.069,764.7619,816.7399,801.02563,788.5348,787.326
1694297169.069,773.22345,820.3663,809.0842,799.81683,848.5714
1694297169.1030002,791.75824,823.1868,810.293,801.8315,812.71063
1694297169.104,797.8022,827.2161,805.4579,800.2198,764.7619
1694297169.105,785.7143,828.022,797.3993,795.38464,787.72894
1694297169.106,778.46155,825.2015,799.011,790.14655,850.58606
1694297169.106,778.46155,822.7839,804.65204,793.36993,831.2454
1694297169.107,782.0879,826.0073,800.2198,794.9817,819.15753
1694297169.108,784.90845,820.3663,799.81683,786.52014,929.15753
1694297169.109,787.72894,813.91943,805.05493,786.1172,1040.3663
1694297169.109,782.0879,811.0989,803.0403,790.54944,873.5531
1694297169.1100001,773.22345,810.696,800.2198,792.1612,774.0293
1694297169.111,773.6264,818.7546,800.2198,791.75824,894.10254
1694297169.111,776.4469,819.15753,802.6374,798.60803,1154.7986
1694297169.112,783.69965,822.7839,803.44324,801.02563,992.8205
1694297169.112,788.5348,827.619,801.8315,796.5934,778.0586
1694297169.115,782.8938,823.9927,801.4286,801.02563,880.80585
1694297169.115,775.64105,823.1868,805.05493,803.44324,989.19415
1694297169.116,762.74725,811.9048,804.65204,796.1905,853.8095
1694297169.116,765.56775,802.23444,799.41394,792.1612,797.8022
1694297169.116,780.07324,803.0403,794.57874,794.9817,1085.4945
1694297169.1169999,777.6557,811.0989,797.8022,801.8315,1117.326
1694297169.1169999,784.90845,825.2015,806.26373,805.4579,815.9341
1694297169.118,779.67035,820.3663,803.44324,796.1905,771.2088
1694297169.118,774.43225,813.5165,800.2198,790.54944,871.9414
1694297169.118,788.5348,825.2015,809.0842,802.23444,796.5934
1694297169.149,795.78754,833.663,805.05493,803.0403,730.9158
1694297169.15,789.34064,826.4103,795.78754,799.81683,801.8315
1694297169.151,792.1612,828.022,803.0403,806.6667,850.58606
1694297169.151,786.52014,822.7839,802.6374,796.99634,795.78754
1694297169.152,779.2674,808.68134,794.9817,788.1319,739.3773
1694297169.152,783.2967,807.8755,793.7729,789.34064,921.50183
1694297169.1529999,789.34064,819.5604,801.02563,797.3993,1245.4579
1694297169.1539998,795.38464,814.3223,803.0403,796.5934,1070.586
1694297169.1539998,788.93774,807.0696,797.3993,792.96704,786.9231
1694297169.155,779.2674,811.9048,796.1905,794.57874,824.3956
1694297169.156,783.69965,821.1722,801.8315,796.1905,884.0293
1694297169.1569998,783.2967,821.1722,805.8608,801.4286,865.09155
1694297169.1990001,778.0586,821.978,799.81683,794.9817,800.6227
1694297169.1990001,768.3883,824.7985,796.5934,788.93774,954.1392
1694297169.2,763.1502,820.7692,801.02563,791.3553,1141.0989
1694297169.2,782.49084,818.3516,806.6667,793.7729,884.0293
1694297169.203,797.3993,820.7692,807.8755,801.8315,820.7692
1694297169.204,794.9817,820.3663,799.81683,796.99634,1006.52014
1694297169.204,780.4762,809.0842,789.7436,784.5055,942.4542
1694297169.205,779.67035,812.71063,790.14655,791.3553,832.4542
1694297169.207,783.2967,822.7839,795.78754,801.02563,806.26373
1694297169.208,779.2674,826.0073,796.5934,803.0403,981.9414
1694297169.208,789.7436,826.8132,792.1612,803.44324,995.2381
1694297169.2089999,794.57874,827.2161,801.4286,799.011,801.4286
1694297169.258,786.9231,821.5751,805.05493,790.9524,782.49084
1694297169.259,784.90845,811.50183,791.3553,795.38464,878.3883
1694297169.259,782.0879,807.0696,792.96704,803.44324,920.696
1694297169.26,788.1319,817.1429,807.0696,808.2784,809.0842
1694297169.26,797.8022,819.9634,810.696,817.5458,814.3223
1694297169.261,794.57874,813.5165,803.8461,802.6374,1070.1831
1694297169.261,790.14655,824.3956,799.41394,786.9231,993.22345
1694297169.261,796.1905,835.2747,797.8022,798.60803,799.011
1694297169.262,798.60803,826.8132,793.36993,799.011,846.1539
1694297169.262,796.5934,816.337,787.326,794.9817,1030.6959
1694297169.262,794.57874,811.9048,789.7436,792.5641,904.17584
1694297169.263,789.7436,813.5165,795.38464,799.011,775.2381
1694297169.309,784.5055,817.1429,794.9817,800.6227,846.9597
1694297169.309,784.90845,811.0989,799.81683,803.0403,882.8205
1694297169.3100002,788.1319,804.65204,802.23444,807.8755,852.1978
1694297169.3100002,780.87915,809.0842,794.9817,799.81683,764.35895
1694297169.311,775.64105,815.12823,794.9817,797.8022,963.00366
1694297169.311,782.49084,824.7985,803.8461,807.8755,1185.8242
1694297169.314,777.6557,817.9487,800.2198,802.23444,936.8132
1694297169.315,768.7912,813.5165,799.011,793.7729,845.7509
1694297169.315,781.685,821.978,805.4579,799.011,942.8571
1694297169.315,790.14655,827.2161,806.26373,798.20514,872.74725
1694297169.316,781.685,822.381,798.20514,786.9231,791.75824
1694297169.316,782.0879,812.3077,789.7436,777.6557,829.6337
1694297169.352,787.72894,809.4872,797.3993,782.8938,1037.5458
1694297169.352,792.96704,814.7253,809.4872,793.36993,980.32965
1694297169.353,782.0879,807.47253,806.26373,789.34064,754.2857
1694297169.353,774.83514,806.26373,801.8315,785.31134,794.9817
1694297169.353,793.36993,827.2161,801.8315,792.5641,819.15753
1694297169.3539999,793.36993,826.0073,792.96704,787.72894,832.8571
1694297169.3539999,778.86444,817.9487,792.5641,779.2674,842.9304
1694297169.3539999,786.9231,821.1722,798.60803,781.28204,836.08057
1694297169.355,791.3553,825.6044,803.44324,794.17584,1140.2931
1694297169.355,779.67035,820.7692,805.05493,792.1612,1131.4286
1694297169.356,784.5055,815.9341,805.05493,790.54944,817.9487
1694297169.356,795.38464,823.9927,808.68134,794.17584,799.011
1694297169.3569999,784.10254,826.4103,806.26373,785.7143,807.0696
1694297169.358,780.07324,819.5604,802.23444,783.69965,815.9341
1694297169.358,786.52014,813.5165,796.1905,790.9524,822.381
1694297169.358,787.72894,815.5311,792.5641,794.9817,894.90845
1694297169.359,790.54944,811.50183,801.8315,794.9817,945.2747
1694297169.359,780.07324,805.05493,797.3993,776.4469,884.0293
1694297169.359,767.98535,812.71063,789.34064,763.5531,857.8388
1694297169.36,761.13556,815.5311,790.9524,778.86444,1025.4579
1694297169.362,763.1502,815.9341,790.14655,784.90845,1085.8975
1694297169.362,767.5824,813.5165,792.96704,779.2674,799.41394
1694297169.3630002,764.35895,814.7253,801.8315,784.5055,770.0
1694297169.3630002,767.98535,813.5165,796.5934,786.52014,965.42126
1694297169.4099998,772.4176,805.8608,789.7436,786.52014,927.1429
1694297169.411,771.6117,820.7692,799.011,794.17584,827.2161
1694297169.411,763.95605,827.2161,799.41394,790.54944,802.23444
1694297169.411,752.27106,813.1135,790.9524,780.4762,827.2161
1694297169.412,761.53845,807.8755,790.14655,774.83514,840.5128
1694297169.412,776.4469,809.4872,792.1612,779.67035,851.39197
1694297169.4129999,768.3883,805.8608,798.20514,787.326,929.15753
1694297169.4129999,771.2088,809.4872,801.4286,790.14655,1114.1025
1694297169.4129999,780.4762,815.5311,799.81683,786.9231,949.304
1694297169.414,775.64105,817.9487,793.7729,784.10254,771.6117
1694297169.414,763.1502,821.978,791.3553,783.69965,826.8132
1694297169.414,757.1062,819.5604,796.1905,778.0586,859.85345
1694297169.4550002,755.89746,817.9487,793.36993,774.83514,892.49084
1694297169.456,758.71796,827.2161,798.60803,774.43225,838.0952
1694297169.457,762.3443,831.2454,807.8755,780.4762,960.989
1694297169.457,756.7033,821.978,800.2198,779.2674,1133.0403
1694297169.458,759.5238,818.3516,801.02563,772.8205,892.49084
1694297169.458,755.89746,818.3516,800.2198,769.19415,792.5641
1694297169.459,750.2564,820.3663,797.8022,766.77655,1010.14655
1694297169.459,748.24176,817.5458,796.5934,759.92676,1078.2417
1694297169.459,750.65936,816.7399,798.20514,756.30035,843.3333
1694297169.46,755.09155,826.8132,801.8315,763.5531,801.8315
1694297169.4620001,739.3773,823.9927,804.2491,753.8828,848.5714
1694297169.463,739.7802,823.9927,804.65204,748.6447,780.4762
1694297169.527,741.79486,832.8571,807.47253,749.45056,752.27106
1694297169.528,732.52747,837.6923,807.47253,743.4066,815.12823
1694297169.529,722.8571,835.6777,807.47253,737.76556,900.14655
1694297169.53,715.2015,828.4249,814.3223,731.7216,903.7729
1694297169.5310001,706.7399,827.2161,813.1135,736.1539,813.91943
1694297169.5310001,704.7253,829.6337,811.50183,744.21246,907.8022
1694297169.532,699.89014,832.8571,810.293,747.8388,1288.5714
1694297169.532,696.26373,834.4689,804.65204,740.58606,1150.7693
1694297169.533,699.89014,834.4689,804.2491,730.9158,815.12823
1694297169.533,701.0989,828.8278,804.65204,725.6777,795.78754
1694297169.5340002,700.293,827.619,802.23444,722.4542,781.28204
1694297169.5340002,711.5751,835.2747,803.8461,732.52747,789.7436
1694297169.5740001,726.08057,838.49817,807.0696,747.03296,813.1135
1694297169.575,738.97437,833.2601,809.89014,754.2857,961.79486
1694297169.576,736.55676,830.84247,805.8608,754.68866,1115.3114
1694297169.577,729.304,836.08057,803.44324,745.82416,905.38464
1694297169.5779998,725.2747,830.4396,797.8022,740.18317,784.10254
1694297169.5779998,725.2747,820.3663,793.7729,750.2564,956.9597
1694297169.579,740.989,823.9927,796.1905,763.95605,991.6117
1694297169.58,741.79486,815.5311,793.7729,758.71796,867.50916
1694297169.5809999,740.989,807.47253,794.17584,747.03296,790.14655
1694297169.582,739.3773,813.5165,799.81683,754.2857,985.16486
1694297169.582,727.28937,811.0989,799.41394,771.6117,1159.6337
1694297169.5830002,731.31866,816.337,793.7729,771.6117,946.8865
1694297169.636,745.0183,824.3956,796.1905,773.22345,840.5128
1694297169.6369998,759.92676,821.1722,795.38464,776.4469,809.4872
1694297169.638,767.1795,822.7839,786.1172,778.0586,766.77655
1694297169.638,770.0,822.7839,787.326,797.3993,808.2784
1694297169.6390002,771.6117,816.337,794.9817,813.1135,862.674
1694297169.64,772.8205,812.3077,790.54944,810.696,915.8608
1694297169.64,785.7143,815.9341,784.90845,803.8461,859.85345
1694297169.641,801.02563,823.9927,789.34064,809.4872,749.45056
1694297169.642,799.011,819.15753,783.2967,818.3516,835.2747
1694297169.642,787.72894,807.47253,781.685,823.1868,1156.0073
1694297169.6430001,786.1172,806.6667,785.7143,818.3516,1008.5348
1694297169.6430001,788.93774,804.2491,779.2674,811.0989,744.21246
1694297169.6929998,790.9524,804.2491,781.28204,817.5458,850.18317
1694297169.6950002,796.99634,811.9048,785.7143,827.619,963.8095
1694297169.6950002,804.2491,813.91943,788.1319,834.0659,868.71796
1694297169.696,802.23444,809.89014,788.93774,834.0659,773.22345
1694297169.697,797.3993,804.65204,788.93774,835.6777,854.61536
1694297169.697,799.011,804.65204,792.1612,838.9011,916.6667
1694297169.698,807.0696,809.4872,794.9817,838.49817,834.0659
1694297169.6990001,799.81683,803.0403,794.17584,836.8865,792.5641
1694297169.6990001,797.8022,800.2198,790.9524,840.9158,978.315
1694297169.7,803.8461,799.41394,791.3553,843.3333,1039.9634
1694297169.701,800.6227,797.3993,796.5934,840.5128,763.1502
1694297169.701,807.47253,799.41394,795.78754,842.9304,769.59705
1694297169.711,805.8608,800.6227,792.96704,849.7802,988.7912
1694297169.712,807.0696,799.011,794.9817,848.97437,914.65204
1694297169.7180002,805.8608,790.54944,790.54944,833.663,772.8205
1694297169.719,803.8461,790.54944,784.10254,822.7839,780.87915
1694297169.719,812.71063,795.38464,784.90845,826.8132,802.6374
1694297169.72,813.1135,795.38464,790.54944,841.31866,892.8938
1694297169.721,815.12823,799.41394,796.1905,845.7509,871.53845
1694297169.721,814.7253,800.2198,794.57874,833.663,825.2015
1694297169.722,810.293,800.2198,792.1612,830.84247,1072.6007
1694297169.723,806.6667,798.60803,793.36993,830.4396,963.4066
1694297169.723,811.50183,797.8022,798.60803,834.0659,825.2015
1694297169.724,809.0842,800.2198,798.20514,829.2308,903.7729
1694297169.7500002,799.81683,790.14655,793.7729,823.1868,867.1062
1694297169.7510002,790.54944,787.72894,796.99634,824.7985,867.50916
1694297169.752,791.3553,799.011,796.99634,823.1868,898.93774
1694297169.753,790.9524,799.41394,789.7436,820.3663,922.3077
1694297169.753,790.9524,797.8022,790.54944,823.5897,1063.7362
1694297169.754,797.8022,798.60803,789.34064,817.1429,915.4579
1694297169.755,801.02563,795.78754,784.90845,815.5311,765.16486
1694297169.756,796.5934,797.3993,786.9231,828.4249,971.4652
1694297169.757,796.1905,805.8608,790.14655,834.4689,1133.4432
1694297169.7580001,794.9817,803.0403,785.7143,819.9634,915.4579
1694297169.7580001,783.2967,796.1905,786.9231,820.7692,823.9927
1694297169.759,783.2967,795.38464,790.14655,823.5897,881.6117
1694297169.7910001,792.96704,797.3993,789.34064,819.9634,818.3516
1694297169.792,790.9524,808.2784,790.54944,815.12823,811.9048
1694297169.793,784.10254,809.0842,791.75824,816.337,879.59705
1694297169.793,781.28204,799.011,787.72894,813.5165,927.9487
1694297169.798,778.46155,794.57874,782.0879,803.8461,890.07324
1694297169.798,776.8498,795.38464,782.49084,805.4579,838.9011
1694297169.799,779.2674,797.8022,784.5055,813.5165,886.4469
1694297169.799,779.67035,797.8022,789.34064,824.3956,1156.8132
1694297169.8,782.49084,796.1905,791.75824,819.9634,1056.8865
1694297169.8,791.75824,801.02563,789.34064,810.293,778.46155
1694297169.8009999,789.7436,801.4286,788.1319,809.4872,828.8278
1694297169.8009999,792.1612,797.8022,792.1612,815.9341,952.52747
1694297169.836,782.49084,796.99634,795.78754,816.337,888.86444
1694297169.838,769.19415,795.78754,795.78754,813.1135,854.61536
1694297169.839,778.46155,799.41394,796.5934,812.3077,921.0989
1694297169.84,784.10254,799.41394,798.20514,810.293,937.619
1694297169.84,786.1172,796.5934,792.96704,804.65204,857.4359
1694297169.8409998,782.8938,794.9817,788.93774,798.20514,840.5128
1694297169.8419998,778.0586,794.57874,790.9524,797.3993,1006.9231
1694297169.8430002,779.2674,797.3993,793.36993,800.6227,1236.5934
1694297169.8430002,778.86444,799.011,796.1905,796.5934,893.69965
1694297169.844,778.46155,801.02563,792.1612,795.78754,767.1795
1694297169.845,775.2381,797.3993,792.5641,804.65204,965.82416
1694297169.845,776.04395,795.38464,799.81683,803.0403,919.89014
1694297169.91,783.69965,802.6374,800.6227,801.4286,835.2747
1694297169.911,777.6557,805.05493,796.99634,797.8022,830.0366
1694297169.911,770.40295,805.05493,798.20514,796.5934,854.61536
1694297169.912,771.2088,810.696,803.44324,807.0696,857.4359
1694297169.9129999,774.83514,813.1135,801.4286,805.05493,860.2564
1694297169.9129999,780.87915,811.0989,798.60803,800.6227,962.1978
1694297169.9180002,784.10254,808.68134,799.011,804.65204,1089.1208
1694297169.922,784.10254,810.696,799.011,809.0842,929.15753
1694297169.923,777.25275,812.71063,803.44324,810.293,777.6557
1694297169.924,776.8498,808.2784,803.44324,812.3077,865.4945
1694297169.925,774.83514,800.2198,796.99634,805.05493,1069.3773
1694297169.926,771.6117,801.02563,798.60803,795.78754,867.1062
1694297169.956,781.28204,815.12823,805.05493,800.6227,719.6337
1694297169.957,781.685,817.5458,807.47253,803.8461,924.7253
1694297169.957,779.2674,812.3077,802.23444,798.20514,1014.9817
1694297169.9580002,788.93774,816.7399,800.6227,793.7729,844.5421
1694297169.9580002,784.5055,815.5311,803.8461,797.3993,776.04395
1694297169.959,783.2967,813.91943,801.02563,794.17584,954.94507
1694297169.96,782.49084,815.5311,799.41394,786.52014,979.5238
1694297169.96,774.43225,815.12823,799.81683,780.4762,850.58606
1694297169.961,774.0293,809.89014,801.8315,783.2967,838.49817
1694297169.961,767.5824,810.293,803.8461,787.72894,992.01465
1694297169.962,767.98535,811.50183,800.6227,781.685,1015.78754
1694297169.962,776.4469,811.50183,796.1905,771.2088,861.8681
1694297169.997,786.1172,809.89014,800.6227,776.4469,905.78754
1694297169.999,788.93774,811.0989,803.8461,784.10254,992.8205
1694297169.999,786.9231,810.293,798.60803,778.46155,922.3077
1694297170.0,792.1612,807.0696,796.5934,770.40295,819.5604
1694297170.001,804.2491,811.0989,796.99634,774.0293,843.73627
1694297170.0019999,807.47253,813.91943,796.1905,781.685,994.83514
1694297170.003,799.41394,814.3223,798.60803,784.10254,949.304
1694297170.003,794.57874,814.7253,806.26373,791.75824,790.14655
1694297170.008,793.7729,812.3077,803.0403,793.36993,786.52014
1694297170.0089998,790.14655,814.7253,801.02563,795.78754,978.315
1694297170.0089998,776.04395,807.47253,799.81683,794.17584,842.9304
1694297170.01,774.0293,796.99634,794.9817,794.57874,720.0366
1694297170.035,776.04395,799.41394,792.1612,795.78754,778.0586
1694297170.036,782.8938,801.4286,795.38464,796.5934,793.36993
1694297170.037,779.2674,799.011,799.81683,801.8315,805.05493
1694297170.038,765.16486,793.7729,791.3553,799.41394,791.3553
1694297170.039,765.9707,794.9817,786.1172,805.4579,891.28204
1694297170.04,769.59705,804.65204,792.1612,808.2784,1241.8315
1694297170.041,767.1795,811.9048,803.44324,801.02563,1019.81683
1694297170.0419998,766.77655,807.47253,800.2198,801.4286,736.9597
1694297170.043,767.98535,801.8315,797.8022,807.0696,929.9634
1694297170.043,769.59705,804.2491,799.41394,805.8608,975.09155
1694297170.044,763.95605,804.65204,797.8022,796.5934,829.6337
1694297170.0449998,763.1502,809.89014,795.38464,791.3553,830.4396
1694297170.073,767.5824,813.91943,790.14655,793.7729,911.4286
1694297170.074,766.3736,803.44324,792.1612,795.78754,896.52014
1694297170.075,762.74725,794.17584,790.54944,799.41394,871.13556
1694297170.075,766.77655,801.02563,788.1319,796.1905,869.12085
1694297170.076,776.04395,815.12823,791.75824,792.5641,839.707
1694297170.076,772.01465,810.293,798.60803,789.7436,849.7802
1694297170.077,755.89746,801.8315,794.17584,776.04395,866.7033
1694297170.077,756.30035,811.0989,791.3553,781.685,929.9634
1694297170.078,765.56775,815.9341,792.96704,792.96704,1176.1538
1694297170.078,769.59705,811.50183,792.96704,784.5055,1066.9597
1694297170.0819998,772.01465,798.60803,791.75824,775.2381,818.7546
1694297170.0830002,769.59705,795.38464,795.38464,778.86444,816.337
1694297170.1169999,759.5238,800.2198,797.3993,780.87915,839.707
1694297170.119,761.53845,807.0696,797.8022,780.4762,898.1319
1694297170.12,762.74725,808.68134,798.20514,778.0586,800.2198
1694297170.12,756.30035,808.2784,803.8461,785.31134,816.7399
1694297170.121,763.1502,815.12823,813.91943,795.38464,948.49817
1694297170.122,760.7326,814.3223,796.5934,780.4762,900.54944
1694297170.1230001,753.8828,802.6374,786.9231,764.7619,777.25275
1694297170.124,738.97437,792.1612,792.5641,761.9414,958.97437
1694297170.125,731.7216,793.7729,792.5641,768.3883,1251.5018
1694297170.125,738.5714,801.4286,799.41394,763.95605,945.2747
1694297170.1260002,731.31866,796.99634,808.68134,755.09155,786.9231
1694297170.127,739.3773,802.6374,823.5897,767.1795,832.0513
1694297170.189,757.50916,807.8755,835.2747,780.87915,733.3333
1694297170.19,749.0476,783.69965,814.7253,771.2088,704.7253
1694297170.191,757.9121,789.34064,807.8755,774.0293,784.10254
1694297170.191,759.5238,809.4872,811.50183,774.0293,849.3773
1694297170.192,752.674,810.696,800.2198,759.92676,836.4835
1694297170.192,753.8828,796.1905,792.96704,754.68866,810.293
1694297170.1929998,750.2564,790.9524,791.75824,767.5824,915.4579
1694297170.1939998,755.09155,800.6227,801.02563,793.7729,1144.3224
1694297170.1939998,765.9707,800.2198,810.293,808.68134,1047.2161
1694297170.1950002,764.35895,794.17584,807.47253,802.23444,810.293
1694297170.1950002,761.9414,795.78754,803.8461,792.5641,874.7619
1694297170.196,776.04395,809.4872,799.41394,796.5934,976.7033
1694297170.232,779.2674,813.5165,795.38464,800.2198,799.41394
1694297170.233,766.77655,793.36993,789.7436,802.6374,805.05493
1694297170.234,773.6264,784.10254,788.1319,805.8608,911.8315
1694297170.2350001,780.87915,788.1319,800.6227,811.9048,971.8681
1694297170.2350001,788.1319,806.6667,807.0696,810.293,877.98535
1694297170.236,790.14655,820.3663,798.60803,805.05493,851.39197
1694297170.237,781.685,813.1135,791.75824,807.8755,1073.0037
1694297170.237,794.57874,819.15753,801.4286,825.6044,1165.6776
1694297170.2380002,791.3553,817.1429,804.65204,819.5604,892.49084
1694297170.239,777.25275,802.6374,788.93774,801.8315,793.36993
1694297170.239,774.83514,802.23444,790.9524,807.8755,866.7033
1694297170.24,770.80585,794.57874,790.54944,805.8608,852.6007
1694297170.2940001,784.10254,804.2491,797.3993,812.71063,794.57874
1694297170.295,788.93774,820.3663,804.2491,826.4103,824.7985
1694297170.296,780.87915,813.1135,791.75824,813.91943,927.9487
1694297170.296,774.0293,799.41394,790.54944,805.05493,869.5238
1694297170.297,767.5824,794.17584,799.011,809.0842,797.3993
1694297170.297,766.3736,796.5934,796.99634,808.68134,910.2198
1694297170.2979999,781.28204,807.47253,803.0403,811.0989,1012.1612
1694297170.2979999,784.90845,797.8022,803.44324,806.6667,884.83514
1694297170.299,771.2088,794.57874,791.75824,801.4286,747.03296
1694297170.299,775.2381,810.293,793.7729,815.9341,802.23444
1694297170.3,787.72894,812.71063,803.0403,831.6484,1107.6556
1694297170.3009999,781.685,803.0403,796.1905,819.5604,961.39197
1694297170.3270001,776.4469,806.6667,782.8938,799.011,786.1172
1694297170.328,785.7143,820.7692,788.93774,803.44324,964.61536
1694297170.332,785.7143,820.7692,796.1905,810.696,1000.07324
1694297170.333,774.0293,803.8461,792.1612,805.05493,898.93774
1694297170.334,787.326,807.47253,800.6227,811.50183,831.6484
1694297170.334,789.34064,814.7253,808.68134,819.15753,990.40295
1694297170.335,779.67035,813.91943,798.60803,819.5604,1250.6959
1694297170.335,784.90845,825.2015,802.6374,819.5604,925.5311
1694297170.336,774.0293,815.9341,799.011,803.8461,756.30035
1694297170.337,765.9707,806.6667,790.9524,788.93774,890.87915
1694297170.337,767.5824,806.6667,796.5934,793.7729,832.4542
1694297170.3379998,765.16486,801.02563,794.57874,801.8315,761.9414
1694297170.3830001,762.74725,801.8315,788.1319,804.2491,796.1905
1694297170.385,776.4469,813.91943,795.78754,815.9341,886.04395
1694297170.386,783.2967,822.381,807.8755,821.1722,897.326
1694297170.387,761.9414,809.4872,803.0403,799.011,836.8865
1694297170.388,767.98535,807.0696,799.81683,794.57874,848.97437
1694297170.389,780.4762,807.47253,801.02563,801.02563,929.5604
1694297170.39,774.0293,795.38464,797.8022,798.60803,959.7802
1694297170.392,782.0879,798.20514,799.81683,801.8315,950.10986
1694297170.393,791.3553,817.9487,804.2491,807.47253,899.7436
1694297170.3939998,782.49084,825.6044,801.8315,808.68134,1130.2197
1694297170.395,773.22345,817.1429,800.6227,808.2784,1020.2198
1694297170.396,785.31134,821.1722,809.89014,813.91943,753.0769
1694297170.449,794.57874,821.978,812.71063,813.91943,839.707
1694297170.4499998,803.8461,816.7399,810.696,815.12823,874.35895
1694297170.451,799.81683,812.71063,799.81683,808.2784,865.09155
1694297170.452,786.1172,813.1135,800.6227,805.8608,782.8938
1694297170.457,776.8498,822.381,809.0842,811.50183,900.54944
1694297170.458,775.64105,823.1868,800.6227,810.293,1163.2601
1694297170.459,773.22345,814.7253,796.99634,803.44324,940.0366
1694297170.46,773.6264,812.3077,805.8608,799.41394,768.3883
1694297170.461,780.4762,811.0989,806.6667,803.0403,960.58606
1694297170.463,785.31134,812.71063,808.68134,808.2784,1084.6886
1694297170.464,777.6557,809.4872,807.0696,805.4579,867.1062
1694297170.465,772.01465,808.2784,803.0403,801.4286,803.8461
1694297170.498,780.87915,815.9341,803.8461,805.4579,916.26373
1694297170.499,778.86444,810.696,798.20514,798.60803,822.381
1694297170.5,775.2381,803.0403,793.7729,792.96704,739.7802
1694297170.501,780.87915,807.0696,794.9817,800.6227,772.4176
1694297170.502,780.4762,811.9048,798.60803,802.23444,826.0073
1694297170.503,780.87915,816.7399,803.44324,800.6227,906.99634
1694297170.504,782.8938,821.978,809.0842,796.99634,855.0183
1694297170.504,787.326,821.5751,803.44324,794.57874,853.4066
1694297170.5049999,783.2967,819.15753,798.60803,802.23444,1132.2344
1694297170.5059998,772.4176,813.1135,797.3993,797.8022,1031.0989
1694297170.507,769.19415,813.91943,797.8022,792.1612,767.98535
1694297170.508,766.77655,815.5311,802.6374,797.8022,795.38464
1694297170.5089998,768.3883,812.3077,803.44324,799.41394,878.3883
1694297170.5100002,781.685,811.50183,804.2491,804.2491,907.3993
1694297170.5110002,776.4469,807.0696,805.8608,805.8608,862.674
1694297170.5110002,771.2088,801.02563,807.0696,800.2198,890.07324
1694297170.512,780.87915,807.47253,802.6374,801.8315,963.4066
1694297170.513,776.04395,812.71063,796.99634,804.65204,873.95605
1694297170.516,762.3443,803.0403,796.5934,796.1905,833.663
1694297170.517,764.35895,807.0696,796.99634,794.57874,966.63007
1694297170.517,763.1502,815.9341,797.8022,799.81683,1054.4689
1694297170.5180001,766.77655,811.0989,796.1905,789.34064,800.6227
1694297170.519,771.2088,809.89014,791.75824,792.1612,771.6117
1694297170.519,780.87915,808.68134,798.20514,802.23444,894.90845
1694297170.56,790.14655,803.8461,805.05493,800.6227,884.43225
1694297170.5609999,779.67035,810.696,801.02563,794.57874,808.68134
1694297170.5609999,765.9707,815.12823,795.78754,794.57874,853.00366
1694297170.5619998,761.53845,812.71063,789.34064,801.02563,957.76556
1694297170.5619998,767.1795,808.2784,794.9817,795.38464,899.34064
1694297170.563,769.59705,805.8608,799.41394,786.52014,914.2491
1694297170.564,763.1502,805.05493,788.1319,792.5641,943.663
1694297170.564,763.95605,804.2491,789.34064,796.99634,1069.7803
1694297170.5649998,767.98535,807.47253,796.99634,794.17584,939.6337
1694297170.5649998,765.56775,814.3223,796.1905,796.99634,784.90845
1694297170.5660002,769.59705,810.293,793.7729,798.20514,841.31866
1694297170.5660002,780.4762,813.1135,799.011,801.4286,815.5311
1694297170.611,770.80585,816.337,796.5934,796.1905,801.4286
1694297170.612,755.09155,809.4872,787.326,786.52014,830.4396
1694297170.613,762.3443,805.05493,791.75824,794.17584,861.4652
1694297170.614,766.3736,806.26373,795.38464,799.011,958.1685
1694297170.614,761.13556,804.65204,796.5934,792.5641,898.1319
1694297170.615,758.71796,799.41394,796.5934,782.8938,855.82416
1694297170.615,764.7619,801.4286,796.5934,783.69965,1088.3151
1694297170.616,777.25275,811.0989,803.44324,801.02563,1380.0366
1694297170.619,775.64105,815.5311,802.23444,799.81683,1160.0366
1694297170.62,769.19415,811.9048,787.326,784.5055,869.92676
1694297170.62,768.3883,809.89014,777.6557,783.2967,896.52014
1694297170.621,764.7619,809.0842,786.52014,778.86444,866.30035
1694297170.6790001,758.71796,805.4579,789.34064,772.01465,810.293
1694297170.68,761.53845,807.47253,786.52014,780.07324,841.31866
1694297170.68,763.5531,811.0989,793.36993,785.7143,874.35895
1694297170.681,773.6264,801.02563,797.8022,784.90845,857.8388
1694297170.682,782.0879,790.9524,797.8022,785.7143,762.3443
1694297170.684,771.2088,792.96704,788.5348,782.49084,854.61536
1694297170.685,770.0,807.0696,782.0879,789.7436,1143.5165
1694297170.686,772.8205,816.337,784.5055,794.9817,1031.9048
1694297170.686,779.67035,819.5604,794.17584,797.8022,793.7729
1694297170.687,784.5055,815.12823,792.5641,797.8022,802.6374
1694297170.688,780.07324,816.7399,787.72894,802.23444,957.76556
1694297170.689,775.64105,825.6044,792.96704,806.6667,913.8461
1694297170.7150002,764.7619,817.9487,796.1905,800.2198,786.1172
1694297170.716,765.16486,811.50183,794.9817,790.14655,871.53845
1694297170.717,773.22345,807.0696,795.38464,788.5348,986.3736
1694297170.7180002,775.2381,803.44324,792.1612,788.1319,823.5897
1694297170.719,770.40295,803.44324,782.8938,782.0879,777.6557
1694297170.72,762.74725,803.44324,782.8938,784.10254,906.99634
1694297170.721,774.83514,820.7692,792.1612,791.3553,960.989
1694297170.722,786.52014,822.381,792.1612,786.52014,816.7399
1694297170.722,778.86444,807.0696,784.5055,772.4176,779.67035
1694297170.723,792.5641,815.12823,787.326,774.83514,960.58606
1694297170.726,800.6227,813.91943,786.52014,775.64105,914.2491
1694297170.727,796.1905,811.50183,786.9231,774.83514,789.34064
1694297170.733,801.4286,818.3516,796.1905,783.69965,782.8938
1694297170.7340002,802.6374,818.7546,800.2198,801.8315,1037.1428
1694297170.7350001,797.8022,818.7546,800.6227,817.9487,1104.8352
1694297170.7350001,784.10254,815.5311,795.78754,811.9048,814.3223
1694297170.7350001,771.6117,813.1135,798.60803,808.68134,823.5897
1694297170.736,771.6117,816.7399,803.0403,807.0696,985.9707
1694297170.736,774.0293,815.12823,801.02563,799.41394,900.9524
1694297170.737,767.5824,813.5165,798.60803,798.60803,776.04395
1694297170.737,762.74725,815.12823,794.57874,799.81683,834.87177
1694297170.737,761.9414,811.50183,786.1172,800.2198,1089.9268
1694297170.738,770.80585,819.5604,790.9524,793.36993,936.0073
1694297170.738,783.2967,829.6337,801.8315,786.1172,747.03296
1694297170.773,784.90845,828.022,807.8755,798.20514,859.45056
1694297170.773,784.5055,824.7985,811.50183,809.89014,970.65936
1694297170.7740002,784.5055,816.7399,806.6667,797.8022,960.18317
1694297170.7740002,778.0586,811.0989,799.011,792.1612,826.8132
1694297170.7740002,772.4176,815.12823,802.6374,800.6227,919.89014
1694297170.775,770.0,814.3223,803.0403,794.57874,1103.6263
1694297170.775,769.19415,815.12823,798.60803,788.5348,956.55676
1694297170.775,778.0586,813.5165,797.8022,787.326,811.0989
1694297170.776,783.2967,814.7253,809.4872,790.54944,954.94507
1694297170.776,774.43225,818.7546,810.696,796.5934,1033.5165
1694297170.777,767.98535,815.12823,799.41394,792.1612,786.1172
1694297170.777,765.16486,811.50183,801.8315,790.14655,774.83514
1694297170.835,772.4176,811.50183,805.05493,793.36993,842.1245
1694297170.836,769.59705,809.0842,796.99634,787.326,787.326
1694297170.836,767.5824,817.9487,802.6374,790.9524,796.99634
1694297170.837,768.3883,816.337,806.6667,796.99634,963.4066
1694297170.837,765.16486,806.6667,804.2491,802.23444,1118.5348
1694297170.838,771.2088,813.1135,806.26373,801.02563,992.8205
1694297170.838,782.8938,824.3956,809.0842,795.38464,861.06226
1694297170.839,790.54944,820.3663,806.6667,799.011,855.0183
1694297170.839,777.25275,808.2784,793.7729,799.41394,1079.4506
1694297170.84,769.59705,808.2784,790.14655,792.1612,1017.8022
1694297170.84,777.6557,812.71063,791.75824,783.69965,845.34796
1694297170.8409998,775.2381,813.91943,793.36993,776.8498,804.65204
1694297170.8620002,778.46155,818.7546,802.6374,781.28204,820.3663
1694297170.8630002,776.8498,819.15753,803.0403,784.90845,858.24176
1694297170.864,771.6117,821.1722,799.41394,789.34064,765.9707
1694297170.865,769.19415,816.337,793.36993,787.326,826.0073
1694297170.865,776.8498,806.26373,798.20514,783.2967,896.52014
1694297170.866,783.2967,809.89014,810.293,790.9524,880.80585
1694297170.866,772.8205,816.7399,802.6374,786.9231,873.5531
1694297170.867,774.0293,819.9634,792.1612,779.2674,1085.4945
1694297170.867,774.83514,818.7546,795.78754,779.67035,1363.9194
1694297170.868,776.04395,817.9487,803.0403,775.2381,1085.4945
1694297170.868,775.2381,814.3223,801.4286,765.9707,782.0879
1694297170.869,770.80585,816.337,798.20514,767.98535,795.38464
1694297170.903,784.10254,820.3663,801.02563,780.07324,799.41394
1694297171.323,794.17584,812.71063,799.81683,791.75824,810.696
1694297171.3270001,777.6557,799.011,799.41394,783.69965,867.9121
1694297171.328,780.87915,804.2491,802.6374,790.9524,1108.8645
1694297171.37,778.86444,809.0842,798.20514,791.3553,987.98535
1694297171.372,784.5055,815.5311,796.1905,787.72894,852.6007
1694297171.372,783.2967,816.7399,794.9817,788.1319,937.2161
1694297171.373,781.685,820.7692,803.44324,795.38464,1021.4286
1694297171.374,788.5348,826.0073,811.50183,799.41394,859.85345
1694297171.374,791.3553,812.71063,806.26373,801.4286,813.1135
1694297171.375,784.90845,796.99634,801.02563,799.011,969.85345
1694297171.375,776.04395,804.65204,796.1905,790.54944,946.8865
1694297171.376,774.83514,817.9487,788.1319,785.7143,802.6374
1694297171.3769999,781.685,816.7399,793.7729,789.34064,769.59705
1694297171.3769999,774.43225,808.68134,798.20514,799.011,994.83514
1694297171.3779998,769.19415,804.65204,795.78754,800.6227,1131.8315
1694297171.436,773.6264,808.68134,792.96704,791.75824,821.5751
1694297171.437,769.19415,809.4872,796.1905,789.7436,747.8388
1694297171.4380002,772.01465,800.6227,795.78754,790.54944,834.4689
1694297171.4390001,770.80585,807.8755,792.5641,800.2198,808.68134
1694297171.44,773.6264,816.337,791.75824,805.8608,814.7253
1694297171.441,777.25275,807.47253,792.96704,798.60803,987.1795
1694297171.441,773.6264,805.8608,794.57874,796.5934,1218.4615
1694297171.442,779.2674,806.26373,789.34064,791.3553,1016.99634
1694297171.443,790.54944,811.50183,794.57874,793.36993,778.0586
1694297171.444,801.8315,818.3516,803.44324,803.44324,852.1978
1694297171.446,787.72894,812.71063,791.75824,796.5934,1031.0989
1694297171.447,779.67035,810.293,789.7436,788.5348,867.1062
1694297171.452,794.57874,811.50183,794.17584,787.326,737.3626
1694297171.4529998,790.9524,809.89014,792.96704,781.685,868.71796
1694297171.4540002,782.8938,807.0696,796.1905,790.14655,954.1392
1694297171.4540002,782.49084,795.78754,794.17584,791.75824,824.3956
1694297171.4550002,777.6557,796.5934,792.5641,782.49084,752.27106
1694297171.456,776.04395,806.6667,792.5641,784.90845,879.19415
1694297171.457,780.07324,807.0696,793.7729,785.31134,946.08057
1694297171.457,787.326,805.4579,792.1612,786.9231,879.19415
1694297171.458,792.5641,810.293,790.14655,784.5055,853.00366
1694297171.458,790.54944,809.4872,789.7436,779.67035,1008.93774
1694297171.459,792.5641,821.1722,797.3993,794.17584,1150.3663
1694297171.46,783.2967,821.5751,800.2198,789.34064,880.40295
1694297171.493,768.3883,803.0403,792.1612,779.67035,782.8938
1694297171.4950001,763.95605,798.60803,792.1612,786.9231,921.0989
1694297171.496,763.1502,799.81683,797.3993,790.54944,852.6007
1694297171.497,769.59705,804.2491,800.2198,801.02563,749.45056
1694297171.497,775.2381,803.44324,794.9817,805.8608,794.9817
1694297171.498,776.8498,807.0696,796.1905,810.696,930.7692
1694297171.498,779.2674,810.696,796.99634,805.4579,963.00366
1694297171.499,784.10254,808.68134,797.8022,794.9817,821.1722
1694297171.499,776.8498,811.9048,799.41394,796.1905,794.17584
1694297171.5,770.40295,811.9048,799.011,805.4579,990.40295
1694297171.501,772.8205,801.02563,798.60803,800.2198,903.36993
1694297171.501,778.46155,797.8022,803.0403,790.14655,822.7839
1694297171.527,775.64105,809.4872,807.47253,792.1612,864.68866
1694297171.528,767.1795,810.696,796.5934,786.9231,1065.751
1694297171.5310001,767.5824,810.293,799.011,782.49084,884.83514
1694297171.532,774.43225,814.7253,805.05493,790.9524,730.10986
1694297171.532,774.0293,807.0696,794.57874,783.2967,813.91943
1694297171.533,777.6557,809.4872,793.36993,778.0586,851.39197
1694297171.533,771.2088,809.0842,793.36993,778.86444,781.28204
1694297171.5340002,771.2088,801.8315,796.99634,781.685,727.6923
1694297171.5340002,771.6117,803.8461,799.011,780.87915,936.8132
1694297171.535,767.5824,804.2491,793.36993,780.07324,1078.6447
1694297171.535,771.2088,806.6667,794.9817,784.90845,844.1392
1694297171.536,768.3883,807.47253,798.20514,785.7143,763.1502
1694297171.563,769.19415,806.26373,798.20514,789.7436,812.71063
1694297171.564,774.43225,806.6667,796.5934,789.34064,870.32965
1694297171.564,774.83514,807.47253,796.5934,795.78754,841.7216
1694297171.5649998,775.2381,807.47253,792.1612,801.02563,814.7253
1694297171.5649998,783.2967,806.6667,794.9817,801.4286,920.696
1694297171.5660002,786.1172,809.89014,801.4286,800.6227,931.978
1694297171.5660002,783.69965,809.89014,801.02563,799.81683,880.40295
1694297171.5670002,784.5055,806.26373,797.8022,796.5934,852.1978
1694297171.568,782.8938,809.0842,796.1905,794.57874,1087.1062
1694297171.568,781.28204,821.1722,796.99634,791.75824,954.94507
1694297171.569,780.4762,819.9634,795.78754,786.52014,762.3443
1694297171.569,773.6264,809.4872,794.17584,784.10254,836.08057
1694297171.615,765.16486,809.4872,797.8022,786.9231,893.69965
1694297171.616,763.1502,811.50183,799.011,785.7143,861.4652
1694297171.6169999,772.4176,816.7399,804.65204,786.1172,783.2967
1694297171.6179998,782.49084,819.9634,818.3516,796.99634,877.5824
1694297171.6230001,777.25275,813.5165,813.1135,794.57874,1009.34064
1694297171.6230001,772.01465,808.68134,803.8461,786.52014,971.8681
1694297171.6230001,772.8205,810.293,803.44324,789.7436,955.7509
1694297171.624,782.49084,819.15753,802.6374,790.54944,1051.6483
1694297171.624,787.72894,820.3663,794.57874,786.52014,1236.9963
1694297171.625,795.78754,819.15753,797.3993,794.17584,972.27106
1694297171.625,791.75824,812.3077,799.011,796.5934,827.2161
1694297171.626,780.4762,807.0696,799.41394,788.93774,909.81683
1694297171.6790001,786.9231,809.89014,806.26373,794.17584,839.304
1694297171.681,788.5348,801.8315,804.2491,798.60803,760.7326
1694297171.681,784.10254,800.2198,796.1905,787.72894,820.3663
1694297171.682,785.7143,814.3223,801.4286,789.34064,927.9487
1694297171.682,786.1172,811.0989,800.6227,789.7436,902.5641
1694297171.683,788.5348,814.7253,792.1612,786.1172,846.1539
1694297171.683,792.5641,819.5604,792.1612,788.93774,900.14655
1694297171.684,784.10254,812.3077,792.5641,789.7436,985.56775
1694297171.685,788.5348,813.91943,796.99634,796.99634,918.2784
1694297171.685,791.75824,815.12823,802.23444,804.2491,819.15753
1694297171.686,780.4762,811.0989,798.60803,798.60803,828.4249
1694297171.686,784.5055,813.5165,799.81683,804.2491,1102.4176
1694297171.736,780.07324,809.0842,805.05493,807.47253,1064.9451
1694297171.737,780.4762,806.26373,811.50183,799.81683,872.3443
1694297171.738,789.7436,815.12823,814.3223,809.4872,904.57874
1694297171.739,786.1172,818.7546,803.0403,802.23444,924.7253
1694297171.739,781.685,810.293,798.20514,790.14655,789.34064
1694297171.74,781.685,808.68134,808.2784,799.41394,802.6374
1694297171.744,784.10254,816.7399,809.4872,808.68134,1066.1538
1694297171.745,777.6557,813.1135,801.4286,813.5165,1126.5934
1694297171.7459998,770.80585,808.2784,794.17584,799.81683,832.0513
1694297171.747,768.7912,805.8608,795.38464,789.7436,784.10254
1694297171.747,765.16486,806.6667,797.3993,791.75824,965.0183
1694297171.748,766.3736,812.3077,796.99634,785.7143,908.20514
1694297171.784,768.3883,808.2784,794.57874,782.49084,795.78754
1694297171.7849998,768.7912,803.0403,793.7729,786.9231,818.7546
1694297171.7859998,774.83514,808.68134,800.2198,792.1612,829.6337
1694297171.7859998,769.19415,817.5458,801.4286,798.60803,799.011
1694297171.7870002,758.315,810.696,797.3993,793.7729,770.40295
1694297171.788,772.01465,803.44324,796.5934,790.14655,850.989
1694297171.788,783.69965,809.0842,793.36993,797.3993,1106.8499
1694297171.789,779.67035,806.6667,790.9524,788.5348,950.9158
1694297171.7900002,787.72894,811.50183,796.1905,787.72894,757.9121
1694297171.7900002,792.1612,820.3663,800.2198,803.0403,813.91943
1694297171.7910001,784.10254,812.3077,792.5641,809.0842,826.8132
1694297171.7910001,776.8498,808.68134,792.5641,803.8461,824.7985
1694297171.8179998,782.8938,815.12823,803.44324,799.011,853.8095
1694297171.819,777.25275,811.50183,811.0989,802.6374,952.52747
1694297171.82,771.6117,802.23444,804.2491,803.8461,1131.0256
1694297171.8209999,782.49084,813.1135,798.60803,801.4286,943.2601
1694297171.822,779.2674,815.12823,796.99634,799.011,789.7436
1694297171.823,769.59705,810.293,792.5641,796.1905,953.3333
1694297171.824,765.16486,807.8755,791.75824,791.3553,974.2857
1694297171.825,770.40295,801.02563,801.4286,790.14655,834.4689
1694297171.8300002,775.64105,808.68134,804.65204,795.78754,773.22345
1694297171.831,774.0293,812.3077,795.78754,796.99634,955.34796
1694297171.832,778.46155,808.2784,802.6374,803.8461,1019.011
1694297171.833,786.9231,811.9048,811.9048,803.0403,763.95605
1694297171.867,782.8938,813.1135,805.8608,801.02563,751.4652
1694297171.868,772.8205,815.9341,803.0403,804.65204,855.0183
1694297171.8700001,772.4176,816.337,805.05493,796.1905,946.8865
1694297171.872,768.7912,812.3077,799.81683,790.9524,931.5751
1694297171.873,766.77655,811.9048,791.75824,799.41394,861.8681
1694297171.875,774.43225,810.293,795.38464,806.26373,1163.2601
1694297171.876,778.46155,814.3223,802.23444,803.8461,1133.4432
1694297171.876,773.6264,819.15753,799.41394,801.02563,845.34796
1694297171.8769999,768.7912,811.0989,795.78754,796.99634,896.52014
1694297171.8769999,780.4762,803.0403,794.9817,801.8315,1064.9451
1694297171.878,780.07324,807.0696,799.011,802.6374,900.54944
1694297171.878,763.5531,811.9048,799.011,790.9524,794.17584
1694297171.934,772.4176,818.3516,802.23444,795.78754,894.90845
1694297171.9350002,783.2967,817.5458,808.2784,801.8315,927.5458
1694297171.936,767.5824,806.26373,807.8755,790.54944,834.87177
1694297171.937,757.9121,806.6667,803.0403,788.93774,728.49817
1694297171.937,770.0,811.9048,803.44324,802.6374,822.7839
1694297171.938,781.28204,813.5165,810.293,813.1135,1024.249
1694297171.938,778.86444,811.9048,803.8461,806.26373,980.7326
1694297171.9390001,778.0586,814.7253,797.8022,800.6227,831.6484
1694297171.94,781.685,821.1722,797.3993,810.696,926.7399
1694297171.94,782.49084,813.5165,794.17584,816.337,1210.8059
1694297171.945,780.4762,809.89014,799.81683,810.696,1013.7729
1694297171.945,787.326,820.3663,805.4579,808.68134,813.1135
1694297171.976,794.57874,823.5897,804.2491,813.1135,874.35895
1694297171.977,793.7729,819.5604,803.0403,811.9048,817.5458
1694297171.978,791.3553,815.12823,804.65204,811.0989,770.80585
1694297171.978,786.52014,807.47253,804.2491,813.91943,821.978
1694297171.979,777.25275,809.4872,803.44324,803.44324,890.07324
1694297171.979,779.67035,820.3663,806.26373,801.8315,944.87177
1694297171.98,779.67035,817.9487,794.9817,796.1905,819.15753
1694297171.981,774.83514,816.7399,793.7729,787.326,810.696
1694297171.982,782.8938,824.7985,801.02563,795.78754,1183.8096
1694297171.982,787.72894,819.5604,787.326,796.99634,1136.2638
1694297171.983,787.72894,815.5311,793.7729,795.38464,849.3773
1694297171.984,790.14655,810.696,800.6227,799.41394,811.0989
1694297171.985,785.7143,807.8755,786.52014,798.20514,844.1392
1694297171.985,780.87915,813.1135,786.52014,793.7729,865.89746
1694297171.9859998,784.5055,820.3663,794.17584,794.57874,805.4579
1694297171.987,789.7436,821.978,811.50183,806.26373,867.50916
1694297171.987,786.52014,814.7253,813.1135,811.50183,936.8132
1694297171.988,782.49084,810.293,794.57874,802.6374,882.01465
1694297171.9889998,779.67035,814.3223,796.5934,799.41394,889.2674
1694297171.99,778.86444,815.5311,799.81683,803.44324,1008.93774
1694297171.9910002,781.28204,813.91943,794.9817,802.6374,1118.9377
1694297171.9910002,786.52014,815.5311,800.6227,795.78754,847.76556
1694297171.992,780.07324,813.91943,801.8315,795.78754,785.31134
1694297171.993,785.31134,812.71063,797.3993,797.8022,954.1392
1694297172.0470002,794.57874,818.3516,801.02563,799.81683,910.2198
1694297172.049,792.96704,820.3663,805.4579,803.44324,820.7692
1694297172.05,792.5641,813.91943,800.2198,800.2198,851.79486
1694297172.05,791.75824,812.3077,802.23444,802.6374,998.46155
1694297172.051,790.54944,805.4579,808.68134,806.26373,934.3956
1694297172.052,784.5055,800.6227,808.2784,805.05493,913.44324
1694297172.053,786.9231,804.65204,806.6667,799.81683,982.3443
1694297172.0540001,788.5348,807.47253,801.4286,797.8022,1119.3407
1694297172.0540001,777.6557,809.89014,797.8022,800.2198,985.9707
1694297172.055,777.25275,813.1135,799.41394,804.2491,791.3553
1694297172.055,780.4762,811.9048,795.78754,807.8755,843.3333
1694297172.056,776.4469,809.0842,794.17584,801.8315,855.42126
1694297172.1030002,778.0586,806.26373,797.8022,792.5641,833.2601
1694297172.104,779.2674,802.23444,797.8022,792.1612,830.84247
1694297172.105,784.90845,807.0696,794.17584,798.60803,1007.326
1694297172.105,791.75824,815.5311,795.38464,810.696,1266.8132
1694297172.106,786.1172,815.5311,798.20514,806.26373,1014.57874
1694297172.107,785.31134,813.91943,798.60803,794.9817,784.90845
1694297172.108,776.8498,811.50183,806.6667,798.20514,980.32965
1694297172.109,763.95605,808.68134,807.8755,803.0403,1083.4799
1694297172.109,759.12085,811.0989,805.05493,793.36993,828.8278
1694297172.1100001,761.13556,805.8608,807.0696,788.1319,761.9414
1694297172.111,764.7619,802.23444,806.6667,794.17584,837.28937
1694297172.112,761.53845,807.47253,798.60803,784.5055,810.293
1694297172.145,769.19415,814.3223,802.23444,781.685,801.8315
1694297172.146,787.72894,825.2015,813.91943,801.02563,859.85345
1694297172.151,778.46155,819.5604,804.65204,792.1612,880.80585
1694297172.151,762.74725,815.9341,798.20514,781.685,850.58606
1694297172.152,774.83514,824.7985,801.02563,792.5641,807.0696
1694297172.1529999,784.10254,826.4103,799.41394,796.5934,865.09155
1694297172.1529999,780.87915,817.9487,801.4286,797.3993,1186.63
1694297172.1539998,786.1172,812.3077,803.8461,799.81683,1122.5641
1694297172.155,790.14655,813.1135,794.9817,796.99634,779.67035
1694297172.156,781.685,813.1135,792.96704,794.9817,744.21246
1694297172.156,778.46155,810.293,799.81683,801.8315,806.26373
1694297172.1569998,785.31134,811.9048,799.81683,807.47253,819.5604
1694297172.1820002,792.96704,811.0989,800.2198,805.8608,793.7729
1694297172.183,793.7729,811.9048,799.81683,801.8315,877.1795
1694297172.184,792.1612,822.381,803.8461,803.0403,975.89746
1694297172.185,782.0879,819.15753,806.6667,800.2198,844.94507
1694297172.185,786.9231,813.5165,805.8608,800.6227,794.17584
1694297172.1859999,800.6227,817.9487,813.1135,808.2784,1002.8938
1694297172.1859999,796.99634,821.1722,811.0989,808.2784,1046.8132
1694297172.187,789.7436,821.1722,799.81683,792.96704,877.5824
1694297172.188,790.9524,815.9341,797.3993,784.10254,790.14655
1694297172.189,799.81683,813.1135,807.0696,797.3993,996.4469
1694297172.189,807.0696,820.3663,809.0842,810.696,1259.5604
1694297172.19,803.0403,819.9634,810.293,808.2784,967.4359
1694297172.2259998,786.52014,819.15753,808.2784,802.23444,797.8022
1694297172.228,770.80585,823.9927,804.65204,805.4579,818.3516
1694297172.2289999,768.3883,825.2015,809.0842,806.26373,770.80585
1694297172.2289999,770.40295,823.1868,811.0989,805.05493,753.47986
1694297172.234,772.01465,819.15753,810.696,809.4872,808.68134
1694297172.2350001,771.6117,818.3516,804.2491,801.02563,944.87177
1694297172.236,775.2381,818.3516,802.23444,796.5934,929.9634
1694297172.237,776.8498,809.4872,804.2491,802.6374,763.5531
1694297172.2380002,773.6264,810.696,804.2491,805.05493,776.4469
1694297172.239,770.0,814.7253,801.4286,808.2784,1162.8572
1694297172.239,775.2381,813.5165,803.44324,800.2198,1021.02563
1694297172.24,780.07324,814.3223,804.65204,793.36993,743.4066
1694297172.2710001,777.25275,813.5165,801.02563,800.2198,824.7985
1694297172.2710001,786.1172,819.5604,804.2491,811.50183,886.8498
1694297172.272,798.20514,823.1868,805.8608,814.7253,848.5714
1694297172.272,792.1612,810.696,803.8461,804.2491,771.6117
1694297172.273,779.67035,802.23444,799.41394,799.81683,853.4066
1694297172.274,761.53845,797.8022,790.14655,795.78754,996.4469
1694297172.274,758.71796,791.75824,789.7436,793.36993,936.0073
1694297172.275,765.56775,800.6227,797.3993,800.6227,815.9341
1694297172.276,766.3736,804.65204,796.99634,795.38464,1001.28204
1694297172.276,769.19415,808.68134,796.1905,794.17584,1197.9121
1694297172.277,774.0293,814.3223,803.0403,797.3993,896.9231
1694297172.277,784.10254,812.3077,808.68134,800.2198,816.337
1694297172.318,789.34064,810.293,807.8755,802.6374,985.9707
1694297172.319,785.31134,806.26373,802.23444,797.8022,873.95605
1694297172.319,784.90845,807.47253,803.44324,800.2198,760.32965
1694297172.32,788.1319,809.0842,807.47253,806.6667,790.54944
1694297172.32,793.7729,811.0989,812.71063,811.9048,815.12823
1694297172.3209999,777.25275,806.6667,805.8608,801.02563,873.1502
1694297172.323,766.3736,806.26373,799.41394,794.57874,857.4359
1694297172.324,768.7912,810.293,802.23444,793.7729,819.9634
1694297172.324,768.3883,803.8461,800.2198,796.5934,1065.348
1694297172.325,770.80585,797.8022,801.4286,800.6227,985.16486
1694297172.325,772.01465,807.8755,808.2784,803.44324,790.54944
1694297172.325,778.46155,818.7546,810.293,801.4286,822.381
1694297172.371,784.5055,812.3077,806.26373,798.20514,831.2454
1694297172.372,784.10254,809.4872,807.8755,799.41394,853.00366
1694297172.372,784.10254,809.0842,807.0696,801.4286,815.5311
1694297172.373,785.7143,809.89014,805.4579,804.2491,911.02563
1694297172.374,777.25275,811.50183,806.6667,799.81683,1102.4176
1694297172.375,773.6264,816.337,807.8755,794.57874,977.50916
1694297172.375,781.28204,814.7253,810.696,793.7729,817.1429
1694297172.376,785.31134,814.7253,810.293,801.02563,958.97437
1694297172.3769999,789.7436,815.9341,811.50183,806.26373,1110.4762
1694297172.3779998,789.34064,812.3077,810.696,795.38464,872.3443
1694297172.3779998,788.93774,807.47253,801.8315,792.1612,753.0769
1694297172.379,795.38464,806.6667,801.8315,799.011,819.5604
1694297172.42,794.17584,818.3516,807.47253,802.23444,819.15753
1694297172.421,790.14655,823.5897,805.05493,805.4579,796.1905
1694297172.4220002,788.93774,814.7253,799.81683,804.65204,806.6667
1694297172.423,780.87915,811.0989,794.17584,796.99634,826.4103
1694297172.423,781.685,810.293,789.7436,795.78754,788.1319
1694297172.424,789.7436,808.2784,794.9817,801.02563,787.72894
1694297172.425,784.5055,805.05493,802.23444,805.05493,902.1612
1694297172.4259999,775.64105,802.23444,801.8315,808.68134,1195.0916
1694297172.429,788.1319,805.05493,801.4286,809.4872,1124.9817
1694297172.43,795.38464,802.23444,795.78754,802.6374,833.2601
1694297172.431,788.93774,800.6227,792.96704,796.1905,804.65204
1694297172.431,788.5348,806.6667,794.17584,802.6374,831.6484
1694297172.471,801.4286,813.1135,799.41394,818.7546,903.36993
1694297172.472,801.4286,813.1135,805.05493,812.71063,911.02563
1694297172.473,778.86444,810.293,800.6227,801.4286,884.83514
1694297172.473,770.0,811.50183,795.78754,807.0696,978.315
1694297172.474,777.6557,808.68134,805.05493,802.6374,902.5641
1694297172.4750001,785.31134,805.4579,808.2784,798.20514,862.674
1694297172.4750001,789.7436,810.696,803.0403,809.89014,1037.1428
1694297172.476,783.2967,812.3077,801.02563,811.9048,1186.63
1694297172.476,766.3736,799.81683,801.4286,791.3553,951.31866
1694297172.477,769.19415,796.99634,803.44324,799.011,808.2784
1694297172.477,766.77655,803.44324,799.41394,813.1135,957.3626
1694297172.4780002,766.3736,803.44324,800.2198,805.05493,923.1135
1694297172.528,776.4469,801.4286,805.4579,805.4579,756.7033
1694297172.529,776.04395,801.4286,802.6374,806.6667,789.34064
1694297172.53,767.5824,799.81683,799.41394,799.81683,905.38464
1694297172.5310001,760.32965,800.2198,802.23444,800.6227,867.1062
1694297172.532,763.95605,801.8315,806.6667,803.0403,794.17584
1694297172.533,759.12085,805.05493,803.44324,799.011,815.9341
1694297172.533,761.9414,813.1135,807.0696,804.2491,1144.3224
1694297172.5340002,764.35895,810.293,806.26373,800.6227,1137.8755
1694297172.5340002,760.32965,806.26373,801.8315,794.17584,835.2747
1694297172.535,764.35895,808.68134,799.011,793.36993,824.3956
1694297172.54,764.7619,811.9048,797.3993,788.1319,832.8571
1694297172.541,774.43225,809.4872,806.26373,796.99634,788.93774
1694297172.5670002,772.01465,799.011,799.011,801.4286,754.2857
1694297172.569,765.56775,800.6227,792.5641,796.5934,939.6337
1694297172.57,768.7912,806.26373,792.96704,794.17584,1160.0366
1694297172.571,768.3883,813.1135,794.17584,784.90845,900.54944
1694297172.573,772.01465,817.5458,802.23444,786.52014,700.293
1694297172.5740001,777.25275,813.1135,805.8608,792.1612,909.41394
1694297172.575,779.67035,808.68134,801.4286,799.41394,996.04395
1694297172.576,779.67035,807.0696,799.81683,802.6374,806.26373
1694297172.5779998,774.83514,808.2784,799.41394,797.8022,751.4652
1694297172.579,769.19415,810.293,794.57874,800.2198,897.72894
1694297172.58,784.5055,817.5458,805.4579,809.0842,913.8461
1694297172.5809999,794.17584,821.978,807.8755,805.4579,790.14655
1694297172.614,796.5934,815.9341,801.4286,802.6374,857.03296
1694297172.615,795.38464,809.4872,800.2198,810.293,968.24176
1694297172.615,778.86444,813.91943,796.99634,809.89014,861.8681
1694297172.616,776.8498,817.9487,801.4286,807.8755,753.0769
1694297172.6169999,778.46155,812.71063,802.6374,813.1135,872.74725
1694297172.619,775.2381,811.50183,799.81683,815.12823,1214.8352
1694297172.621,773.22345,809.89014,799.41394,807.8755,1126.5934
1694297172.6220002,760.32965,801.02563,796.1905,794.9817,844.1392
1694297172.6230001,762.74725,800.6227,799.011,792.5641,855.42126
1694297172.624,781.28204,808.68134,801.8315,803.8461,1118.1318
1694297172.625,776.04395,811.9048,788.1319,800.2198,1007.326
1694297172.626,764.7619,805.8608,784.90845,789.34064,796.99634
1694297172.652,774.83514,808.2784,789.7436,792.5641,867.50916
1694297172.654,775.2381,815.5311,790.14655,801.4286,941.2454
1694297172.655,773.22345,814.7253,796.99634,805.8608,880.40295
1694297172.655,770.0,802.6374,795.78754,799.011,880.40295
1694297172.656,765.9707,795.78754,796.99634,796.1905,910.2198
1694297172.6569998,767.98535,800.6227,808.2784,804.65204,931.5751
1694297172.6579998,772.4176,805.4579,805.4579,799.41394,911.02563
1694297172.6590002,772.8205,809.4872,798.20514,791.3553,840.9158
1694297172.6590002,775.2381,809.89014,799.011,800.6227,956.9597
1694297172.66,782.8938,816.7399,807.8755,815.12823,1242.6373
1694297172.661,774.43225,817.5458,805.8608,803.44324,1002.8938
1694297172.6620002,773.6264,808.2784,794.17584,782.8938,744.61536
1694297172.7059999,780.4762,808.2784,797.3993,783.69965,854.21246
1694297172.707,775.2381,809.89014,800.2198,788.1319,853.8095
1694297172.708,776.4469,811.50183,802.6374,799.011,798.60803
1694297172.7089999,782.49084,819.5604,807.0696,801.4286,787.72894
1694297172.71,782.8938,819.15753,805.4579,800.2198,799.81683
1694297172.71,788.1319,811.9048,799.011,809.89014,895.31134
1694297172.711,788.93774,809.4872,793.36993,809.4872,871.9414
1694297172.711,780.07324,810.696,795.78754,805.4579,824.3956
1694297172.712,782.49084,817.1429,799.011,810.293,1142.7106
1694297172.7129998,782.49084,815.5311,794.9817,808.68134,1112.0879
1694297172.7129998,777.6557,804.2491,791.75824,800.6227,801.02563
1694297172.714,788.1319,805.8608,793.36993,802.6374,823.5897
1694297172.789,786.9231,810.696,792.5641,799.011,846.1539
1694297172.7900002,778.0586,811.50183,789.7436,795.78754,822.7839
1694297172.794,779.2674,812.71063,792.5641,796.1905,755.09155
1694297172.795,772.4176,807.0696,796.99634,797.3993,811.50183
1694297172.795,769.19415,806.6667,796.5934,806.26373,942.8571
1694297172.796,772.01465,810.293,791.3553,805.05493,910.6227
1694297172.8,774.0293,808.68134,794.17584,795.38464,806.26373
1694297172.8009999,779.67035,809.4872,799.011,799.41394,883.6264
1694297172.8009999,787.72894,814.3223,794.17584,801.02563,1128.608
1694297172.8019998,781.685,813.5165,789.7436,793.36993,956.1539
1694297172.8019998,775.2381,808.68134,789.34064,789.34064,838.9011
1694297172.803,776.04395,809.89014,795.38464,792.1612,949.304
1694297172.811,774.83514,806.26373,802.6374,801.02563,867.1062
1694297172.813,773.6264,802.6374,803.0403,803.8461,805.05493
1694297172.8140001,771.2088,807.8755,794.57874,805.4579,830.84247
1694297172.815,770.40295,811.0989,787.72894,803.44324,801.02563
1694297172.816,773.6264,809.4872,794.17584,801.02563,791.75824
1694297172.817,765.9707,809.4872,797.3993,800.6227,777.6557
1694297172.8179998,761.9414,814.3223,794.57874,798.20514,880.0
1694297172.819,771.6117,821.1722,792.5641,804.65204,1044.3956
1694297172.819,776.8498,816.337,794.9817,808.2784,928.3516
1694297172.82,780.07324,804.65204,796.99634,798.60803,834.87177
1694297172.8209999,779.67035,804.2491,793.7729,790.54944,894.10254
1694297172.8209999,767.1795,811.0989,794.57874,796.99634,1020.6227
1694297172.8470001,760.7326,812.3077,793.36993,796.1905,945.2747
1694297172.848,771.2088,810.696,792.1612,794.57874,854.21246
1694297172.85,779.2674,806.6667,796.99634,799.81683,924.7253
1694297172.851,771.6117,811.9048,800.6227,805.8608,1146.7399
1694297172.8569999,778.0586,819.9634,805.05493,803.8461,968.6447
1694297172.8579998,785.7143,813.1135,802.6374,801.02563,766.77655
1694297172.8579998,777.25275,813.1135,801.4286,808.2784,1014.9817
1694297172.859,782.0879,821.978,802.23444,815.9341,1119.7435
1694297172.859,780.87915,816.337,799.81683,805.8608,801.4286
1694297172.86,776.8498,805.05493,802.23444,799.011,709.9634
1694297172.86,778.86444,802.6374,797.8022,797.8022,819.9634
1694297172.8609998,769.19415,803.8461,797.8022,796.1905,808.2784
1694297172.895,762.74725,796.99634,800.6227,801.4286,735.34796
1694297172.896,769.19415,800.2198,798.60803,799.41394,793.7729
1694297172.8969998,767.5824,810.696,799.41394,800.6227,997.6557
1694297172.8969998,768.3883,811.50183,796.99634,798.60803,924.7253
1694297172.8979998,778.0586,813.5165,798.20514,798.20514,791.3553
1694297172.8990002,782.8938,819.15753,809.0842,818.3516,888.46155
1694297172.8990002,785.7143,818.7546,813.5165,821.978,1212.8206
1694297172.9,780.87915,814.7253,801.4286,799.81683,1007.326
1694297172.9,784.10254,814.7253,795.78754,794.17584,767.1795
1694297172.901,779.2674,815.9341,799.41394,796.99634,852.6007
1694297172.9020002,769.59705,814.3223,798.60803,794.9817,864.68866
1694297172.903,772.8205,817.1429,804.2491,805.4579,859.85345
1694297172.928,770.0,806.6667,805.05493,798.20514,814.7253
1694297172.9299998,761.9414,802.6374,801.02563,786.1172,919.0842
1694297172.931,767.5824,810.293,805.05493,804.2491,1101.6117
1694297172.932,775.64105,804.2491,805.4579,803.8461,950.5128
1694297172.9329998,776.4469,805.05493,801.4286,794.17584,787.326
1694297172.934,776.04395,815.9341,806.26373,802.23444,935.2015
1694297172.9390001,775.2381,825.2015,813.91943,815.9341,1195.4945
1694297172.9390001,775.2381,818.3516,809.89014,813.1135,998.46155
1694297172.94,778.86444,811.9048,805.05493,807.47253,817.5458
1694297172.94,779.67035,819.9634,803.0403,807.0696,888.86444
1694297172.941,782.8938,823.9927,799.81683,794.9817,839.304
1694297172.9420002,780.4762,814.7253,794.9817,782.49084,747.4359
1694297172.9750001,779.67035,811.50183,796.1905,790.54944,777.25275
1694297172.976,794.17584,818.3516,799.81683,805.05493,862.674
1694297172.976,807.0696,821.1722,802.6374,806.26373,850.58606
1694297172.976,800.2198,817.1429,799.41394,799.81683,797.3993
1694297172.977,794.9817,814.3223,796.1905,796.5934,822.7839
1694297172.978,799.81683,812.3077,795.38464,805.8608,973.8828
1694297172.978,800.6227,813.5165,800.2198,815.12823,987.1795
1694297172.979,792.96704,807.47253,799.011,803.8461,939.6337
1694297172.979,776.4469,799.011,791.3553,798.20514,895.31134
1694297172.98,761.53845,804.2491,795.78754,809.4872,1095.1648
1694297172.982,761.9414,810.696,798.60803,808.68134,1050.4396
1694297172.983,769.19415,815.9341,794.17584,805.8608,854.61536
1694297173.0110002,774.43225,812.3077,793.7729,803.0403,874.35895
1694297173.012,776.04395,815.9341,795.38464,805.8608,875.56775
1694297173.013,779.2674,816.337,796.99634,808.2784,857.8388
1694297173.013,782.8938,809.4872,801.8315,807.8755,781.685
1694297173.013,792.5641,815.9341,809.0842,814.3223,856.2271
1694297173.0140002,792.1612,814.3223,805.4579,806.26373,1062.5275
1694297173.0140002,778.0586,811.0989,805.05493,798.60803,963.4066
1694297173.015,780.07324,807.47253,803.44324,795.78754,803.0403
1694297173.018,790.9524,805.05493,793.36993,795.78754,923.1135
1694297173.019,782.0879,807.47253,796.5934,802.23444,1085.4945
1694297173.019,780.07324,805.05493,802.23444,800.6227,894.5055
1694297173.019,780.87915,809.0842,801.02563,797.8022,765.56775
1694297173.106,782.8938,818.7546,801.4286,795.38464,872.3443
1694297173.107,780.07324,822.7839,793.7729,787.72894,836.08057
1694297173.107,788.1319,818.7546,796.1905,793.7729,755.09155
1694297173.108,793.7729,813.1135,805.05493,799.011,815.5311
1694297173.109,786.1172,813.5165,802.6374,790.9524,825.6044
1694297173.1100001,780.4762,816.7399,802.23444,786.52014,822.7839
1694297173.111,784.90845,817.5458,806.6667,796.1905,828.8278
1694297173.111,784.10254,813.1135,795.78754,802.6374,833.2601
1694297173.112,778.46155,813.5165,792.96704,807.47253,1105.238
1694297173.113,778.86444,816.337,802.6374,807.0696,1037.1428
1694297173.1139998,772.8205,809.89014,803.0403,796.99634,748.6447
1694297173.115,772.8205,810.696,802.6374,796.1905,754.2857
1694297173.14,776.04395,815.12823,798.60803,801.02563,846.55676
1694297173.141,775.64105,816.7399,794.57874,801.8315,870.7326
1694297173.1420002,779.2674,819.5604,797.3993,800.2198,767.1795
1694297173.1420002,776.04395,815.12823,794.9817,795.38464,833.2601
1694297173.1430001,782.8938,813.91943,795.78754,801.02563,1106.8499
1694297173.144,784.10254,814.3223,797.8022,801.4286,935.2015
1694297173.144,779.67035,812.71063,792.1612,796.1905,780.07324
1694297173.145,781.685,817.9487,796.5934,799.81683,890.87915
1694297173.145,781.28204,819.5604,800.2198,800.6227,907.8022
1694297173.145,784.10254,827.619,803.0403,809.0842,791.75824
1694297173.149,781.685,826.0073,803.0403,807.47253,743.00366
1694297173.149,770.40295,812.3077,794.9817,804.65204,987.1795
1694297173.202,770.80585,811.0989,796.99634,809.0842,1215.641
1694297173.203,784.90845,814.3223,807.0696,803.0403,904.57874
1694297173.204,785.7143,809.0842,805.8608,800.6227,795.38464
1694297173.204,779.67035,804.65204,796.1905,799.41394,963.00366
1694297173.205,780.07324,809.0842,795.38464,794.9817,906.99634
1694297173.205,788.5348,812.71063,794.9817,797.3993,834.87177
1694297173.206,792.96704,805.05493,790.9524,791.3553,862.27106
1694297173.206,784.90845,807.47253,798.60803,789.34064,973.47986
1694297173.207,780.87915,815.12823,802.23444,792.96704,896.9231
1694297173.208,782.49084,814.3223,800.6227,796.99634,799.011
1694297173.208,774.83514,813.1135,801.8315,796.1905,828.4249
1694297173.2089999,784.10254,811.0989,809.89014,806.26373,1083.8828
1694297173.239,797.3993,821.1722,815.12823,818.7546,971.06226
1694297173.24,784.90845,818.7546,808.68134,811.0989,786.9231
1694297173.241,781.28204,810.293,807.8755,805.05493,884.43225
1694297173.241,784.90845,813.1135,802.6374,802.23444,998.86444
1694297173.2419999,785.7143,813.5165,800.2198,796.99634,904.9817
1694297173.2419999,786.1172,808.2784,806.6667,790.9524,805.4579
1694297173.243,780.87915,803.8461,804.2491,790.54944,1018.60803
1694297173.243,777.6557,810.293,801.8315,800.2198,1234.5787
1694297173.244,784.10254,810.293,800.6227,795.38464,954.94507
1694297173.244,781.28204,805.8608,799.011,784.10254,789.7436
1694297173.245,784.90845,810.293,798.20514,788.1319,923.91943
1694297173.245,796.5934,814.7253,797.8022,798.20514,891.685
1694297173.279,792.5641,818.3516,799.41394,799.81683,760.7326
1694297173.279,780.4762,819.9634,805.05493,794.17584,805.8608
1694297173.28,778.86444,813.5165,807.8755,793.7729,835.2747
1694297173.281,776.4469,808.2784,803.8461,795.38464,813.1135
1694297173.281,780.4762,815.9341,809.89014,801.4286,779.67035
1694297173.2819998,788.93774,813.5165,813.1135,807.8755,838.49817
1694297173.283,779.67035,800.2198,801.8315,809.4872,1116.1172
1694297173.283,768.3883,808.2784,798.20514,805.8608,996.4469
1694297173.284,774.0293,813.5165,798.60803,799.41394,729.707
1694297173.284,782.49084,809.4872,797.3993,793.36993,773.22345
1694297173.2849998,784.5055,811.9048,800.2198,803.44324,949.304
1694297173.2849998,785.31134,813.5165,800.6227,813.91943,844.1392
1694297173.323,779.2674,813.5165,794.17584,804.65204,735.34796
1694297173.325,770.40295,806.6667,784.10254,792.96704,861.4652
1694297173.3260002,770.80585,798.60803,785.7143,796.99634,963.8095
1694297173.3270001,780.4762,803.44324,794.9817,802.6374,847.76556
1694297173.3270001,778.0586,814.3223,799.41394,805.8608,796.5934
1694297173.328,769.59705,821.978,803.0403,806.6667,979.5238
1694297173.329,761.13556,817.9487,795.78754,794.57874,1074.6154
1694297173.329,759.12085,811.0989,787.326,781.28204,901.75824
1694297173.33,768.7912,813.91943,793.7729,790.54944,824.3956
1694297173.33,780.07324,821.5751,803.0403,804.65204,923.1135
1694297173.331,781.28204,823.1868,799.81683,810.696,960.58606
1694297173.332,771.2088,817.9487,795.78754,807.47253,853.00366
1694297173.375,771.6117,807.0696,797.8022,802.6374,757.1062
1694297173.376,776.04395,803.8461,801.02563,806.6667,878.3883
1694297173.379,776.8498,816.7399,807.0696,811.9048,921.0989
1694297173.38,782.0879,821.1722,805.4579,806.26373,788.5348
1694297173.38,781.685,816.7399,798.20514,796.5934,795.38464
1694297173.381,778.0586,811.9048,794.17584,796.5934,969.85345
1694297173.381,780.07324,813.1135,795.38464,801.8315,923.1135
1694297173.3820002,777.25275,817.5458,797.8022,800.2198,815.9341
1694297173.3830001,774.43225,815.12823,793.7729,795.78754,863.8828
1694297173.3830001,795.38464,813.91943,801.02563,802.23444,1074.6154
1694297173.384,798.60803,815.12823,808.68134,803.44324,935.2015
1694297173.384,780.07324,812.3077,799.41394,801.4286,805.4579
1694297173.4329998,772.4176,808.68134,794.9817,800.6227,942.4542
1694297173.4339998,763.95605,812.71063,795.78754,793.36993,1019.41394
1694297173.4339998,761.53845,815.9341,790.9524,794.57874,947.6923
1694297173.4350002,759.5238,811.50183,790.14655,791.75824,826.4103
1694297173.4350002,764.35895,808.68134,792.96704,791.75824,961.39197
1694297173.4350002,777.6557,809.4872,796.5934,805.4579,1304.2858
1694297173.436,780.07324,806.26373,796.99634,798.20514,1077.033
1694297173.437,782.49084,804.2491,797.8022,798.20514,838.9011
1694297173.437,779.67035,812.71063,794.9817,803.8461,940.84247
1694297173.437,773.6264,817.1429,794.9817,802.6374,949.304
1694297173.4380002,779.2674,814.7253,796.1905,805.4579,814.7253
1694297173.4380002,784.10254,818.3516,798.20514,805.05493,814.7253
1694297173.4659998,782.49084,817.5458,802.23444,796.99634,882.4176
1694297173.467,771.2088,815.5311,800.6227,788.93774,826.4103
1694297173.468,778.86444,814.7253,799.41394,792.1612,770.80585
1694297173.468,784.5055,814.3223,797.3993,795.78754,818.7546
1694297173.472,781.685,820.3663,797.8022,797.3993,841.7216
1694297173.473,786.1172,817.9487,796.99634,796.5934,865.09155
1694297173.473,778.0586,811.0989,796.99634,788.93774,846.9597
1694297173.474,772.01465,811.0989,804.2491,796.1905,788.93774
1694297173.474,787.326,819.5604,811.0989,817.9487,1079.4506
1694297173.4750001,789.7436,826.4103,808.68134,820.7692,1077.8389
1694297173.4750001,779.2674,821.5751,808.2784,807.47253,782.0879
1694297173.476,767.5824,809.89014,811.50183,799.41394,763.5531
1694297173.4780002,765.16486,813.1135,807.47253,795.38464,830.84247
1694297173.4780002,767.5824,820.7692,802.6374,795.78754,922.71063
1694297173.479,767.5824,812.71063,801.02563,795.78754,864.68866
1694297173.48,761.9414,810.293,801.8315,797.8022,867.1062
1694297173.481,759.5238,807.8755,799.011,795.38464,943.663
1694297173.481,767.98535,807.8755,798.60803,787.72894,831.2454
1694297173.4819999,774.0293,809.89014,801.02563,793.7729,783.69965
1694297173.483,774.83514,804.65204,802.23444,805.4579,943.663
1694297173.483,780.87915,811.9048,803.0403,813.1135,1237.8022
1694297173.484,786.1172,821.1722,805.05493,811.50183,976.30035
1694297173.485,769.59705,810.293,801.02563,796.1905,734.1392
1694297173.485,760.32965,806.26373,797.3993,792.96704,844.94507
1694297173.529,776.04395,811.0989,801.8315,800.6227,844.94507
1694297173.53,777.6557,808.2784,803.44324,803.0403,799.011
1694297173.5310001,763.5531,800.6227,802.6374,799.41394,805.8608
1694297173.532,768.7912,805.4579,807.47253,796.99634,826.8132
1694297173.533,784.10254,813.1135,807.0696,800.2198,802.6374
1694297173.5340002,771.2088,806.26373,797.3993,801.8315,813.91943
1694297173.5379999,765.56775,800.6227,793.7729,799.011,958.5714
1694297173.5379999,777.6557,801.8315,796.99634,801.8315,1166.4835
1694297173.539,773.22345,808.2784,799.81683,805.8608,1033.9194
1694297173.539,778.46155,821.978,807.8755,811.50183,802.23444
1694297173.54,786.9231,824.7985,807.8755,818.7546,860.65936
1694297173.54,775.2381,814.3223,796.99634,817.9487,1037.1428
1694297173.6230001,775.64105,806.26373,795.38464,804.2491,929.15753
1694297173.624,777.6557,805.05493,794.57874,793.36993,835.2747
1694297173.625,779.67035,812.71063,794.57874,799.41394,848.1685
1694297173.626,784.5055,819.15753,799.81683,811.50183,959.3773
1694297173.627,774.0293,815.5311,797.3993,805.4579,867.9121
1694297173.627,778.86444,815.12823,794.17584,801.4286,753.47986
1694297173.628,786.52014,821.5751,792.96704,799.41394,943.2601
1694297173.629,782.0879,820.3663,790.54944,796.99634,1107.2528
1694297173.63,786.1172,818.3516,796.99634,801.4286,886.04395
1694297173.63,779.67035,816.7399,804.2491,798.60803,856.2271
1694297173.631,771.6117,811.0989,800.6227,796.1905,922.71063
1694297173.632,774.83514,800.6227,796.99634,799.011,879.59705
1694297173.666,782.8938,806.6667,793.7729,797.3993,877.1795
1694297173.667,787.72894,808.2784,796.99634,799.81683,834.0659
1694297173.669,786.1172,803.8461,799.41394,809.4872,952.52747
1694297173.67,784.10254,810.696,794.9817,807.8755,916.6667
1694297173.671,784.90845,819.5604,799.011,803.8461,745.0183
1694297173.671,784.5055,818.7546,795.78754,802.6374,846.1539
1694297173.672,775.64105,809.89014,792.96704,801.4286,1171.3187
1694297173.6729999,776.8498,810.696,799.81683,801.8315,1065.348
1694297173.6780002,790.14655,814.7253,802.6374,797.8022,790.9524
1694297173.6790001,783.69965,813.1135,797.8022,784.90845,782.49084
1694297173.6790001,778.46155,813.5165,798.60803,789.34064,954.5421
1694297173.68,784.10254,809.89014,799.81683,796.99634,915.4579
1694297173.707,782.49084,812.71063,799.011,796.5934,780.07324
1694297173.7089999,781.685,817.1429,805.4579,796.1905,922.71063
1694297173.71,769.59705,813.5165,803.0403,793.36993,1055.6776
1694297173.71,753.8828,800.6227,792.5641,788.5348,879.19415
1694297173.711,760.7326,794.17584,796.5934,790.54944,780.87915
1694297173.712,770.80585,803.8461,804.65204,804.65204,931.1722
1694297173.7129998,777.6557,811.9048,804.65204,811.0989,939.6337
1694297173.7129998,784.10254,810.293,804.2491,802.6374,785.7143
1694297173.714,778.0586,807.8755,807.47253,796.5934,696.26373
1694297173.714,772.8205,812.3077,810.696,801.4286,894.10254
1694297173.7150002,770.80585,814.3223,806.26373,809.4872,1209.597
1694297173.7150002,770.80585,811.9048,807.47253,805.05493,938.4249
1694297173.723,771.2088,808.2784,811.0989,799.81683,781.28204
1694297173.724,772.4176,802.6374,807.0696,788.93774,870.32965
1694297173.725,774.43225,804.65204,806.26373,789.7436,863.0769
1694297173.725,774.83514,815.9341,806.26373,798.20514,881.6117
1694297173.726,771.6117,818.3516,805.8608,793.36993,884.43225
1694297173.726,774.0293,817.1429,811.50183,790.9524,935.2015
1694297173.727,773.22345,813.5165,809.0842,787.72894,929.15753
1694297173.727,766.77655,807.47253,794.17584,780.4762,823.1868
1694297173.728,774.0293,803.0403,788.5348,783.69965,842.1245
1694297173.7289999,777.6557,804.65204,792.5641,784.90845,1005.31134
1694297173.733,776.04395,811.9048,794.9817,779.67035,935.2015
1694297173.733,782.49084,818.7546,797.3993,783.69965,797.8022
1694297173.755,790.9524,819.15753,801.02563,789.34064,896.9231
1694297173.756,794.57874,814.7253,794.17584,795.78754,1257.9487
1694297173.757,796.1905,816.337,788.1319,797.3993,1132.6373
1694297173.7580001,796.1905,821.978,800.6227,791.75824,812.71063
1694297173.759,793.36993,819.9634,804.2491,791.3553,794.9817
1694297173.76,779.67035,805.05493,792.5641,789.34064,866.7033
1694297173.76,764.35895,801.4286,790.9524,789.34064,821.1722
1694297173.761,758.315,807.47253,792.5641,795.78754,762.3443
1694297173.761,762.74725,807.8755,793.7729,802.6374,952.1245
1694297173.7619998,766.3736,806.26373,798.60803,801.02563,1170.5128
1694297173.763,760.32965,805.4579,801.4286,794.9817,911.4286
1694297173.763,762.3443,814.7253,801.8315,797.8022,796.1905
1694297173.8209999,760.7326,817.9487,802.6374,796.99634,895.7143
1694297173.822,757.50916,815.9341,802.6374,786.1172,820.3663
1694297173.823,755.4945,815.5311,799.81683,782.49084,776.8498
1694297173.823,759.92676,811.50183,798.60803,783.2967,799.81683
1694297173.824,765.16486,801.02563,798.20514,787.326,844.5421
1694297173.825,761.53845,804.2491,795.38464,789.34064,869.5238
1694297173.825,763.1502,814.7253,793.7729,785.31134,807.8755
1694297173.826,766.3736,813.91943,791.75824,789.7436,775.64105
1694297173.826,764.35895,811.0989,788.1319,790.9524,1045.2014
1694297173.8270001,769.19415,816.337,794.17584,791.75824,987.5824
1694297173.828,774.83514,817.5458,803.8461,793.7729,810.696
1694297173.828,782.0879,817.1429,805.4579,790.54944,873.95605
1694297173.8569999,784.90845,818.7546,800.2198,790.9524,957.76556
1694297173.8579998,776.8498,809.89014,794.9817,788.5348,923.5165
1694297173.859,778.0586,808.2784,796.99634,788.5348,804.65204
1694297173.859,777.25275,816.7399,796.99634,797.8022,875.16486
1694297173.86,769.59705,816.337,792.1612,796.99634,971.8681
1694297173.86,773.22345,821.978,799.41394,796.1905,932.381
1694297173.8609998,780.4762,824.3956,804.65204,795.38464,904.17584
1694297173.8609998,778.0586,815.12823,800.6227,796.5934,950.9158
1694297173.8620002,781.28204,815.12823,801.02563,803.0403,1052.0513
1694297173.8630002,786.9231,818.3516,806.26373,802.23444,868.315
1694297173.8630002,783.2967,815.9341,805.05493,794.17584,805.8608
1694297173.864,774.43225,816.7399,797.8022,788.93774,885.64105
1694297173.921,772.4176,814.7253,797.8022,788.5348,846.55676
1694297173.922,778.0586,811.0989,799.011,793.36993,809.4872
1694297173.923,775.2381,811.0989,797.3993,799.81683,852.6007
1694297173.924,773.6264,814.3223,797.8022,802.6374,992.4176
1694297173.925,786.9231,817.9487,801.8315,802.6374,923.91943
1694297173.926,790.14655,821.978,797.8022,795.78754,804.65204
1694297173.926,789.7436,821.1722,796.1905,795.38464,875.56775
1694297173.927,782.0879,812.3077,794.17584,795.38464,1107.6556
1694297173.927,776.04395,814.7253,791.75824,793.36993,998.0586
1694297173.928,776.04395,816.337,789.34064,784.90845,784.10254
1694297173.929,768.3883,808.2784,789.7436,778.86444,794.9817
1694297173.929,770.80585,807.8755,796.1905,786.9231,827.2161
1694297173.9580002,772.01465,811.50183,800.2198,792.96704,867.9121
1694297173.959,760.7326,812.3077,805.8608,793.7729,863.0769
1694297173.964,765.16486,810.293,799.011,790.9524,871.13556
1694297173.965,775.64105,808.2784,795.78754,796.5934,1002.49084
1694297173.965,772.01465,806.26373,797.3993,796.99634,886.04395
1694297173.966,782.0879,813.1135,794.17584,798.20514,828.8278
1694297173.967,787.326,817.1429,793.7729,803.44324,1036.7399
1694297173.968,781.685,812.71063,797.8022,796.99634,1021.4286
1694297173.9689999,787.326,815.5311,804.65204,790.14655,854.21246
1694297173.9689999,787.72894,822.7839,804.2491,794.17584,782.8938
1694297173.9699998,774.83514,817.9487,796.1905,792.96704,941.6484
1694297173.9699998,768.7912,807.8755,792.96704,790.9524,1256.337
1694297174.051,773.22345,812.3077,799.81683,786.1172,991.2088
1694297174.052,782.49084,814.7253,805.4579,783.2967,760.32965
1694297174.053,782.0879,812.71063,801.4286,789.7436,856.2271
1694297174.053,777.25275,815.12823,803.44324,803.8461,851.79486
1694297174.0540001,781.685,814.3223,807.8755,803.8461,827.2161
1694297174.055,780.07324,814.7253,805.05493,796.5934,911.4286
1694297174.055,770.40295,810.293,804.2491,801.8315,1158.022
1694297174.056,778.46155,814.7253,810.696,806.26373,1042.381
1694297174.056,775.2381,815.9341,805.05493,797.3993,819.15753
1694297174.057,758.315,807.47253,796.1905,792.5641,856.2271
1694297174.0579998,756.30035,807.47253,792.5641,798.20514,1003.2967
1694297174.059,756.7033,809.4872,796.1905,793.36993,875.56775
1694297174.085,754.2857,810.293,804.65204,789.34064,713.9927
1694297174.0860002,759.92676,809.4872,801.02563,790.14655,854.61536
1694297174.0870001,769.19415,809.0842,798.60803,798.60803,1001.28204
1694297174.088,766.3736,813.1135,798.20514,794.17584,806.6667
1694297174.092,770.40295,814.3223,804.65204,792.5641,725.6777
1694297174.093,782.0879,813.91943,812.3077,805.05493,930.3663
1694297174.093,776.4469,814.3223,810.293,811.50183,1030.6959
1694297174.094,775.2381,814.3223,801.02563,810.696,898.1319
1694297174.094,781.685,813.5165,799.011,806.6667,807.8755
1694297174.095,773.22345,813.91943,802.23444,801.8315,963.8095
1694297174.095,770.40295,811.50183,799.41394,795.38464,990.80585
1694297174.096,779.2674,812.3077,803.8461,806.26373,832.8571
1694297174.1030002,777.25275,813.5165,803.0403,810.696,825.6044
1694297174.104,768.7912,808.68134,797.8022,806.6667,945.6777
1694297174.104,762.74725,812.3077,799.81683,803.8461,895.31134
1694297174.105,774.0293,824.7985,806.6667,803.8461,774.83514
1694297174.106,774.0293,817.5458,806.26373,803.0403,837.28937
1694297174.106,762.3443,807.8755,796.1905,801.02563,1083.0769
1694297174.107,765.9707,815.5311,796.99634,802.23444,988.7912
1694297174.107,771.2088,815.12823,805.05493,805.8608,809.4872
1694297174.108,762.74725,805.05493,799.011,801.02563,825.6044
1694297174.109,757.50916,802.6374,798.20514,801.4286,1032.7106
1694297174.109,769.19415,801.8315,799.011,803.8461,926.337
1694297174.1100001,778.0586,801.02563,796.99634,800.6227,824.3956
1694297174.149,777.6557,803.44324,802.6374,803.8461,888.46155
1694297174.15,780.4762,813.91943,811.0989,811.50183,875.9707
1694297174.15,774.0293,809.89014,807.0696,806.26373,865.09155
1694297174.151,761.53845,798.20514,798.20514,796.99634,790.9524
1694297174.152,765.56775,803.0403,796.99634,797.3993,858.6447
1694297174.152,774.0293,806.6667,796.1905,803.0403,1197.9121
1694297174.155,774.83514,805.8608,800.2198,802.23444,964.21246
1694297174.1569998,770.0,802.6374,797.3993,791.3553,703.91943
1694297174.1569998,773.6264,801.8315,792.96704,794.57874,867.9121
1694297174.1580002,781.685,802.6374,797.3993,806.6667,921.9048
1694297174.1580002,779.67035,806.6667,800.6227,803.0403,787.72894
1694297174.1580002,775.2381,807.47253,801.02563,804.65204,741.39197
1694297174.207,780.07324,803.0403,799.41394,806.26373,797.3993
1694297174.207,776.8498,803.0403,792.1612,794.57874,848.97437
1694297174.208,771.2088,806.6667,787.326,786.9231,874.7619
1694297174.2089999,780.4762,809.0842,792.5641,787.326,860.2564
1694297174.2099998,784.5055,815.5311,798.20514,796.5934,1014.9817
1694297174.2099998,777.25275,813.91943,794.9817,796.99634,987.5824
1694297174.211,771.6117,806.6667,789.7436,797.3993,823.5897
1694297174.211,779.67035,810.696,798.60803,803.8461,838.49817
1694297174.212,782.8938,817.5458,810.293,811.9048,1083.8828
1694297174.212,776.4469,812.3077,803.44324,806.6667,1027.8755
1694297174.2129998,774.0293,804.65204,792.1612,793.7729,817.9487
1694297174.2129998,777.6557,809.89014,793.7729,797.3993,853.4066
1694297174.237,775.64105,805.4579,788.93774,794.9817,853.4066
1694297174.2380002,772.4176,802.6374,784.10254,791.3553,817.1429
1694297174.239,773.22345,808.68134,786.52014,792.1612,797.8022
1694297174.239,778.46155,808.2784,793.7729,798.60803,836.4835
1694297174.24,781.28204,805.05493,796.5934,811.0989,861.4652
1694297174.24,790.9524,807.8755,797.8022,812.3077,888.86444
1694297174.241,789.34064,806.6667,792.1612,801.8315,846.9597
1694297174.241,780.4762,796.5934,786.1172,796.1905,891.28204
1694297174.245,784.90845,805.8608,799.011,807.8755,1239.414
1694297174.245,781.28204,819.9634,807.0696,812.3077,1130.2197
1694297174.246,767.98535,809.89014,793.7729,797.8022,845.34796
1694297174.247,761.13556,800.6227,784.90845,790.14655,863.8828
1694297174.274,764.7619,803.8461,788.5348,790.14655,809.4872
1694297174.275,769.19415,809.0842,792.1612,787.326,763.1502
1694297174.276,772.4176,809.4872,792.1612,792.96704,812.71063
1694297174.276,777.25275,803.8461,796.1905,801.4286,851.79486
1694297174.277,779.67035,805.4579,797.8022,801.02563,846.1539
1694297174.278,780.87915,808.68134,801.02563,804.65204,840.10986
1694297174.278,776.8498,806.26373,804.65204,798.20514,870.32965
1694297174.279,770.0,801.8315,797.8022,792.5641,1173.7362
1694297174.279,776.04395,806.26373,794.57874,796.1905,1159.2307
1694297174.28,780.4762,813.5165,801.8315,796.5934,812.3077
1694297174.28,775.64105,810.293,797.3993,794.17584,740.989
1694297174.281,779.2674,808.68134,796.1905,790.9524,751.8681
1694297174.373,783.2967,817.1429,803.8461,799.41394,796.99634
1694297174.374,775.2381,815.12823,799.41394,791.3553,820.3663
1694297174.374,763.1502,800.6227,788.93774,776.8498,862.674
1694297174.375,770.40295,801.4286,787.72894,783.69965,935.2015
1694297174.376,771.6117,800.6227,794.57874,777.25275,807.47253
1694297174.376,764.7619,799.011,801.4286,772.4176,796.99634
1694297174.3769999,773.22345,807.0696,804.2491,789.7436,1017.3993
1694297174.3779998,773.6264,798.20514,794.17584,794.57874,1194.6886
1694297174.3779998,767.1795,792.1612,789.34064,778.86444,925.9341
1694297174.379,767.5824,798.20514,792.1612,779.2674,813.91943
1694297174.3830001,768.7912,799.81683,779.67035,785.31134,982.3443
1694297174.384,771.6117,803.0403,763.5531,785.31134,938.8278
1694297174.415,779.67035,809.89014,768.7912,789.7436,839.707
1694297174.416,780.87915,808.2784,777.25275,787.326,862.674
1694297174.4169998,780.07324,804.2491,778.86444,789.7436,890.87915
1694297174.418,782.8938,803.0403,781.685,796.5934,848.5714
1694297174.4190001,785.31134,802.23444,778.0586,798.60803,790.9524
1694297174.4190001,780.4762,807.47253,782.0879,806.26373,947.6923
1694297174.42,776.8498,808.2784,790.14655,814.3223,1222.0879
1694297174.421,774.43225,803.0403,781.28204,803.44324,1010.54944
1694297174.421,772.8205,802.6374,776.04395,793.36993,813.5165
1694297174.4220002,781.685,800.6227,786.9231,796.1905,844.5421
1694297174.4220002,775.64105,797.3993,791.75824,792.96704,854.61536
1694297174.423,768.3883,798.60803,790.14655,786.1172,846.9597
1694297174.424,775.2381,805.4579,788.93774,784.90845,772.8205
1694297174.425,764.35895,803.44324,787.72894,782.8938,857.03296
1694297174.4259999,765.56775,804.2491,787.72894,794.57874,1161.6483
1694297174.427,778.46155,807.8755,786.9231,796.99634,1030.2931
1694297174.427,778.0586,807.0696,788.1319,793.7729,799.011
1694297174.428,785.31134,805.8608,790.9524,802.6374,898.1319
1694297174.429,782.0879,803.44324,795.38464,805.4579,950.10986
1694297174.429,774.0293,803.8461,798.20514,801.4286,842.1245
1694297174.43,778.46155,802.6374,794.17584,799.011,801.4286
1694297174.43,763.1502,790.14655,785.31134,798.60803,956.55676
1694297174.431,758.315,795.38464,787.326,794.9817,1008.1319
1694297174.432,766.3736,807.8755,792.5641,790.9524,824.3956
1694297174.479,763.1502,805.8608,789.7436,789.7436,835.2747
1694297174.48,771.6117,804.2491,785.7143,786.9231,882.4176
1694297174.48,783.69965,809.0842,787.72894,787.72894,838.0952
1694297174.481,792.1612,809.89014,791.75824,790.54944,802.23444
1694297174.481,794.17584,806.26373,787.72894,790.54944,810.293
1694297174.4819999,792.1612,807.47253,788.1319,802.23444,1114.1025
1694297174.4819999,789.34064,807.47253,793.36993,806.6667,1109.6703
1694297174.483,786.52014,807.47253,794.9817,794.57874,819.5604
1694297174.484,775.64105,804.2491,790.14655,790.9524,824.7985
1694297174.485,773.6264,806.26373,789.34064,799.011,1010.14655
1694297174.485,777.6557,809.89014,790.14655,797.8022,886.4469
1694297174.486,779.67035,811.0989,786.9231,792.1612,761.13556
1694297174.552,787.326,813.1135,787.326,794.9817,817.9487
1694297174.553,794.9817,815.12823,795.78754,802.6374,858.24176
1694297174.554,788.1319,816.7399,797.3993,801.02563,839.304
1694297174.554,780.4762,811.50183,790.14655,793.36993,795.78754
1694297174.555,790.9524,809.4872,788.5348,795.78754,867.50916
1694297174.556,795.78754,814.3223,791.3553,799.81683,1047.619
1694297174.556,790.54944,814.7253,790.54944,796.5934,1058.0952
1694297174.557,782.8938,805.8608,793.7729,790.14655,904.17584
1694297174.557,780.4762,805.05493,794.17584,791.75824,963.4066
1694297174.558,788.5348,811.9048,790.9524,798.20514,1256.7399
1694297174.558,797.8022,813.91943,795.38464,792.1612,991.2088
1694297174.559,799.011,815.12823,794.17584,787.72894,740.989
1694297174.608,792.5641,815.9341,794.17584,784.5055,815.12823
1694297174.609,799.011,813.5165,795.78754,788.1319,810.293
1694297174.614,798.60803,809.4872,796.5934,800.2198,779.67035
1694297174.615,781.28204,803.8461,799.81683,805.8608,815.12823
1694297174.616,770.0,800.6227,797.8022,806.26373,867.50916
1694297174.616,771.2088,806.26373,803.44324,812.3077,924.7253
1694297174.6169999,771.6117,810.696,805.8608,815.5311,930.7692
1694297174.6179998,777.25275,809.0842,795.78754,808.68134,861.8681
1694297174.6179998,770.80585,802.23444,792.5641,807.8755,1137.4725
1694297174.619,757.50916,795.78754,796.5934,797.3993,1074.6154
1694297174.62,760.32965,798.20514,796.99634,785.7143,740.58606
1694297174.621,772.4176,803.8461,799.81683,789.7436,789.34064
1694297174.6220002,776.8498,805.05493,801.4286,791.3553,990.80585
1694297174.6230001,772.4176,800.2198,796.1905,785.7143,944.4689
1694297174.6230001,767.98535,794.9817,795.38464,783.2967,814.7253
1694297174.624,766.77655,798.20514,800.2198,789.7436,843.3333
1694297174.625,772.8205,805.4579,792.5641,790.14655,946.8865
1694297174.625,782.8938,813.1135,791.75824,794.9817,919.89014
1694297174.626,782.49084,815.5311,796.99634,799.81683,892.49084
1694297174.627,787.326,808.68134,796.99634,799.011,956.55676
1694297174.628,787.72894,801.8315,801.02563,802.6374,1073.8096
1694297174.629,774.43225,800.6227,802.23444,795.38464,845.34796
1694297174.629,778.46155,806.6667,800.6227,792.5641,759.92676
1694297174.63,783.69965,805.4579,793.36993,793.36993,933.9927
1694297174.676,778.46155,799.81683,789.34064,786.52014,907.3993
1694297174.677,772.01465,802.23444,794.9817,787.326,813.5165
1694297174.6780002,769.59705,799.81683,795.78754,784.10254,853.8095
1694297174.6790001,772.8205,802.6374,796.99634,782.8938,922.71063
1694297174.683,787.72894,809.89014,806.26373,802.6374,882.8205
1694297174.684,789.7436,807.8755,806.6667,810.293,916.6667
1694297174.685,778.86444,803.0403,796.99634,791.3553,968.24176
1694297174.685,783.69965,807.0696,794.17584,788.93774,1066.9597
1694297174.686,794.9817,812.3077,798.20514,803.0403,941.6484
1694297174.687,790.9524,809.89014,797.8022,801.4286,777.6557
1694297174.687,787.326,809.89014,796.5934,798.60803,834.0659
1694297174.688,782.49084,808.68134,795.78754,798.60803,827.619
1694297174.71,775.64105,809.0842,795.78754,795.78754,804.2491
1694297174.711,776.8498,809.4872,799.41394,799.41394,833.663
1694297174.712,776.04395,804.2491,793.7729,801.8315,911.4286
1694297174.7129998,774.83514,792.5641,786.9231,799.81683,1126.9963
1694297174.7129998,778.46155,781.685,791.75824,795.38464,958.97437
1694297174.714,778.0586,775.64105,794.17584,793.36993,830.84247
1694297174.714,774.83514,774.43225,792.96704,799.011,1015.78754
1694297174.7150002,779.2674,780.87915,793.36993,801.4286,1147.1428
1694297174.716,774.83514,777.25275,789.34064,792.1612,888.86444
1694297174.716,776.04395,774.0293,796.99634,798.20514,770.80585
1694297174.717,790.9524,790.14655,806.6667,805.4579,850.989
1694297174.7180002,784.90845,787.72894,794.9817,790.54944,829.2308
1694297174.7489998,776.04395,782.8938,784.10254,782.49084,805.4579
1694297174.7500002,778.86444,791.3553,790.9524,786.1172,823.9927
1694297174.7500002,778.46155,785.7143,790.54944,782.8938,875.56775
1694297174.7510002,782.49084,786.9231,791.3553,782.8938,844.94507
1694297174.7510002,781.685,794.17584,792.5641,784.90845,791.75824
1694297174.752,771.6117,788.93774,786.9231,781.685,837.28937
1694297174.755,774.43225,784.90845,785.7143,792.5641,1201.5385
1694297174.756,780.07324,791.3553,789.34064,799.81683,1214.4323
1694297174.757,780.07324,795.38464,786.1172,786.1172,838.49817
1694297174.757,779.67035,790.54944,784.90845,777.6557,794.9817
1694297174.7580001,778.46155,786.52014,786.52014,778.0586,818.7546
1694297174.7580001,774.43225,784.5055,784.90845,779.67035,811.50183
1694297174.848,770.80585,782.0879,788.93774,779.2674,826.4103
1694297174.849,770.0,790.14655,794.17584,782.0879,927.1429
1694297174.85,771.2088,795.78754,804.2491,791.3553,969.0476
1694297174.85,766.77655,795.78754,805.4579,793.36993,805.8608
1694297174.851,768.3883,796.1905,796.99634,800.2198,765.56775
1694297174.852,767.98535,786.52014,787.72894,797.3993,936.8132
1694297174.854,765.56775,787.72894,788.93774,790.54944,987.98535
1694297174.855,768.3883,799.011,799.41394,793.36993,886.8498
1694297174.856,774.83514,799.81683,799.011,794.17584,842.52747
1694297174.8569999,776.8498,799.41394,799.41394,794.17584,980.32965
1694297174.8579998,770.40295,801.4286,800.6227,797.8022,1143.1135
1694297174.8579998,764.35895,800.6227,795.38464,796.5934,861.8681
1694297174.8969998,766.3736,799.011,797.3993,792.5641,720.84247
1694297174.8979998,770.40295,802.23444,800.6227,798.20514,808.2784
1694297174.8990002,774.0293,808.2784,798.60803,807.0696,829.2308
1694297174.9,780.4762,806.26373,801.8315,817.5458,826.8132
1694297174.901,781.685,801.4286,801.4286,816.337,821.1722
1694297174.901,773.6264,799.41394,796.1905,802.23444,894.90845
1694297174.9020002,772.01465,805.4579,802.23444,799.41394,913.8461
1694297174.903,782.49084,811.50183,808.2784,810.293,814.3223
1694297174.908,780.07324,807.8755,807.0696,813.5165,815.12823
1694297174.909,774.0293,797.8022,807.0696,815.9341,1102.8206
1694297174.909,777.25275,791.3553,801.4286,807.0696,999.67035
1694297174.91,790.14655,802.23444,796.5934,803.44324,763.5531
1694297174.912,784.90845,807.0696,794.57874,809.89014,870.7326
1694297174.912,782.0879,802.6374,797.3993,810.696,1091.1355
1694297174.9129999,789.34064,799.81683,796.5934,804.65204,959.7802
1694297174.9139998,780.07324,797.8022,790.14655,797.3993,757.50916
1694297174.915,774.83514,799.41394,797.3993,796.5934,817.1429
1694297174.915,782.0879,801.8315,803.44324,803.44324,963.4066
1694297174.916,777.6557,800.2198,796.5934,804.2491,976.30035
1694297174.9169998,770.40295,800.2198,792.96704,798.60803,855.82416
1694297174.9169998,774.0293,801.4286,792.96704,798.60803,915.4579
1694297174.9180002,785.7143,804.65204,796.99634,806.6667,1052.0513
1694297174.9190001,788.93774,811.0989,811.9048,815.12823,824.3956
1694297174.92,782.0879,805.4579,806.6667,811.9048,783.2967
1694297174.9529998,778.86444,799.81683,796.1905,797.8022,954.94507
1694297174.9539998,777.6557,807.47253,797.8022,800.6227,875.9707
1694297174.9550002,772.8205,809.89014,796.5934,800.2198,757.50916
1694297174.9550002,774.0293,805.4579,794.9817,794.9817,817.9487
1694297174.956,780.4762,802.6374,796.5934,798.60803,1013.7729
1694297174.957,782.0879,809.89014,795.78754,798.60803,965.42126
1694297174.9580002,782.49084,814.3223,793.36993,796.5934,849.3773
1694297174.959,775.64105,809.89014,793.7729,793.7729,813.5165
1694297174.959,780.07324,808.68134,796.1905,800.6227,1058.4982
1694297174.96,779.67035,809.4872,801.8315,807.8755,1037.5458
1694297174.964,778.0586,813.1135,799.81683,810.696,823.9927
1694297174.965,778.46155,805.4579,791.75824,799.41394,811.50183
1694297174.99,770.80585,799.81683,795.38464,790.14655,803.0403
1694297174.992,769.59705,801.8315,805.8608,803.44324,844.5421
1694297174.993,776.8498,803.8461,807.47253,811.50183,843.73627
1694297174.993,775.2381,804.2491,803.0403,802.6374,898.5348
1694297174.994,771.2088,806.6667,802.23444,796.5934,899.7436
1694297174.9950001,770.0,809.4872,806.6667,794.9817,845.34796
1694297174.996,767.98535,807.8755,809.4872,792.5641,868.71796
1694297174.997,770.80585,808.68134,808.68134,801.4286,948.0952
1694297174.997,771.6117,807.0696,803.8461,813.91943,1278.9011
1694297174.9980001,779.2674,802.23444,803.0403,809.0842,1147.9487
1694297174.9980001,777.6557,803.0403,800.2198,796.99634,792.5641
1694297174.999,767.98535,798.60803,796.5934,791.75824,821.978
1694297175.032,780.4762,797.3993,802.6374,797.3993,888.0586
1694297175.033,788.5348,803.8461,809.0842,805.05493,859.45056
1694297175.034,780.07324,803.0403,803.0403,800.2198,855.42126
1694297175.035,774.0293,803.44324,794.9817,794.9817,881.2088
1694297175.036,770.80585,808.68134,796.99634,792.96704,786.9231
1694297175.037,770.40295,809.4872,803.0403,794.57874,809.89014
1694297175.037,776.4469,812.71063,807.0696,799.011,856.2271
1694297175.038,775.2381,811.0989,797.8022,801.8315,1183.8096
1694297175.039,781.28204,808.2784,791.3553,799.81683,1143.1135
1694297175.04,788.5348,815.5311,795.38464,798.60803,767.5824
1694297175.04,778.86444,810.696,799.011,804.2491,770.80585
1694297175.041,775.64105,808.2784,796.5934,800.2198,793.7729
1694297175.094,782.0879,809.4872,795.38464,796.1905,801.02563
1694297175.096,792.5641,815.5311,799.41394,797.3993,786.52014
1694297175.097,789.7436,817.1429,796.99634,799.011,807.47253
1694297175.0979998,779.2674,809.0842,794.17584,795.38464,922.3077
1694297175.0979998,767.5824,810.696,796.1905,794.9817,831.6484
1694297175.099,769.59705,810.696,792.96704,799.41394,808.68134
1694297175.1,780.87915,805.4579,791.3553,797.8022,948.49817
1694297175.1009998,785.31134,807.8755,794.9817,797.3993,983.5531
1694297175.1009998,772.8205,805.8608,790.9524,795.78754,868.315
1694297175.1020002,765.16486,805.4579,789.34064,805.05493,784.90845
1694297175.1020002,774.43225,806.6667,790.9524,811.9048,910.6227
1694297175.1030002,772.01465,799.41394,790.54944,799.81683,988.3883
1694297175.134,774.0293,800.2198,797.8022,786.1172,759.5238
1694297175.135,782.49084,811.50183,803.8461,794.57874,746.63007
1694297175.135,778.46155,806.26373,802.23444,798.60803,907.8022
1694297175.136,775.2381,800.2198,796.1905,792.1612,903.36993
1694297175.1369998,775.2381,804.65204,784.10254,790.9524,833.2601
1694297175.1379998,772.4176,804.2491,788.93774,788.93774,894.5055
1694297175.1390002,770.80585,801.8315,798.60803,790.14655,967.4359
1694297175.1390002,768.3883,802.6374,797.8022,792.1612,927.1429
1694297175.14,764.7619,802.23444,798.20514,793.36993,864.68866
1694297175.14,769.59705,803.8461,804.65204,796.5934,907.3993
1694297175.141,770.80585,800.2198,801.02563,798.20514,1116.9231
1694297175.141,767.98535,789.34064,791.3553,795.38464,981.9414
1694297175.187,772.8205,799.41394,792.1612,800.2198,818.7546
1694297175.188,779.67035,811.50183,797.3993,802.6374,977.1062
1694297175.191,783.2967,813.1135,799.011,805.4579,1150.7693
1694297175.192,782.8938,813.1135,796.1905,801.8315,946.08057
1694297175.1929998,779.2674,809.0842,797.3993,793.36993,769.19415
1694297175.1929998,775.64105,809.4872,802.6374,802.23444,957.3626
1694297175.1939998,781.28204,809.0842,798.20514,805.8608,1102.0146
1694297175.1950002,789.7436,809.0842,799.011,801.02563,864.68866
1694297175.1950002,788.93774,803.44324,802.23444,797.3993,753.0769
1694297175.196,779.67035,811.0989,801.4286,796.5934,880.80585
1694297175.197,772.01465,820.3663,799.81683,799.81683,912.23444
1694297175.1980002,777.6557,820.7692,797.3993,797.3993,836.08057
1694297175.227,774.83514,816.337,798.60803,794.57874,840.5128
1694297175.228,770.40295,807.0696,799.81683,789.34064,952.52747
1694297175.2289999,774.83514,811.50183,807.0696,795.38464,880.80585
1694297175.2289999,778.86444,813.91943,803.8461,799.41394,783.69965
1694297175.23,775.64105,806.6667,794.57874,790.14655,871.9414
1694297175.23,777.25275,800.6227,794.57874,794.9817,1050.4396
1694297175.231,776.8498,801.4286,790.9524,794.17584,981.9414
1694297175.231,776.8498,808.68134,787.326,792.1612,813.1135
1694297175.232,778.86444,812.71063,784.10254,797.8022,846.1539
1694297175.232,783.69965,812.3077,787.72894,809.4872,1109.2675
1694297175.233,786.9231,813.91943,803.0403,813.5165,954.94507
1694297175.233,784.90845,815.5311,799.41394,804.2491,722.8571
1694297175.277,773.22345,810.696,789.34064,794.17584,796.1905
1694297175.278,781.685,809.4872,797.3993,794.17584,872.74725
1694297175.279,791.3553,811.50183,801.8315,799.81683,828.8278
1694297175.28,782.0879,817.5458,798.20514,800.2198,765.9707
1694297175.283,778.86444,816.337,799.81683,803.44324,946.4835
1694297175.284,769.59705,805.4579,795.78754,802.6374,1218.4615
1694297175.2849998,768.7912,803.8461,790.14655,794.17584,945.6777
1694297175.2849998,772.01465,802.6374,790.9524,790.54944,714.7985
1694297175.286,768.3883,804.2491,797.3993,796.99634,869.92676
1694297175.286,762.3443,805.05493,797.8022,797.3993,900.14655
1694297175.2870002,772.01465,807.0696,799.81683,797.3993,759.92676
1694297175.288,783.2967,817.5458,805.05493,805.8608,764.7619
1694297175.324,786.52014,811.50183,799.41394,805.8608,830.0366
1694297175.325,782.8938,801.8315,794.57874,801.4286,803.8461
1694297175.3260002,774.83514,807.0696,795.38464,793.36993,769.19415
1694297175.3270001,772.4176,813.1135,799.011,790.9524,801.02563
1694297175.328,774.83514,809.4872,801.02563,794.9817,850.18317
1694297175.329,790.9524,812.3077,800.2198,801.4286,890.87915
1694297175.33,799.41394,815.9341,797.8022,800.2198,917.47253
1694297175.33,796.5934,810.696,789.7436,794.9817,921.0989
1694297175.331,793.7729,809.89014,786.52014,800.6227,1126.9963
1694297175.332,794.17584,811.9048,792.1612,801.02563,1097.5824
1694297175.333,794.17584,810.293,796.99634,801.4286,821.978
1694297175.334,785.7143,809.4872,797.8022,810.696,783.2967
1694297175.3779998,773.6264,805.4579,791.3553,805.8608,828.022
1694297175.3779998,776.4469,806.26373,794.57874,803.8461,886.8498
1694297175.379,776.8498,808.68134,798.60803,807.0696,819.15753
1694297175.38,768.3883,802.6374,794.17584,803.8461,839.304
1694297175.381,770.0,803.44324,796.5934,806.26373,943.663
1694297175.3820002,770.0,807.0696,797.8022,801.8315,902.96704
1694297175.385,770.40295,805.4579,797.8022,794.9817,850.58606
1694297175.385,766.3736,803.44324,797.3993,796.5934,896.9231
1694297175.386,769.19415,803.44324,791.3553,801.4286,1188.6447
1694297175.386,778.46155,808.2784,792.5641,798.20514,993.6264
1694297175.387,780.07324,807.8755,792.96704,792.1612,770.0
1694297175.388,770.40295,806.26373,792.1612,791.75824,874.7619
1694297175.423,766.77655,810.696,790.54944,790.9524,821.978
1694297175.424,767.5824,807.47253,793.36993,786.1172,751.06226
1694297175.425,773.6264,810.293,801.4286,795.38464,807.0696
1694297175.4259999,777.25275,815.9341,797.8022,800.2198,907.8022
1694297175.4259999,775.2381,814.7253,794.17584,785.31134,852.1978
1694297175.427,783.2967,819.9634,793.36993,784.10254,803.44324
1694297175.428,786.52014,820.7692,789.7436,787.72894,886.4469
1694297175.428,779.2674,809.89014,792.1612,796.99634,1109.6703
1694297175.429,777.25275,811.0989,794.57874,796.1905,994.43225
1694297175.429,782.8938,814.7253,794.9817,784.90845,745.42126
1694297175.43,780.07324,813.5165,790.54944,788.1319,771.6117
1694297175.43,780.4762,811.50183,792.1612,795.78754,793.7729
1694297175.4529998,788.93774,818.7546,805.4579,812.3077,857.03296
1694297175.4540002,805.4579,828.022,812.3077,821.5751,910.2198
1694297175.4540002,807.47253,815.5311,804.2491,811.50183,995.2381
1694297175.4550002,790.54944,806.6667,799.81683,807.8755,1195.4945
1694297175.4550002,787.326,815.12823,801.4286,816.337,1011.3553
1694297175.456,788.93774,817.1429,801.02563,810.293,877.1795
1694297175.456,782.8938,815.5311,801.8315,808.2784,1068.9744
1694297175.457,789.7436,819.9634,798.60803,817.5458,1170.9158
1694297175.459,796.5934,823.9927,794.57874,801.02563,892.49084
1694297175.459,799.011,821.5751,805.4579,798.20514,768.7912
1694297175.46,787.72894,811.9048,806.26373,801.8315,869.12085
1694297175.46,780.87915,807.47253,794.17584,801.8315,882.01465
1694297175.519,793.36993,814.3223,799.81683,805.05493,842.52747
1694297175.52,777.6557,809.4872,798.20514,792.1612,846.9597
1694297175.521,766.3736,810.696,789.7436,785.31134,894.10254
1694297175.5219998,774.0293,817.5458,792.5641,792.1612,865.89746
1694297175.5219998,782.0879,817.5458,799.41394,794.57874,821.978
1694297175.523,782.8938,820.3663,795.78754,789.34064,865.09155
1694297175.523,783.69965,819.15753,796.1905,792.5641,1172.5275
1694297175.524,789.34064,814.3223,800.6227,798.20514,1145.5311
1694297175.524,784.5055,815.12823,800.6227,800.6227,823.9927
1694297175.5249999,792.96704,818.3516,800.2198,805.05493,809.4872
1694297175.5249999,796.1905,826.4103,798.20514,805.8608,830.0366
1694297175.526,791.3553,826.4103,795.78754,800.6227,767.5824
1694297175.552,787.72894,814.3223,796.5934,800.2198,752.27106
1694297175.553,793.7729,813.91943,801.02563,809.89014,909.011
1694297175.553,797.8022,824.3956,801.4286,813.1135,1037.1428
1694297175.554,794.9817,819.9634,799.011,805.05493,873.1502
1694297175.554,789.34064,811.9048,799.011,803.8461,723.663
1694297175.554,792.96704,808.68134,796.5934,809.0842,844.94507
1694297175.555,793.36993,807.0696,798.20514,810.696,1012.96704
1694297175.555,791.3553,811.9048,797.8022,810.696,966.63007
1694297175.556,800.2198,819.5604,805.4579,809.89014,830.0366
1694297175.556,779.2674,808.2784,807.8755,803.8461,925.9341
1694297175.56,775.64105,804.2491,801.8315,802.23444,1048.8279
1694297175.56,790.9524,815.5311,805.8608,803.44324,872.74725
1694297175.609,786.52014,807.47253,802.23444,806.26373,818.3516
1694297175.61,781.685,803.0403,801.8315,801.02563,868.71796
1694297175.61,772.4176,807.47253,811.0989,794.9817,831.6484
1694297175.611,764.35895,806.26373,811.50183,793.7729,770.80585
1694297175.611,775.64105,809.0842,811.50183,794.57874,823.9927
1694297175.612,773.6264,804.2491,807.0696,794.9817,979.12085
1694297175.612,778.86444,808.68134,808.2784,799.81683,970.65936
1694297175.613,783.2967,810.293,807.47253,801.02563,880.40295
1694297175.613,778.0586,800.2198,803.0403,794.57874,837.28937
1694297175.614,784.5055,799.41394,797.3993,803.44324,1087.1062
1694297175.614,781.28204,802.23444,801.4286,811.9048,1127.8022
1694297175.615,763.95605,807.47253,808.68134,805.4579,793.36993
1694297175.64,761.9414,815.12823,805.8608,805.05493,761.13556
1694297175.641,767.5824,811.9048,804.65204,803.44324,879.59705
1694297175.642,765.56775,807.8755,803.8461,797.3993,866.7033
1694297175.642,760.7326,810.696,796.5934,796.1905,832.8571
1694297175.6430001,755.4945,809.89014,795.78754,793.36993,940.84247
1694297175.6430001,758.315,809.0842,803.44324,791.3553,1051.6483
1694297175.644,775.2381,810.696,808.2784,796.1905,933.5897
1694297175.644,775.2381,809.89014,801.02563,799.011,777.25275
1694297175.645,772.01465,812.71063,799.81683,807.8755,947.28937
1694297175.645,771.2088,808.2784,801.02563,810.293,1199.5238
1694297175.6460001,758.315,798.20514,799.81683,799.81683,966.63007
1694297175.6460001,759.92676,799.011,801.02563,796.99634,805.4579
1694297175.739,763.1502,802.23444,798.20514,793.36993,908.20514
1694297175.741,765.56775,805.4579,795.78754,793.36993,914.2491
1694297175.741,774.43225,812.71063,801.4286,795.38464,832.4542
1694297175.742,779.67035,814.3223,802.23444,789.34064,817.1429
1694297175.743,785.31134,811.9048,801.8315,793.7729,820.7692
1694297175.743,774.43225,809.89014,796.5934,795.78754,838.9011
1694297175.744,753.8828,809.4872,795.38464,790.14655,888.0586
1694297175.745,743.00366,801.4286,798.60803,788.5348,884.83514
1694297175.745,750.65936,797.8022,801.8315,793.7729,1093.956
1694297175.7459998,758.71796,800.2198,805.4579,794.9817,1017.8022
1694297175.747,755.4945,796.5934,804.65204,789.34064,763.5531
1694297175.747,759.92676,794.17584,801.8315,791.75824,802.6374
1694297175.7489998,758.71796,792.5641,801.02563,792.5641,851.79486
1694297175.7500002,751.06226,789.7436,804.2491,796.5934,890.07324
1694297175.7500002,755.89746,790.54944,806.6667,793.36993,838.49817
1694297175.7510002,763.5531,794.17584,810.293,797.8022,826.0073
1694297175.752,755.89746,790.9524,807.8755,809.89014,1092.7472
1694297175.753,756.7033,789.34064,807.0696,805.05493,990.40295
1694297175.754,759.92676,786.1172,806.6667,793.7729,837.28937
1694297175.754,756.7033,784.10254,802.23444,786.9231,866.30035
1694297175.755,762.74725,793.36993,804.2491,785.7143,835.2747
1694297175.756,770.0,798.20514,798.60803,787.326,800.2198
1694297175.757,775.2381,795.78754,790.54944,789.7436,787.72894
1694297175.759,774.43225,797.8022,795.38464,800.6227,1015.78754
1694297175.7870002,763.95605,801.8315,794.9817,802.6374,1102.0146
1694297175.788,761.9414,796.99634,794.9817,797.3993,823.1868
1694297175.792,774.0293,799.81683,799.41394,803.8461,817.9487
1694297175.793,774.83514,806.6667,794.17584,801.4286,934.3956
1694297175.793,775.2381,801.02563,797.3993,798.20514,892.8938
1694297175.794,779.2674,800.6227,806.26373,799.81683,850.58606
1694297175.794,773.22345,801.02563,799.011,795.38464,828.8278
1694297175.795,770.80585,794.57874,790.9524,799.81683,1088.7179
1694297175.795,776.04395,799.41394,795.78754,809.89014,1131.4286
1694297175.796,778.86444,811.9048,801.8315,805.05493,811.9048
1694297175.797,776.04395,807.47253,797.3993,786.9231,771.2088
1694297175.797,773.6264,805.8608,792.96704,782.0879,775.64105
1694297175.828,771.6117,805.4579,793.36993,788.1319,790.14655
1694297175.8300002,774.83514,805.8608,792.96704,791.75824,875.9707
1694297175.831,784.90845,810.696,793.7729,794.9817,930.3663
1694297175.831,776.4469,805.05493,797.8022,802.23444,982.3443
1694297175.832,771.2088,799.41394,802.6374,805.05493,867.50916
1694297175.833,778.46155,810.696,803.44324,808.2784,758.315
1694297175.8339999,772.4176,814.7253,796.99634,805.4579,932.381
1694297175.8339999,765.16486,805.8608,799.81683,808.2784,1278.0952
1694297175.835,763.1502,802.23444,793.7729,800.6227,957.76556
1694297175.835,767.1795,805.8608,793.7729,796.1905,714.3956
1694297175.836,777.6557,809.0842,801.8315,802.6374,838.0952
1694297175.837,770.40295,806.6667,795.78754,792.5641,800.2198
1694297175.9139998,762.74725,802.6374,794.9817,791.75824,756.30035
1694297175.915,773.6264,803.0403,797.8022,800.6227,799.011
1694297175.916,781.28204,809.0842,799.011,797.8022,895.31134
1694297175.9169998,779.2674,814.7253,806.6667,795.38464,845.34796
1694297175.922,774.83514,815.12823,803.0403,795.78754,813.91943
1694297175.923,773.22345,814.3223,796.1905,798.60803,932.7839
1694297175.923,776.8498,809.0842,795.78754,805.05493,1137.4725
1694297175.924,770.0,812.3077,795.38464,803.0403,1035.5311
1694297175.925,761.9414,816.337,796.99634,794.57874,745.82416
1694297175.925,768.7912,812.3077,799.81683,796.1905,800.2198
1694297175.926,774.83514,808.68134,806.6667,796.5934,961.79486
1694297175.926,778.86444,804.65204,805.8608,794.57874,903.7729
1694297175.9550002,775.64105,805.4579,788.5348,794.9817,824.3956
1694297175.957,772.8205,813.5165,780.07324,800.2198,906.99634
1694297175.957,778.46155,818.3516,782.8938,814.7253,1034.7252
1694297175.9580002,779.2674,812.71063,777.25275,812.3077,935.6044
1694297175.959,780.07324,815.9341,770.80585,803.8461,805.4579
1694297175.959,783.69965,815.12823,774.43225,798.20514,871.9414
1694297175.96,791.3553,813.91943,783.69965,796.5934,966.2271
1694297175.961,788.93774,821.978,784.10254,802.23444,884.0293
1694297175.961,779.67035,817.5458,781.685,799.011,819.15753
1694297175.962,781.28204,813.1135,786.1172,804.65204,971.06226
1694297175.962,791.3553,819.9634,784.5055,809.4872,1146.337
1694297175.963,793.36993,822.381,786.52014,805.4579,904.17584
1694297176.0110002,778.46155,817.1429,792.96704,808.2784,774.0293
1694297176.012,777.6557,815.5311,794.9817,816.337,956.55676
1694297176.013,787.72894,806.26373,791.75824,806.6667,1021.4286
1694297176.013,786.9231,794.57874,783.2967,789.34064,830.0366
1694297176.0140002,774.83514,801.02563,784.90845,793.36993,788.1319
1694297176.015,774.43225,809.0842,792.5641,803.44324,913.8461
1694297176.019,783.69965,809.0842,797.8022,805.05493,925.9341
1694297176.02,779.67035,807.8755,792.96704,796.99634,839.707
1694297176.021,773.22345,808.2784,791.3553,792.5641,858.6447
1694297176.021,779.67035,808.2784,796.5934,792.5641,966.2271
1694297176.022,783.2967,812.71063,793.36993,791.3553,873.5531
1694297176.023,790.14655,814.7253,797.8022,796.99634,753.8828
1694297176.077,784.10254,807.0696,792.1612,791.75824,866.30035
1694297176.078,771.6117,803.0403,784.90845,788.93774,1222.0879
1694297176.079,772.8205,807.47253,789.34064,790.14655,1098.3883
1694297176.08,776.4469,804.2491,796.99634,792.1612,795.38464
1694297176.08,772.8205,804.65204,800.6227,803.8461,858.24176
1694297176.0809999,770.40295,808.2784,796.1905,809.89014,1035.5311
1694297176.0819998,772.01465,809.89014,790.14655,799.011,967.03296
1694297176.0830002,770.80585,813.91943,796.5934,794.57874,796.1905
1694297176.084,772.01465,813.1135,803.0403,800.6227,834.87177
1694297176.085,777.25275,813.1135,798.20514,805.05493,1007.72894
1694297176.0860002,780.07324,817.1429,800.2198,804.65204,840.10986
1694297176.0870001,777.6557,809.89014,793.36993,796.1905,746.63007
1694297176.094,777.25275,806.6667,790.14655,787.72894,802.6374
1694297176.095,770.80585,806.6667,795.78754,788.1319,808.2784
1694297176.096,766.77655,802.23444,791.3553,791.3553,820.3663
1694297176.097,772.01465,803.44324,786.1172,790.9524,867.1062
1694297176.097,776.4469,810.293,791.75824,794.17584,931.5751
1694297176.0979998,779.67035,811.9048,795.38464,797.8022,896.52014
1694297176.099,770.40295,807.0696,795.78754,796.99634,847.76556
1694297176.1,770.40295,812.71063,798.20514,800.2198,824.7985
1694297176.104,780.07324,821.5751,800.6227,812.3077,1145.5311
1694297176.105,781.28204,821.5751,800.2198,812.71063,1262.7839
1694297176.106,782.49084,811.50183,796.99634,796.1905,896.1172
1694297176.106,786.52014,806.6667,794.17584,790.9524,792.96704
1694297176.1529999,782.49084,810.293,792.1612,792.1612,880.40295
1694297176.155,792.1612,809.89014,794.57874,797.3993,937.619
1694297176.156,801.4286,808.2784,794.17584,791.75824,868.71796
1694297176.1569998,799.41394,815.5311,797.8022,789.7436,858.6447
1694297176.1580002,796.99634,818.7546,796.1905,792.5641,969.45056
1694297176.1590002,791.75824,816.7399,797.8022,796.1905,971.4652
1694297176.16,792.5641,821.1722,807.0696,808.2784,857.8388
1694297176.161,790.54944,816.7399,809.89014,815.9341,975.89746
1694297176.162,767.1795,803.8461,799.41394,811.0989,1223.2968
1694297176.162,759.12085,805.8608,795.38464,800.2198,946.8865
1694297176.163,767.98535,808.2784,801.02563,801.4286,796.5934
1694297176.164,760.7326,813.1135,799.011,810.293,883.22345
1694297176.236,770.80585,823.9927,794.57874,816.337,820.7692
1694297176.237,785.7143,823.5897,796.99634,807.47253,777.25275
1694297176.2380002,780.07324,813.91943,802.23444,796.5934,770.80585
1694297176.239,773.22345,811.50183,800.2198,792.1612,801.02563
1694297176.24,772.4176,810.696,799.81683,800.2198,840.5128
1694297176.241,777.25275,816.337,807.0696,811.9048,885.2381
1694297176.241,777.25275,823.5897,807.8755,807.0696,887.25275
1694297176.2419999,767.5824,815.12823,793.7729,801.02563,1033.9194
1694297176.243,764.35895,812.71063,798.20514,798.20514,968.24176
1694297176.244,765.9707,812.3077,796.1905,788.5348,809.89014
1694297176.2489998,771.6117,815.5311,789.34064,783.2967,967.8388
1694297176.2499998,770.80585,817.9487,797.8022,786.52014,1015.38464
1694297176.252,773.22345,818.3516,801.4286,794.57874,862.27106
1694297176.253,786.52014,817.1429,806.26373,795.78754,801.8315
1694297176.253,790.14655,810.696,803.44324,800.2198,882.8205
1694297176.2540002,784.10254,821.1722,801.02563,810.696,994.0293
1694297176.255,772.01465,817.9487,803.44324,801.8315,897.326
1694297176.255,772.4176,815.5311,801.8315,789.34064,781.685
1694297176.256,779.2674,828.022,803.0403,793.36993,938.8278
1694297176.257,777.6557,819.5604,799.41394,798.60803,1133.8462
1694297176.258,776.04395,805.4579,791.75824,792.96704,909.81683
1694297176.259,776.8498,811.50183,797.3993,796.1905,819.9634
1694297176.259,765.9707,813.91943,800.2198,793.7729,880.0
1694297176.26,762.74725,817.1429,795.38464,788.93774,842.1245
1694297176.2940001,775.64105,824.3956,797.3993,793.36993,865.09155
1694297176.297,778.46155,817.5458,796.99634,793.7729,897.326
1694297176.2979999,769.59705,815.12823,797.3993,796.5934,995.64105
1694297176.299,775.2381,827.2161,801.4286,802.23444,928.7546
1694297176.3,773.22345,825.6044,797.8022,793.36993,765.9707
1694297176.302,768.3883,811.9048,796.1905,785.7143,836.4835
1694297176.303,774.0293,806.26373,793.36993,782.49084,966.2271
1694297176.304,770.80585,803.44324,791.3553,780.87915,904.9817
1694297176.3049998,761.9414,805.8608,790.54944,784.5055,789.7436
1694297176.3059998,765.56775,815.9341,788.93774,791.75824,816.337
1694297176.3070002,775.2381,816.7399,794.9817,800.6227,1077.033
1694297176.308,774.0293,807.8755,797.8022,801.02563,1031.9048
1694297176.311,770.40295,809.0842,792.1612,795.38464,834.0659
1694297176.311,777.25275,820.7692,796.5934,792.5641,933.1868
1694297176.311,778.86444,823.9927,800.6227,795.78754,1058.9011
1694297176.312,780.07324,815.5311,799.81683,797.8022,940.4396
1694297176.312,785.31134,809.4872,798.20514,796.1905,822.381
1694297176.313,792.96704,810.293,795.38464,795.78754,952.52747
1694297176.313,793.36993,813.1135,803.44324,803.0403,1369.1575
1694297176.314,790.54944,813.91943,809.0842,805.8608,1102.8206
1694297176.314,790.54944,814.3223,804.65204,803.8461,755.4945
1694297176.314,784.10254,815.12823,802.6374,802.23444,839.707
1694297176.315,788.1319,817.9487,803.8461,802.6374,815.5311
1694297176.315,791.3553,822.7839,809.0842,804.65204,740.58606
1694297176.3630002,791.3553,821.5751,809.89014,803.44324,740.989
1694297176.365,801.02563,828.022,807.8755,801.4286,806.6667
1694297176.365,795.38464,827.619,802.6374,797.8022,801.4286
1694297176.3660002,787.326,812.3077,797.8022,797.3993,759.92676
1694297176.3660002,777.6557,813.1135,801.8315,803.44324,810.293
1694297176.367,773.6264,821.5751,802.6374,805.8608,921.9048
1694297176.367,772.01465,818.3516,799.011,804.2491,862.674
1694297176.367,766.77655,812.3077,799.41394,800.2198,815.12823
1694297176.368,775.2381,817.9487,803.0403,801.8315,859.85345
1694297176.368,779.67035,823.5897,805.4579,806.26373,1117.7289
1694297176.369,782.8938,809.89014,805.8608,799.41394,1069.3773
1694297176.369,788.5348,811.9048,808.2784,799.81683,831.6484
1694297176.3939998,786.9231,819.5604,800.2198,807.47253,861.4652
1694297176.395,792.5641,811.9048,797.8022,811.50183,932.381
1694297176.4,780.87915,805.8608,799.41394,809.0842,892.49084
1694297176.401,766.3736,813.91943,798.20514,809.0842,810.696
1694297176.402,763.95605,820.7692,796.1905,803.0403,877.5824
1694297176.402,754.2857,813.5165,790.14655,794.17584,1040.7693
1694297176.403,757.50916,811.50183,794.17584,804.2491,1002.0879
1694297176.403,762.74725,807.47253,794.9817,805.05493,786.1172
1694297176.404,758.71796,802.6374,796.99634,801.8315,882.4176
1694297176.404,766.77655,806.26373,804.65204,813.1135,1223.6996
1694297176.405,767.5824,811.9048,801.8315,811.50183,1026.2638
1694297176.405,767.5824,814.3223,797.8022,805.05493,796.1905
1694297176.4339998,781.685,821.1722,801.02563,808.2784,915.8608
1694297176.4350002,776.4469,821.1722,797.3993,802.23444,864.68866
1694297176.4350002,772.01465,824.7985,802.23444,796.99634,747.8388
1694297176.436,775.64105,824.7985,801.4286,797.8022,837.6923
1694297176.436,767.1795,803.44324,789.7436,792.5641,922.3077
1694297176.437,769.59705,799.41394,790.9524,795.38464,934.3956
1694297176.437,771.2088,810.696,797.8022,800.2198,917.0696
1694297176.4380002,772.8205,813.1135,802.23444,804.2491,843.3333
1694297176.4380002,786.1172,807.0696,803.8461,813.1135,998.46155
1694297176.4390001,784.10254,810.696,804.2491,812.3077,940.84247
1694297176.4390001,778.86444,818.3516,801.4286,805.8608,756.30035
1694297176.44,784.90845,810.293,796.5934,801.4286,838.0952
1694297176.524,785.7143,800.6227,792.96704,799.011,845.34796
1694297176.5249999,784.90845,803.0403,796.1905,805.8608,774.83514
1694297176.5249999,780.87915,809.4872,794.9817,805.8608,774.43225
1694297176.526,772.01465,807.47253,787.72894,799.41394,859.0476
1694297176.53,777.25275,808.68134,790.9524,810.696,1074.2124
1694297176.5310001,781.28204,807.47253,789.7436,815.12823,960.58606
1694297176.5310001,769.59705,803.0403,788.5348,805.4579,728.49817
1694297176.532,776.8498,809.4872,788.93774,812.3077,811.50183
1694297176.533,783.69965,813.5165,794.57874,817.9487,1089.1208
1694297176.533,775.64105,812.71063,796.1905,803.8461,857.8388
1694297176.5340002,782.0879,815.12823,799.81683,805.4579,718.4249
1694297176.5340002,790.54944,812.3077,803.8461,814.7253,874.35895
1694297176.5609999,789.34064,806.26373,794.57874,805.8608,859.85345
1694297176.5619998,795.38464,816.7399,794.57874,811.50183,795.38464
1694297176.563,786.52014,813.91943,794.17584,813.91943,832.0513
1694297176.564,770.40295,806.6667,790.14655,804.65204,964.21246
1694297176.5649998,773.6264,807.8755,793.7729,802.6374,884.83514
1694297176.5649998,784.90845,809.0842,803.0403,808.2784,830.0366
1694297176.5660002,782.0879,820.7692,813.1135,817.1429,932.381
1694297176.5660002,773.6264,820.3663,807.0696,816.7399,1117.326
1694297176.5670002,776.04395,818.7546,804.65204,810.696,1001.28204
1694297176.568,777.6557,822.381,808.2784,802.6374,763.95605
1694297176.568,772.4176,814.3223,804.65204,799.41394,812.3077
1694297176.569,769.19415,811.0989,806.6667,809.4872,873.1502
1694297176.591,773.22345,813.91943,811.9048,813.5165,874.35895
1694297176.592,773.22345,806.26373,806.6667,804.2491,878.7912
1694297176.593,772.01465,803.0403,803.8461,799.41394,892.8938
1694297176.5939999,778.86444,806.26373,809.0842,806.6667,985.56775
1694297176.5939999,778.0586,812.3077,811.9048,810.293,982.3443
1694297176.595,774.0293,819.5604,811.9048,809.0842,936.8132
1694297176.599,777.6557,822.381,811.50183,805.4579,1027.0696
1694297176.599,779.67035,815.9341,808.68134,807.0696,1235.7876
1694297176.6,783.69965,811.50183,808.68134,816.337,988.3883
1694297176.6,796.5934,814.7253,810.293,822.7839,813.1135
1694297176.6009998,790.9524,810.293,809.4872,813.1135,884.43225
1694297176.6019998,770.80585,796.1905,801.8315,795.78754,861.06226
1694297176.6460001,766.77655,796.99634,795.38464,782.0879,787.72894
1694297176.647,780.4762,808.68134,807.0696,787.72894,785.31134
1694297176.648,792.96704,809.4872,806.6667,795.78754,838.0952
1694297176.649,779.67035,810.696,800.6227,795.38464,822.7839
1694297176.649,767.1795,809.0842,801.4286,798.20514,816.337
1694297176.6499999,769.19415,805.4579,798.60803,796.1905,884.0293
1694297176.654,770.40295,807.0696,796.5934,797.3993,1065.751
1694297176.655,773.6264,809.89014,796.1905,796.99634,939.2308
1694297176.656,786.9231,814.3223,796.99634,796.99634,752.674
1694297176.6569998,790.9524,806.6667,796.5934,798.20514,796.1905
1694297176.6579998,778.46155,805.05493,800.6227,801.4286,933.1868
1694297176.6590002,783.2967,816.7399,807.0696,801.4286,840.9158
1694297176.712,784.10254,817.9487,799.41394,803.8461,743.8095
1694297176.7129998,781.685,815.12823,795.38464,805.4579,877.98535
1694297176.714,785.7143,811.50183,799.011,807.0696,1138.2784
1694297176.7150002,778.0586,810.696,797.8022,799.41394,960.989
1694297176.716,778.0586,806.6667,799.011,793.36993,736.9597
1694297176.717,788.1319,804.2491,800.2198,800.6227,958.97437
1694297176.717,780.07324,812.3077,800.6227,809.89014,1071.7949
1694297176.7180002,773.22345,809.4872,797.3993,806.26373,893.2967
1694297176.724,787.326,812.71063,797.3993,800.6227,756.30035
1694297176.725,797.8022,815.5311,804.65204,805.4579,958.1685
1694297176.726,791.75824,807.8755,801.4286,805.4579,1139.4872
1694297176.727,786.1172,815.12823,801.8315,806.6667,901.75824
1694297176.763,784.10254,821.1722,808.68134,810.293,813.91943
1694297176.764,779.2674,817.9487,805.05493,806.6667,865.89746
1694297176.764,770.0,812.71063,798.20514,797.8022,852.1978
1694297176.7649999,769.19415,810.293,801.4286,791.3553,796.5934
1694297176.766,782.0879,815.5311,808.2784,796.99634,787.326
1694297176.767,791.75824,812.3077,811.9048,807.47253,1052.8572
1694297176.768,782.0879,804.65204,808.68134,803.8461,1020.2198
1694297176.768,779.67035,810.293,806.26373,799.81683,744.61536
1694297176.769,782.0879,811.50183,803.44324,799.81683,765.56775
1694297176.77,770.0,804.65204,796.5934,794.57874,984.35895
1694297176.77,769.59705,807.0696,797.8022,787.72894,928.3516
1694297176.7710001,776.4469,809.4872,801.4286,785.31134,795.78754
1694297176.813,780.4762,813.1135,806.26373,788.93774,963.4066
1694297176.8140001,781.28204,816.337,809.0842,787.72894,1077.033
1694297176.815,771.2088,813.5165,805.8608,786.1172,894.5055
1694297176.815,769.19415,807.8755,804.65204,784.5055,800.2198
1694297176.816,770.40295,810.293,810.293,784.10254,865.09155
1694297176.817,772.8205,810.293,810.696,791.75824,1264.7986
1694297176.8179998,772.8205,805.8608,806.26373,795.78754,1171.7216
1694297176.8179998,770.0,805.4579,805.05493,788.93774,789.7436
1694297176.819,771.6117,801.8315,798.60803,792.5641,835.6777
1694297176.819,774.0293,801.8315,796.5934,798.60803,862.674
1694297176.824,766.3736,803.44324,795.78754,785.31134,746.63007
1694297176.824,771.2088,805.4579,799.011,782.0879,755.89746
1694297176.8300002,775.2381,806.6667,797.8022,792.1612,862.27106
1694297176.831,764.7619,806.26373,796.5934,793.7729,859.0476
1694297176.832,761.13556,805.05493,803.8461,792.1612,834.4689
1694297176.833,763.95605,805.8608,810.293,790.9524,843.3333
1694297176.8339999,769.59705,808.68134,806.26373,792.5641,832.8571
1694297176.835,773.22345,808.2784,802.23444,800.6227,911.8315
1694297176.835,767.98535,803.44324,796.99634,795.38464,898.5348
1694297176.836,765.56775,802.6374,790.54944,796.1905,826.4103
1694297176.837,776.4469,803.0403,799.011,808.2784,1037.9487
