timestamp,RAW_TP9,RAW_AF7,RAW_AF8,RAW_TP10,AUX_RIGHT
1694300548.4099998,772.01465,785.31134,763.1502,759.5238,818.7546
1694300548.411,757.50916,780.87915,765.56775,755.09155,734.1392
1694300548.412,761.53845,784.5055,765.9707,752.27106,809.4872
1694300548.412,773.6264,792.1612,763.95605,748.6447,840.5128
1694300548.4129999,776.04395,793.36993,762.74725,730.10986,793.36993
1694300548.414,776.04395,788.1319,765.16486,723.663,820.7692
1694300548.414,778.46155,786.1172,769.19415,746.2271,1074.6154
1694300548.415,768.7912,788.1319,769.19415,757.1062,1140.2931
1694300548.4169998,766.3736,789.34064,770.0,755.09155,829.2308
1694300548.418,765.16486,790.14655,771.6117,753.47986,749.0476
1694300548.4190001,763.95605,786.9231,768.3883,755.09155,959.3773
1694300548.4190001,771.2088,786.1172,763.5531,749.85345,931.1722
1694300548.4499998,765.16486,784.90845,766.3736,743.8095,756.30035
1694300548.451,758.71796,781.28204,770.40295,748.24176,780.87915
1694300548.452,767.98535,781.28204,766.3736,734.94507,949.707
1694300548.452,770.80585,784.90845,762.3443,710.7692,877.5824
1694300548.4529998,760.7326,787.326,763.1502,699.4872,714.7985
1694300548.4540002,754.68866,787.326,764.7619,707.9487,852.6007
1694300548.4540002,754.2857,783.69965,760.32965,711.1722,1155.2014
1694300548.4550002,761.53845,781.28204,759.12085,690.2198,930.7692
1694300548.4550002,767.1795,783.69965,766.77655,684.9817,727.6923
1694300548.456,773.22345,784.5055,768.3883,694.65204,783.2967
1694300548.456,777.25275,787.326,767.5824,694.65204,808.68134
1694300548.457,768.7912,791.3553,769.59705,674.90845,790.9524
1694300548.461,765.56775,788.5348,769.59705,663.22345,783.69965
1694300548.4620001,763.95605,781.685,768.7912,676.52014,782.49084
1694300548.4620001,761.9414,779.67035,763.1502,671.685,801.8315
1694300548.463,763.5531,781.685,762.74725,657.98535,805.05493
1694300548.463,773.22345,784.90845,762.3443,651.13556,749.0476
1694300548.464,787.326,787.326,758.315,653.5531,988.3883
1694300548.465,783.2967,789.7436,759.92676,666.04395,1169.3041
1694300548.465,777.6557,790.14655,764.35895,660.40295,880.40295
1694300548.465,782.0879,789.7436,765.16486,659.59705,762.74725
1694300548.4659998,783.69965,784.5055,767.1795,672.49084,987.98535
1694300548.468,775.2381,780.4762,771.2088,685.38464,1045.2014
1694300548.4689999,780.07324,784.90845,772.8205,677.72894,807.8755
1694300548.4950001,783.69965,787.72894,767.98535,669.2674,751.06226
1694300548.496,772.8205,785.7143,761.9414,667.6557,799.41394
1694300548.496,768.7912,789.7436,762.3443,664.83514,790.9524
1694300548.497,770.40295,794.57874,765.9707,662.01465,749.0476
1694300548.497,765.16486,791.75824,768.3883,648.71796,842.9304
1694300548.497,761.53845,794.57874,767.98535,634.61536,936.0073
1694300548.498,766.77655,793.7729,767.1795,641.06226,843.73627
1694300548.498,769.59705,790.9524,770.80585,651.53845,809.89014
1694300548.498,771.6117,793.36993,768.7912,655.9707,795.38464
1694300548.498,785.31134,796.99634,769.59705,684.57874,1102.8206
1694300548.499,780.87915,799.41394,770.80585,691.4286,1044.7986
1694300548.499,770.80585,798.20514,770.0,678.5348,778.46155
1694300548.527,769.19415,795.38464,772.01465,682.5641,821.1722
1694300548.528,767.5824,790.54944,774.43225,686.1905,839.707
1694300548.529,761.53845,784.90845,774.83514,693.8461,846.9597
1694300548.529,753.0769,783.69965,774.43225,705.12823,843.3333
1694300548.529,764.7619,780.07324,773.22345,705.9341,865.09155
1694300548.53,768.7912,774.43225,770.0,694.2491,940.4396
1694300548.53,763.1502,776.4469,769.19415,691.02563,920.293
1694300548.53,758.71796,773.6264,768.7912,685.78754,888.46155
1694300548.5310001,763.95605,770.0,769.59705,690.2198,1136.2638
1694300548.5310001,767.1795,772.8205,770.40295,710.7692,1346.9963
1694300548.5310001,758.71796,773.22345,768.3883,711.978,1046.8132
1694300548.5310001,751.4652,770.80585,767.5824,698.2784,800.2198
1694300548.595,753.47986,772.8205,765.56775,691.4286,800.6227
1694300548.596,765.9707,776.04395,767.1795,694.65204,784.10254
1694300548.596,774.83514,777.25275,767.5824,692.6374,746.2271
1694300548.597,776.04395,773.22345,765.16486,692.6374,699.89014
1694300548.597,782.49084,770.0,763.95605,716.4103,734.5421
1694300548.598,789.34064,773.22345,765.16486,730.9158,844.5421
1694300548.598,799.41394,778.0586,767.5824,721.6484,863.8828
1694300548.598,803.0403,782.8938,770.40295,730.9158,806.26373
1694300548.599,791.75824,780.4762,773.22345,741.79486,1029.4872
1694300548.599,784.90845,778.0586,774.0293,722.4542,928.7546
1694300548.599,784.5055,776.04395,772.8205,716.4103,755.09155
1694300548.6,778.86444,771.2088,772.8205,736.9597,804.2491
1694300548.628,774.0293,768.7912,771.2088,746.63007,855.42126
1694300548.629,765.16486,770.0,771.6117,738.5714,794.57874
1694300548.629,757.9121,774.0293,773.6264,727.6923,720.84247
1694300548.63,755.09155,773.6264,773.22345,718.8278,763.5531
1694300548.63,748.24176,772.8205,772.01465,723.2601,789.34064
1694300548.631,746.2271,778.46155,771.6117,736.9597,834.0659
1694300548.631,755.89746,779.67035,772.4176,724.87177,817.1429
1694300548.632,757.50916,778.46155,773.6264,712.7839,1021.8315
1694300548.632,757.9121,782.0879,774.83514,731.7216,1273.2601
1694300548.633,750.2564,778.0586,772.4176,732.1245,914.65204
1694300548.633,750.2564,774.0293,771.6117,728.0952,761.9414
1694300548.6339998,761.9414,779.2674,772.8205,726.8865,833.663
1694300548.697,761.9414,778.86444,773.22345,717.2161,809.4872
1694300548.697,766.77655,780.4762,776.4469,728.49817,821.978
1694300548.7,767.5824,782.49084,776.8498,736.1539,847.3626
1694300548.701,769.19415,782.8938,773.22345,736.1539,944.0659
1694300548.7020001,773.22345,784.5055,770.80585,732.9304,832.4542
1694300548.703,761.53845,784.90845,774.83514,730.9158,761.53845
1694300548.703,759.92676,784.5055,772.4176,738.97437,877.1795
1694300548.704,761.53845,783.69965,773.22345,748.24176,1102.8206
1694300548.704,759.12085,786.1172,778.86444,748.6447,955.34796
1694300548.705,758.71796,784.10254,778.0586,743.8095,736.9597
1694300548.705,773.6264,786.52014,776.04395,746.63007,761.53845
1694300548.7059999,775.2381,785.31134,774.43225,748.6447,807.0696
1694300548.7459998,752.27106,781.28204,772.4176,737.76556,796.5934
1694300548.747,753.47986,782.49084,771.2088,729.707,743.8095
1694300548.747,763.1502,782.8938,773.22345,739.3773,793.7729
1694300548.748,753.8828,783.69965,774.43225,748.24176,847.76556
1694300548.748,750.2564,784.10254,774.83514,752.27106,779.2674
1694300548.748,761.53845,785.31134,774.83514,743.00366,733.73627
1694300548.7489998,765.9707,782.8938,772.01465,726.8865,1060.1099
1694300548.7489998,772.4176,783.2967,776.04395,730.5128,1421.5385
1694300548.7489998,770.40295,783.69965,775.2381,728.49817,1136.2638
1694300548.7500002,770.40295,781.28204,771.2088,727.6923,805.8608
1694300548.7500002,774.43225,778.0586,775.2381,745.42126,848.5714
1694300548.7500002,762.74725,780.4762,782.49084,747.03296,842.52747
1694300548.779,763.5531,782.49084,781.28204,732.1245,780.87915
1694300548.78,774.43225,781.685,780.4762,724.0659,796.99634
1694300548.78,777.25275,782.8938,778.46155,716.4103,853.8095
1694300548.781,779.2674,778.0586,773.22345,713.9927,857.8388
1694300548.783,782.8938,774.0293,776.04395,720.4396,772.8205
1694300548.784,776.04395,776.04395,783.69965,734.94507,816.337
1694300548.784,772.4176,777.25275,786.52014,745.42126,1149.1575
1694300548.7849998,775.64105,775.64105,784.90845,747.03296,1087.9121
1694300548.7849998,780.87915,771.6117,784.5055,725.2747,817.5458
1694300548.7859998,789.34064,772.8205,780.4762,724.87177,853.00366
1694300548.7870002,788.5348,776.04395,777.6557,747.03296,1071.7949
1694300548.7870002,783.2967,779.67035,779.67035,758.315,853.8095
1694300548.831,780.4762,779.67035,778.86444,765.16486,705.5311
1694300548.831,781.28204,775.64105,772.8205,769.19415,783.2967
1694300548.832,782.49084,776.04395,772.01465,752.27106,789.34064
1694300548.832,791.3553,781.28204,779.2674,745.42126,795.38464
1694300548.833,801.4286,782.0879,780.4762,749.85345,809.4872
1694300548.833,784.5055,782.0879,781.685,734.94507,940.0366
1694300548.8339999,766.3736,784.90845,783.69965,737.76556,924.7253
1694300548.8339999,760.7326,782.8938,782.49084,739.7802,797.3993
1694300548.835,754.2857,776.4469,777.6557,724.87177,810.293
1694300548.835,738.97437,772.4176,778.86444,729.304,1012.96704
1694300548.836,730.9158,774.0293,787.326,736.1539,1234.1758
1694300548.836,729.707,772.01465,781.685,721.6484,935.6044
1694300548.895,724.0659,770.0,774.83514,718.4249,738.5714
1694300548.895,726.8865,769.19415,774.43225,716.8132,828.8278
1694300548.896,726.4835,759.5238,772.4176,703.1135,757.9121
1694300548.896,713.9927,764.35895,767.1795,695.05493,719.2308
1694300548.896,715.2015,776.8498,769.59705,695.05493,780.4762
1694300548.8969998,708.3516,765.9707,759.92676,711.5751,915.8608
1694300548.8990002,705.12823,763.1502,757.9121,712.381,909.81683
1694300548.8990002,700.696,777.6557,768.3883,684.17584,793.7729
1694300548.9,705.5311,785.7143,771.6117,689.41394,818.7546
1694300548.9,716.4103,786.1172,771.2088,707.5458,1073.8096
1694300548.9,713.9927,789.7436,774.0293,704.3223,944.87177
1694300548.901,730.5128,797.3993,780.87915,718.022,772.8205
1694300548.929,738.5714,799.41394,778.0586,720.4396,848.97437
1694300548.9299998,723.663,796.1905,778.86444,728.9011,904.57874
1694300548.9299998,725.2747,798.20514,785.31134,740.58606,809.89014
1694300548.931,732.1245,805.8608,785.7143,738.1685,767.98535
1694300548.931,732.1245,810.696,785.31134,744.21246,789.7436
1694300548.932,739.7802,811.50183,789.34064,745.0183,815.9341
1694300548.932,749.0476,814.3223,788.1319,735.7509,875.9707
1694300548.932,759.12085,817.1429,785.7143,738.1685,850.18317
1694300548.9329998,761.53845,816.7399,791.3553,757.9121,1000.87915
1694300548.9329998,769.19415,823.9927,794.57874,777.25275,1239.011
1694300548.934,779.2674,827.619,799.41394,772.01465,918.2784
1694300548.934,782.0879,825.2015,805.4579,767.5824,685.78754
1694300548.9980001,775.2381,827.2161,808.2784,775.64105,779.2674
1694300548.999,771.2088,826.4103,804.65204,777.25275,823.1868
1694300548.999,774.83514,824.7985,804.2491,772.8205,827.619
1694300549.0,786.1172,828.022,806.6667,766.77655,811.0989
1694300549.0,799.41394,834.87177,809.4872,779.2674,989.19415
1694300549.001,793.36993,836.08057,816.7399,784.10254,992.01465
1694300549.001,786.1172,828.022,818.3516,770.40295,813.91943
1694300549.0019999,790.14655,819.9634,812.71063,776.4469,795.38464
1694300549.0049999,793.36993,821.1722,810.696,789.7436,1084.2858
1694300549.0049999,778.86444,825.2015,813.91943,777.25275,943.2601
1694300549.006,782.8938,827.2161,817.5458,768.7912,682.1612
1694300549.006,790.54944,825.6044,817.5458,773.22345,728.9011
1694300549.049,780.4762,821.978,817.9487,764.7619,771.2088
1694300549.049,786.52014,817.9487,820.3663,752.27106,756.30035
1694300549.05,791.75824,815.9341,821.1722,767.1795,727.6923
1694300549.05,784.5055,816.337,823.5897,783.69965,755.4945
1694300549.051,783.2967,814.7253,828.022,784.10254,846.9597
1694300549.051,784.90845,805.05493,826.0073,776.4469,879.19415
1694300549.052,789.7436,803.8461,826.4103,779.2674,865.09155
1694300549.052,790.54944,805.8608,830.0366,777.6557,1012.1612
1694300549.053,783.2967,802.6374,830.0366,776.04395,921.9048
1694300549.053,783.69965,804.65204,840.5128,786.52014,750.2564
1694300549.0540001,791.3553,799.81683,838.9011,788.5348,767.5824
1694300549.056,797.8022,793.7729,834.87177,801.4286,1027.8755
1694300549.1020002,789.34064,794.57874,840.9158,805.05493,1258.3517
1694300549.1030002,778.46155,792.96704,840.10986,790.9524,963.8095
1694300549.104,789.7436,788.5348,841.7216,787.72894,791.3553
1694300549.104,794.9817,787.326,836.8865,786.52014,847.76556
1694300549.105,780.07324,778.86444,834.4689,767.5824,831.2454
1694300549.105,781.28204,783.69965,838.49817,749.85345,824.7985
1694300549.106,779.2674,793.36993,838.49817,754.2857,830.84247
1694300549.107,771.2088,792.1612,835.6777,765.56775,1160.0366
1694300549.107,769.19415,798.20514,836.08057,756.7033,1092.7472
1694300549.108,773.22345,807.8755,843.3333,749.45056,752.674
1694300549.111,785.31134,804.65204,848.97437,747.03296,736.1539
1694300549.112,773.6264,801.02563,848.1685,734.5421,752.674
1694300549.1390002,751.06226,798.20514,840.10986,735.34796,750.65936
1694300549.14,755.09155,800.2198,837.6923,743.00366,751.8681
1694300549.1420002,764.7619,806.6667,844.1392,749.45056,772.8205
1694300549.1420002,764.7619,804.65204,845.34796,768.3883,794.9817
1694300549.1430001,773.6264,806.26373,847.3626,773.22345,789.34064
1694300549.144,785.7143,811.50183,857.8388,755.89746,793.36993
1694300549.145,788.1319,808.68134,860.65936,749.45056,1000.4762
1694300549.145,786.9231,807.0696,857.03296,751.4652,1227.7289
1694300549.146,787.326,806.6667,861.8681,757.9121,907.8022
1694300549.147,785.7143,807.8755,870.32965,761.9414,775.2381
1694300549.148,789.34064,817.1429,876.77655,776.04395,1023.44324
1694300549.149,793.7729,821.5751,872.3443,788.5348,999.67035
1694300549.174,790.9524,811.9048,869.92676,790.9524,813.91943
1694300549.175,801.8315,808.68134,879.59705,786.52014,841.7216
1694300549.175,805.8608,812.71063,882.8205,782.49084,850.18317
1694300549.176,805.4579,820.3663,880.80585,785.7143,776.4469
1694300549.177,814.7253,821.5751,883.6264,782.49084,734.94507
1694300549.177,809.0842,811.9048,886.8498,774.83514,887.6557
1694300549.178,803.8461,803.44324,884.43225,780.07324,1185.8242
1694300549.178,802.23444,808.2784,879.59705,768.3883,915.05493
1694300549.1790001,797.8022,814.7253,876.3736,761.9414,678.93774
1694300549.1790001,795.38464,813.1135,873.1502,763.95605,775.2381
1694300549.18,793.36993,810.293,875.56775,768.7912,823.9927
1694300549.18,803.8461,815.12823,880.40295,771.2088,796.99634
1694300549.248,807.47253,817.9487,880.80585,765.16486,814.3223
1694300549.2489998,810.293,812.3077,878.7912,763.5531,828.4249
1694300549.2499998,810.696,813.1135,878.3883,774.0293,869.92676
1694300549.2510002,802.6374,815.5311,880.80585,790.54944,827.2161
1694300549.2510002,791.3553,818.7546,884.0293,790.9524,770.40295
1694300549.252,795.38464,818.3516,877.5824,774.83514,960.58606
1694300549.252,794.57874,816.7399,873.1502,770.80585,997.25275
1694300549.253,789.34064,813.5165,875.56775,780.87915,836.08057
1694300549.2540002,785.7143,810.696,874.7619,787.72894,780.07324
1694300549.2540002,784.5055,811.0989,871.13556,791.75824,987.5824
1694300549.255,779.2674,806.6667,865.89746,787.326,1149.9634
1694300549.255,776.04395,802.23444,865.09155,769.59705,811.50183
1694300549.2979999,774.83514,803.8461,865.4945,762.74725,728.9011
1694300549.3,781.28204,804.2491,868.315,764.35895,808.2784
1694300549.3009999,784.5055,799.81683,869.12085,763.5531,830.4396
1694300549.302,770.40295,798.60803,864.68866,752.27106,870.7326
1694300549.303,765.56775,799.41394,855.82416,741.79486,818.7546
1694300549.304,765.9707,793.7729,845.34796,745.82416,1083.8828
1694300549.304,752.27106,784.90845,848.5714,753.8828,997.6557
1694300549.3049998,757.1062,789.34064,853.4066,759.12085,703.5165
1694300549.3059998,769.19415,794.57874,850.58606,752.674,774.0293
1694300549.3059998,751.8681,790.9524,849.7802,752.674,941.2454
1694300549.3070002,749.0476,791.3553,848.97437,758.315,844.94507
1694300549.308,761.9414,789.7436,848.5714,770.0,747.8388
1694300549.36,770.40295,789.34064,849.7802,781.685,764.7619
1694300549.3609998,768.7912,796.5934,845.7509,769.19415,810.293
1694300549.365,748.6447,802.23444,839.304,745.42126,825.2015
1694300549.3660002,738.97437,796.99634,837.28937,744.61536,786.1172
1694300549.367,745.82416,789.7436,836.8865,778.46155,801.02563
1694300549.368,753.0769,790.9524,832.4542,791.75824,856.2271
1694300549.369,753.8828,792.1612,826.4103,767.5824,882.8205
1694300549.369,751.4652,788.5348,823.9927,743.00366,796.5934
1694300549.37,753.8828,788.1319,820.7692,733.73627,1004.5055
1694300549.371,757.50916,788.5348,817.9487,755.4945,1336.1172
1694300549.371,751.8681,784.90845,819.15753,763.95605,1070.1831
1694300549.372,747.03296,784.90845,819.9634,751.4652,790.14655
1694300549.373,742.1978,789.34064,816.7399,753.8828,795.78754
1694300549.374,740.58606,789.34064,809.0842,752.674,770.40295
1694300549.375,749.0476,786.1172,805.4579,735.7509,756.7033
1694300549.375,749.85345,786.52014,808.2784,744.61536,786.1172
1694300549.376,740.18317,786.9231,808.68134,760.7326,842.9304
1694300549.3769999,732.1245,778.86444,803.44324,753.0769,903.36993
1694300549.3769999,741.79486,779.67035,801.8315,744.21246,807.47253
1694300549.3779998,749.0476,783.69965,796.99634,737.76556,806.6667
1694300549.379,740.989,781.28204,794.17584,737.3626,982.74725
1694300549.379,743.8095,782.8938,791.75824,748.24176,810.293
1694300549.38,755.89746,782.49084,792.1612,757.1062,676.9231
1694300549.38,751.4652,781.685,794.17584,757.1062,796.1905
1694300549.412,749.85345,784.5055,792.5641,749.45056,1085.8975
1694300549.4129999,756.7033,783.2967,791.3553,734.5421,928.3516
1694300549.414,757.1062,777.25275,787.326,732.9304,782.49084
1694300549.415,765.16486,775.64105,786.9231,753.8828,814.7253
1694300549.418,772.4176,775.2381,784.5055,756.7033,766.77655
1694300549.4190001,771.6117,776.8498,784.90845,744.21246,862.674
1694300549.4190001,772.4176,776.8498,786.9231,743.8095,821.1722
1694300549.42,776.04395,772.8205,786.52014,751.4652,985.9707
1694300549.42,775.64105,772.8205,790.14655,770.40295,1262.381
1694300549.421,761.9414,770.40295,788.93774,769.59705,848.1685
1694300549.4220002,749.85345,767.98535,782.8938,776.4469,662.4176
1694300549.423,749.0476,769.59705,779.2674,779.67035,987.1795
1694300549.465,751.4652,774.0293,781.685,767.1795,929.5604
1694300549.4659998,751.8681,779.2674,781.685,761.53845,715.6044
1694300549.467,749.0476,778.86444,774.43225,766.77655,716.0073
1694300549.468,753.8828,774.43225,774.0293,772.01465,771.2088
1694300549.468,762.3443,774.83514,778.46155,768.7912,811.9048
1694300549.468,756.30035,773.22345,781.28204,759.92676,806.6667
1694300549.4689999,753.0769,772.01465,782.8938,760.7326,863.0769
1694300549.4689999,753.0769,774.43225,783.2967,768.3883,1087.5092
1694300549.47,759.5238,774.83514,780.07324,767.1795,917.8755
1694300549.47,763.1502,774.83514,777.6557,760.32965,721.2454
1694300549.47,747.8388,775.64105,777.25275,748.6447,781.28204
1694300549.471,753.8828,778.86444,779.67035,758.315,836.8865
1694300549.5059998,755.4945,778.86444,781.28204,764.7619,807.8755
1694300549.507,750.65936,775.2381,782.49084,762.74725,794.17584
1694300549.507,750.2564,774.0293,783.69965,764.35895,889.2674
1694300549.508,750.65936,777.6557,785.31134,770.0,905.78754
1694300549.508,755.09155,781.28204,784.10254,759.12085,778.46155
1694300549.5089998,761.53845,784.90845,781.28204,753.0769,751.8681
1694300549.512,767.5824,783.69965,783.2967,764.35895,1018.60803
1694300549.512,755.4945,780.07324,780.07324,763.95605,1142.7106
1694300549.513,742.6007,777.6557,778.0586,755.09155,838.0952
1694300549.514,748.6447,776.04395,780.87915,755.09155,755.89746
1694300549.514,761.53845,773.22345,780.4762,755.09155,958.5714
1694300549.515,765.16486,776.4469,781.685,749.85345,896.9231
1694300549.539,765.9707,782.0879,782.8938,741.79486,722.8571
1694300549.539,759.12085,781.685,783.69965,740.58606,746.63007
1694300549.54,761.9414,782.49084,785.31134,739.3773,806.6667
1694300549.54,763.95605,785.7143,788.93774,725.2747,828.4249
1694300549.541,756.30035,780.4762,788.93774,721.2454,802.6374
1694300549.541,769.19415,776.4469,788.1319,729.304,895.31134
1694300549.542,774.0293,776.8498,788.93774,742.1978,1281.3187
1694300549.542,766.3736,779.67035,786.1172,743.00366,1138.6813
1694300549.543,761.53845,782.8938,786.1172,737.3626,774.83514
1694300549.543,765.16486,784.90845,787.72894,740.58606,749.0476
1694300549.543,773.6264,789.7436,788.1319,738.1685,747.8388
1694300549.544,779.67035,789.7436,786.9231,734.94507,753.8828
1694300549.571,784.90845,787.326,784.90845,732.1245,766.3736
1694300549.572,780.4762,782.8938,784.5055,736.55676,771.6117
1694300549.573,771.2088,777.25275,783.2967,743.00366,776.8498
1694300549.573,776.4469,779.67035,784.5055,763.1502,786.52014
1694300549.5740001,781.28204,788.1319,789.7436,778.86444,792.1612
1694300549.575,774.83514,784.90845,789.7436,757.9121,971.4652
1694300549.575,771.6117,782.8938,788.5348,747.4359,977.9121
1694300549.576,779.2674,784.5055,786.9231,745.0183,827.619
1694300549.58,781.28204,780.87915,788.1319,729.707,812.3077
1694300549.5809999,778.86444,780.4762,794.17584,740.989,1100.8059
1694300549.582,780.87915,780.07324,795.78754,750.2564,1342.5641
1694300549.582,779.67035,779.67035,792.1612,747.4359,1030.2931
1694300549.647,784.10254,780.4762,787.72894,752.27106,800.2198
1694300549.648,795.78754,780.87915,789.7436,747.03296,856.2271
1694300549.649,795.38464,781.685,793.36993,735.34796,819.5604
1694300549.649,784.90845,777.6557,790.14655,739.7802,786.9231
1694300549.6499999,775.64105,778.0586,789.34064,755.09155,796.5934
1694300549.651,773.6264,776.8498,788.1319,765.56775,853.8095
1694300549.651,772.8205,774.43225,788.1319,757.50916,915.05493
1694300549.652,777.6557,773.22345,786.52014,761.9414,785.31134
1694300549.6529999,784.10254,768.7912,786.1172,763.95605,737.76556
1694300549.6529999,776.04395,768.3883,786.52014,762.3443,1122.1611
1694300549.654,763.95605,770.40295,784.90845,757.9121,1006.9231
1694300549.654,768.7912,767.1795,784.10254,739.3773,718.8278
1694300549.705,769.59705,762.3443,779.67035,734.5421,785.31134
1694300549.7059999,764.35895,763.1502,778.0586,738.1685,808.68134
1694300549.707,757.50916,762.74725,776.4469,734.5421,791.3553
1694300549.708,757.9121,765.56775,776.04395,714.3956,775.2381
1694300549.708,765.9707,767.1795,779.67035,704.3223,792.96704
1694300549.7089999,759.92676,760.7326,778.0586,718.022,852.6007
1694300549.71,757.9121,762.3443,777.6557,714.7985,854.61536
1694300549.71,757.9121,764.7619,780.87915,709.15753,846.55676
1694300549.711,753.47986,765.9707,780.87915,733.73627,1021.02563
1694300549.711,745.0183,771.6117,782.0879,746.63007,1211.2087
1694300549.7150002,748.6447,767.5824,784.5055,734.5421,893.2967
1694300549.7150002,766.3736,762.74725,780.4762,720.4396,790.14655
1694300549.739,778.0586,766.3736,774.83514,701.50183,1001.28204
1694300549.74,772.4176,768.7912,777.25275,705.5311,829.6337
1694300549.741,764.7619,763.95605,781.685,744.61536,703.5165
1694300549.741,768.3883,763.1502,782.0879,748.6447,778.46155
1694300549.742,759.92676,769.19415,777.6557,717.619,820.3663
1694300549.742,753.0769,774.83514,776.04395,693.8461,906.5934
1694300549.743,767.5824,777.6557,780.07324,692.23444,888.86444
1694300549.744,772.4176,774.0293,780.4762,709.15753,778.46155
1694300549.744,766.3736,773.22345,780.07324,715.2015,1042.7839
1694300549.745,767.1795,773.22345,781.685,699.89014,933.1868
1694300549.7459998,767.98535,769.19415,777.6557,695.4579,729.304
1694300549.7459998,767.98535,767.5824,776.8498,698.2784,799.011
1694300549.773,768.7912,769.19415,781.685,711.1722,794.9817
1694300549.7740002,765.9707,772.4176,783.69965,726.08057,744.61536
1694300549.7740002,757.50916,765.16486,781.685,723.2601,740.989
1694300549.775,760.32965,766.3736,782.8938,718.022,882.8205
1694300549.775,772.8205,766.3736,788.5348,709.5604,920.696
1694300549.776,762.3443,759.12085,785.31134,709.5604,856.2271
1694300549.776,755.89746,768.3883,782.8938,710.7692,854.21246
1694300549.777,761.13556,773.22345,781.28204,704.3223,1054.4689
1694300549.7779999,761.13556,769.59705,784.90845,718.4249,1287.7656
1694300549.7779999,759.5238,767.98535,789.7436,719.6337,964.21246
1694300549.779,758.71796,770.40295,788.93774,718.4249,781.28204
1694300549.779,758.315,776.8498,784.90845,733.73627,867.50916
1694300549.8060002,759.92676,771.2088,781.28204,737.76556,809.4872
1694300549.8070002,760.32965,768.3883,780.87915,735.34796,781.685
1694300549.808,755.09155,769.59705,777.6557,708.7546,841.31866
1694300549.808,755.09155,770.0,776.4469,701.50183,883.6264
1694300549.809,759.12085,777.25275,779.2674,719.6337,819.9634
1694300549.81,760.32965,774.0293,781.685,727.6923,861.06226
1694300549.811,753.47986,764.35895,780.87915,723.663,901.3553
1694300549.813,750.65936,769.59705,781.685,736.9597,1203.1501
1694300549.8140001,751.4652,775.64105,779.67035,745.82416,1142.3077
1694300549.815,748.24176,774.43225,771.6117,720.0366,755.09155
1694300549.816,746.63007,775.64105,776.8498,722.8571,747.03296
1694300549.817,740.989,775.2381,779.2674,732.52747,785.31134
1694300549.865,748.24176,774.0293,776.8498,705.5311,777.25275
1694300549.867,759.12085,772.01465,777.6557,705.12823,775.2381
1694300549.868,750.65936,765.56775,781.28204,717.619,767.98535
1694300549.869,741.79486,761.9414,778.46155,717.619,770.0
1694300549.8700001,748.6447,763.95605,774.0293,714.7985,787.326
1694300549.8700001,756.30035,765.9707,773.6264,714.7985,763.1502
1694300549.871,757.50916,765.56775,778.46155,722.8571,1026.6666
1694300549.872,751.4652,766.3736,780.4762,736.1539,1280.9158
1694300549.873,746.63007,763.1502,779.67035,734.94507,942.0513
1694300549.8739998,750.2564,761.53845,782.49084,730.9158,751.8681
1694300549.8739998,751.8681,764.7619,783.2967,731.31866,961.39197
1694300549.875,759.12085,765.56775,783.69965,727.28937,954.5421
1694300549.931,760.32965,766.3736,780.4762,725.2747,757.1062
1694300549.932,760.7326,767.1795,777.6557,729.304,778.86444
1694300549.936,760.7326,772.8205,776.04395,726.8865,817.9487
1694300549.937,752.27106,776.04395,773.6264,716.8132,789.7436
1694300549.938,757.9121,773.22345,772.01465,711.978,754.2857
1694300549.9390001,764.35895,770.80585,774.0293,727.28937,871.53845
1694300549.9390001,755.89746,771.6117,773.6264,746.2271,1114.1025
1694300549.94,752.27106,770.0,771.2088,715.6044,938.022
1694300549.941,768.7912,766.3736,775.64105,705.9341,741.79486
1694300549.9420002,762.3443,764.35895,776.4469,735.7509,792.1612
1694300549.943,748.6447,762.74725,772.8205,747.03296,858.6447
1694300549.943,753.8828,766.77655,773.22345,759.92676,804.2491
1694300549.978,760.32965,767.5824,767.5824,738.1685,737.76556
1694300549.979,761.53845,767.1795,763.95605,707.1429,806.26373
1694300549.98,759.92676,768.3883,770.0,726.08057,869.12085
1694300549.981,762.74725,770.40295,767.5824,726.8865,777.25275
1694300549.981,765.16486,765.9707,767.98535,719.6337,724.4689
1694300549.982,765.9707,764.35895,771.2088,715.2015,888.0586
1694300549.982,763.1502,766.3736,770.80585,698.2784,975.4945
1694300549.983,768.7912,765.9707,774.0293,699.0842,869.5238
1694300549.984,767.5824,768.3883,778.0586,706.337,778.46155
1694300549.984,753.0769,769.19415,778.46155,718.022,959.7802
1694300549.985,762.3443,770.80585,778.86444,738.1685,1207.5824
1694300549.9859998,774.43225,777.25275,783.69965,740.18317,903.36993
1694300550.01,780.87915,778.0586,789.34064,731.7216,801.8315
1694300550.0110002,791.75824,777.25275,787.326,721.2454,965.0183
1694300550.012,788.1319,778.46155,788.1319,723.663,841.7216
1694300550.012,774.43225,780.07324,791.75824,737.76556,755.4945
1694300550.016,767.98535,773.22345,788.93774,736.55676,848.97437
1694300550.017,772.4176,774.0293,787.72894,726.8865,1011.75824
1694300550.018,771.6117,777.6557,787.72894,725.6777,938.8278
1694300550.018,765.56775,770.0,790.54944,718.8278,763.1502
1694300550.019,762.74725,772.4176,792.5641,714.7985,810.293
1694300550.019,761.9414,779.2674,793.7729,729.304,1122.5641
1694300550.02,764.7619,780.07324,797.8022,733.3333,951.31866
1694300550.021,762.3443,776.8498,800.6227,728.9011,722.8571
1694300550.05,770.0,776.4469,801.02563,730.9158,782.0879
1694300550.051,782.49084,779.2674,801.02563,739.7802,799.81683
1694300550.052,778.46155,774.83514,800.6227,745.82416,762.3443
1694300550.052,763.1502,768.7912,798.60803,752.27106,735.7509
1694300550.053,761.9414,768.3883,795.38464,754.68866,822.381
1694300550.0540001,757.9121,766.3736,796.1905,755.89746,942.8571
1694300550.0540001,755.4945,765.16486,796.1905,732.52747,867.1062
1694300550.055,762.3443,767.98535,794.17584,708.7546,830.4396
1694300550.055,762.74725,770.0,793.7729,701.0989,1077.033
1694300550.056,765.56775,772.4176,798.20514,713.9927,1281.7216
1694300550.056,769.19415,779.2674,798.20514,727.6923,927.9487
1694300550.057,755.4945,780.07324,793.36993,725.6777,753.0769
1694300550.0830002,746.63007,773.6264,793.36993,739.7802,853.8095
1694300550.084,750.65936,772.4176,794.17584,728.9011,821.1722
1694300550.085,747.4359,770.40295,788.1319,698.68134,792.5641
1694300550.085,745.82416,765.16486,787.72894,702.71063,789.7436
1694300550.0860002,752.674,768.3883,795.78754,712.381,800.2198
1694300550.0870001,755.89746,778.46155,795.38464,712.381,883.22345
1694300550.09,754.68866,771.6117,791.3553,723.663,869.5238
1694300550.091,750.65936,758.71796,791.75824,729.304,877.5824
1694300550.091,744.61536,758.315,788.5348,729.304,1138.2784
1694300550.092,740.989,755.4945,780.4762,729.707,1006.1172
1694300550.093,736.1539,753.0769,778.0586,739.3773,767.5824
1694300550.093,735.34796,751.4652,774.83514,742.1978,818.7546
1694300550.163,740.18317,742.6007,766.77655,725.6777,830.84247
1694300550.165,757.1062,740.58606,760.7326,710.3663,793.36993
1694300550.1660001,753.47986,736.1539,758.315,704.3223,771.6117
1694300550.1660001,734.1392,733.3333,763.1502,713.1868,832.4542
1694300550.167,735.7509,733.3333,764.35895,723.2601,841.31866
1694300550.168,737.76556,727.6923,757.1062,716.8132,893.69965
1694300550.169,740.58606,726.8865,751.8681,711.5751,920.293
1694300550.1699998,744.61536,726.4835,751.06226,720.0366,1085.8975
1694300550.1699998,750.65936,724.87177,751.06226,734.1392,1377.619
1694300550.171,749.85345,724.4689,751.06226,739.3773,1018.20514
1694300550.172,736.1539,722.8571,749.85345,724.0659,779.2674
1694300550.1729999,733.3333,723.2601,743.4066,701.9048,967.03296
1694300550.203,743.00366,723.663,738.5714,708.7546,864.2857
1694300550.205,741.79486,722.4542,740.18317,725.6777,753.0769
1694300550.206,744.21246,720.84247,741.79486,731.7216,830.0366
1694300550.207,755.4945,721.2454,740.58606,722.0513,822.7839
1694300550.208,769.19415,724.4689,740.989,703.91943,782.8938
1694300550.2089999,777.6557,726.08057,739.3773,688.20514,738.97437
1694300550.2099998,769.59705,728.49817,740.58606,703.1135,814.3223
1694300550.211,756.30035,730.9158,743.8095,718.8278,963.8095
1694300550.2150002,752.27106,727.28937,743.4066,718.8278,844.94507
1694300550.217,749.85345,726.8865,744.21246,727.28937,753.47986
1694300550.218,738.97437,724.87177,742.1978,735.7509,839.304
1694300550.218,737.3626,721.2454,741.79486,742.6007,1010.54944
1694300550.247,746.2271,721.6484,736.1539,741.39197,923.5165
1694300550.248,736.55676,719.2308,724.0659,731.31866,747.8388
1694300550.2489998,718.8278,715.2015,720.4396,724.0659,845.7509
1694300550.2499998,736.55676,725.6777,722.0513,716.4103,936.4103
1694300550.2510002,744.21246,730.5128,719.2308,716.8132,816.337
1694300550.252,736.55676,728.0952,717.619,727.6923,824.3956
1694300550.253,738.5714,734.5421,719.6337,732.1245,1045.2014
1694300550.2540002,745.0183,735.7509,722.8571,735.34796,1323.6263
1694300550.2540002,752.27106,735.7509,726.8865,726.8865,996.04395
1694300550.255,755.89746,736.55676,732.1245,717.619,739.3773
1694300550.256,756.7033,733.3333,732.52747,727.28937,890.4762
1694300550.256,758.315,734.5421,730.5128,728.49817,871.53845
1694300550.281,753.0769,737.76556,729.304,711.978,743.8095
1694300550.2819998,749.45056,739.3773,733.3333,712.7839,778.46155
1694300550.283,761.53845,742.6007,736.1539,714.3956,880.80585
1694300550.284,757.1062,742.1978,734.1392,720.4396,823.9927
1694300550.284,748.24176,743.00366,737.3626,732.9304,761.13556
1694300550.2849998,746.2271,743.4066,740.989,730.9158,900.54944
1694300550.2849998,750.2564,742.6007,738.5714,721.2454,1232.967
1694300550.286,749.45056,748.24176,743.4066,703.91943,1014.17584
1694300550.2870002,745.0183,750.2564,749.85345,693.44324,725.6777
1694300550.2870002,749.0476,752.27106,754.68866,695.05493,749.85345
1694300550.2910001,747.03296,754.2857,758.71796,707.5458,748.24176
1694300550.292,747.4359,754.68866,761.53845,715.2015,704.7253
1694300550.3209999,743.4066,753.0769,765.56775,713.9927,675.7143
1694300550.3219998,743.00366,747.4359,765.56775,700.696,720.0366
1694300550.323,744.61536,750.65936,766.77655,699.4872,777.25275
1694300550.323,740.18317,755.89746,769.19415,716.0073,772.4176
1694300550.324,742.1978,755.09155,774.83514,720.4396,736.1539
1694300550.324,738.97437,753.0769,776.8498,729.707,951.31866
1694300550.325,732.1245,753.0769,776.4469,740.58606,1105.641
1694300550.3260002,733.73627,751.8681,778.0586,724.87177,933.1868
1694300550.3260002,743.00366,752.674,782.0879,719.2308,793.36993
1694300550.3270001,749.85345,751.8681,782.8938,732.1245,965.82416
1694300550.3270001,754.68866,751.06226,782.0879,735.34796,1120.9524
1694300550.328,754.68866,752.27106,787.326,727.6923,845.7509
1694300550.3969998,753.8828,751.06226,787.326,727.6923,767.98535
1694300550.3990002,753.47986,745.82416,781.685,718.4249,823.5897
1694300550.4,747.4359,745.42126,782.49084,709.9634,756.30035
1694300550.401,748.6447,740.58606,779.67035,701.50183,723.663
1694300550.402,748.24176,733.73627,774.0293,694.65204,765.9707
1694300550.403,744.61536,734.5421,775.2381,703.91943,876.3736
1694300550.403,745.82416,733.3333,776.04395,714.7985,993.6264
1694300550.404,744.61536,732.52747,772.01465,712.381,864.68866
1694300550.405,747.4359,733.3333,770.0,707.9487,772.4176
1694300550.4060001,746.63007,731.7216,766.77655,722.0513,1114.9084
1694300550.4060001,740.58606,732.1245,764.7619,723.663,1073.4066
1694300550.407,745.82416,732.52747,760.7326,707.1429,770.0
1694300550.448,748.6447,730.5128,751.4652,701.0989,776.04395
1694300550.449,758.315,731.7216,749.45056,712.381,815.9341
1694300550.4499998,753.47986,730.9158,742.1978,713.5897,778.46155
1694300550.4499998,748.24176,728.9011,732.1245,712.381,774.83514
1694300550.451,750.2564,729.304,724.87177,715.6044,872.74725
1694300550.451,750.65936,732.1245,717.2161,705.9341,940.84247
1694300550.452,759.12085,730.9158,709.15753,689.41394,917.8755
1694300550.4529998,767.98535,730.10986,699.89014,693.44324,900.54944
1694300550.4529998,759.5238,730.9158,687.8022,702.3077,1139.0842
1694300550.4540002,749.0476,730.5128,679.7436,705.9341,1131.8315
1694300550.4540002,753.8828,731.7216,676.9231,706.337,891.28204
1694300550.4550002,755.4945,730.9158,670.4762,686.1905,766.77655
1694300550.479,745.42126,725.6777,661.2088,684.17584,998.86444
1694300550.48,748.24176,722.8571,656.3736,703.91943,1164.4689
1694300550.481,753.0769,725.2747,657.1795,701.9048,824.3956
1694300550.4819999,738.97437,724.4689,657.98535,694.2491,731.31866
1694300550.4819999,729.707,727.6923,654.35895,697.47253,810.696
1694300550.483,730.5128,731.31866,642.27106,694.2491,845.34796
1694300550.484,730.10986,724.0659,634.61536,692.6374,811.50183
1694300550.484,720.0366,713.5897,619.304,684.57874,843.3333
1694300550.485,713.9927,703.1135,602.381,667.25275,1105.238
1694300550.485,705.5311,697.0696,591.50183,655.9707,944.87177
1694300550.486,695.05493,691.8315,574.57874,656.77655,722.4542
1694300550.487,693.44324,684.17584,552.4176,651.53845,769.19415
1694300550.54,689.81683,680.9524,529.45056,645.4945,799.011
1694300550.541,685.38464,684.57874,515.34796,654.35895,810.696
1694300550.544,688.60803,686.1905,510.1099,672.8938,768.3883
1694300550.5449998,689.81683,685.38464,498.02197,669.2674,822.381
1694300550.5459998,694.2491,688.20514,487.54578,642.27106,866.7033
1694300550.5459998,704.7253,694.65204,493.99268,622.52747,874.35895
1694300550.5470002,713.5897,703.1135,502.85715,615.6777,839.707
1694300550.548,710.3663,704.3223,513.3333,628.1685,1029.0842
1694300550.548,707.5458,708.7546,531.4652,641.8681,1361.0989
1694300550.549,712.7839,720.4396,544.7619,642.674,976.30035
1694300550.5500002,708.3516,726.08057,553.6264,649.5238,748.6447
1694300550.5500002,713.1868,729.707,569.34064,667.25275,860.65936
1694300550.575,726.4835,735.34796,580.6227,682.5641,819.15753
1694300550.576,739.7802,740.58606,593.5165,670.87915,750.2564
1694300550.577,750.65936,753.47986,606.0073,669.67035,749.45056
1694300550.577,751.06226,761.53845,615.6777,682.1612,861.4652
1694300550.5779998,758.71796,761.13556,632.6007,694.2491,839.707
1694300550.579,769.19415,762.74725,647.9121,697.8755,785.7143
1694300550.58,767.5824,764.35895,657.5824,691.8315,832.0513
1694300550.58,769.19415,763.1502,669.67035,711.5751,1061.3187
1694300550.5809999,766.3736,753.8828,681.75824,714.3956,978.315
1694300550.5830002,766.77655,747.03296,694.65204,704.7253,739.7802
1694300550.584,777.25275,751.8681,704.7253,714.7985,753.0769
1694300550.585,781.28204,760.7326,713.5897,721.2454,802.6374
1694300550.613,784.5055,763.95605,719.6337,714.7985,809.89014
1694300550.614,789.7436,763.1502,724.87177,703.1135,804.2491
1694300550.615,788.5348,765.56775,734.5421,699.0842,852.6007
1694300550.615,784.10254,767.1795,742.6007,709.5604,891.28204
1694300550.619,775.64105,765.56775,749.0476,716.8132,842.52747
1694300550.619,780.4762,767.98535,758.315,706.7399,811.9048
1694300550.62,790.14655,766.77655,763.95605,707.5458,1010.9524
1694300550.621,790.54944,764.7619,766.77655,713.1868,1151.978
1694300550.621,786.1172,766.3736,776.8498,717.619,918.2784
1694300550.6220002,778.46155,764.35895,782.8938,727.6923,809.4872
1694300550.6220002,779.2674,768.3883,783.2967,727.28937,964.21246
1694300550.6230001,782.49084,773.22345,788.5348,715.6044,922.3077
1694300550.667,781.685,769.59705,788.93774,716.4103,755.89746
1694300550.669,776.8498,767.5824,786.1172,717.2161,801.02563
1694300550.67,767.1795,767.5824,786.52014,713.9927,1076.227
1694300550.67,765.9707,765.9707,788.1319,722.4542,990.0
1694300550.671,774.43225,762.74725,791.3553,727.6923,766.3736
1694300550.672,776.4469,761.53845,792.96704,736.9597,892.0879
1694300550.6729999,774.43225,763.1502,788.5348,739.3773,1249.4872
1694300550.6739998,777.6557,761.9414,780.4762,716.8132,1079.0476
1694300550.6739998,777.6557,755.89746,780.07324,708.7546,779.67035
1694300550.675,775.2381,754.2857,781.685,733.3333,876.3736
1694300550.676,768.3883,754.68866,780.87915,747.4359,950.9158
1694300550.677,765.16486,750.65936,782.0879,747.4359,871.9414
1694300550.7350001,770.40295,745.42126,784.10254,737.76556,808.68134
1694300550.736,776.04395,743.8095,787.326,726.08057,834.87177
1694300550.737,776.8498,743.4066,789.34064,728.9011,879.59705
1694300550.738,775.64105,739.7802,787.72894,740.18317,821.5751
1694300550.738,774.83514,738.97437,792.1612,761.53845,797.3993
1694300550.739,781.685,738.5714,794.57874,776.8498,958.97437
1694300550.743,777.6557,730.9158,788.93774,771.6117,937.2161
1694300550.744,767.98535,723.2601,788.5348,755.09155,858.24176
1694300550.744,763.5531,720.0366,788.93774,740.58606,838.49817
1694300550.745,761.13556,720.4396,790.14655,741.79486,974.2857
1694300550.7459998,762.3443,723.2601,790.9524,752.27106,1214.8352
1694300550.747,765.9707,724.87177,792.5641,756.30035,890.4762
1694300550.7740002,764.7619,729.707,794.57874,755.4945,749.45056
1694300550.775,760.7326,730.10986,794.57874,757.50916,915.8608
1694300550.776,765.9707,734.5421,796.99634,744.21246,814.3223
1694300550.777,772.4176,743.4066,801.4286,741.79486,711.978
1694300550.7779999,776.04395,745.0183,803.8461,756.7033,757.50916
1694300550.779,774.43225,744.61536,804.2491,759.92676,919.89014
1694300550.779,770.80585,753.0769,804.2491,759.12085,891.685
1694300550.78,770.0,762.3443,804.2491,750.65936,731.7216
1694300550.781,771.2088,771.6117,809.4872,755.09155,790.9524
1694300550.781,775.2381,782.8938,815.12823,763.5531,1049.2307
1694300550.782,767.98535,788.5348,815.12823,759.5238,880.40295
1694300550.783,765.16486,789.34064,811.9048,767.5824,710.3663
1694300550.816,765.9707,791.3553,810.696,763.5531,767.5824
1694300550.8179998,771.2088,792.96704,814.3223,761.9414,811.9048
1694300550.819,767.5824,796.1905,814.3223,750.65936,832.8571
1694300550.82,764.7619,803.44324,817.5458,728.0952,761.13556
1694300550.8209999,764.35895,807.47253,821.978,743.00366,820.3663
1694300550.822,763.1502,810.293,822.7839,748.24176,977.50916
1694300550.823,768.7912,814.7253,822.381,733.3333,998.86444
1694300550.824,763.95605,814.7253,822.7839,720.84247,946.4835
1694300550.8270001,762.74725,811.9048,826.0073,721.2454,1033.9194
1694300550.8270001,767.5824,815.5311,830.0366,741.79486,1219.2675
1694300550.828,757.50916,819.5604,831.2454,751.06226,910.6227
1694300550.828,753.0769,815.9341,832.4542,752.27106,709.9634
1694300550.8739998,763.5531,814.7253,833.2601,744.21246,795.78754
1694300550.875,767.5824,815.12823,832.4542,733.73627,772.01465
1694300550.876,765.56775,816.337,834.87177,728.9011,721.6484
1694300550.8769999,760.7326,817.1429,837.6923,726.08057,803.44324
1694300550.878,753.47986,815.9341,836.4835,737.3626,923.1135
1694300550.878,758.71796,809.89014,832.0513,745.82416,898.1319
1694300550.879,773.6264,807.8755,832.8571,746.63007,872.3443
1694300550.879,767.5824,809.4872,833.2601,734.1392,814.3223
1694300550.88,767.1795,805.8608,830.84247,720.4396,1173.7362
1694300550.881,766.77655,803.8461,832.0513,732.52747,1191.0623
1694300550.881,757.50916,802.6374,833.2601,733.73627,759.12085
1694300550.882,769.19415,801.02563,834.87177,727.28937,701.9048
1694300550.9420002,772.4176,795.38464,834.87177,732.1245,785.31134
1694300550.943,756.30035,790.14655,836.08057,744.21246,783.2967
1694300550.944,751.8681,785.31134,833.663,735.34796,781.28204
1694300550.944,761.53845,786.52014,831.6484,732.52747,826.0073
1694300550.945,761.13556,790.54944,833.663,738.5714,795.38464
1694300550.9459999,756.7033,790.9524,836.4835,735.34796,792.1612
1694300550.9459999,757.50916,790.9524,840.5128,728.9011,813.5165
1694300550.947,753.8828,786.1172,841.31866,738.1685,992.01465
1694300550.948,749.45056,779.67035,835.6777,751.4652,1417.5092
1694300550.949,745.0183,777.25275,828.022,749.0476,1172.5275
1694300550.952,746.63007,776.4469,815.12823,743.8095,780.07324
1694300550.9529998,754.68866,774.83514,792.5641,739.3773,852.1978
1694300550.9539998,751.06226,772.01465,769.19415,734.1392,790.14655
1694300550.9550002,749.0476,772.8205,753.8828,744.21246,697.0696
1694300550.956,751.4652,774.43225,743.8095,745.82416,753.47986
1694300550.956,748.6447,769.59705,741.79486,746.2271,806.26373
1694300550.9580002,759.5238,767.5824,745.0183,750.2564,763.95605
1694300550.959,769.59705,768.3883,741.39197,729.707,815.5311
1694300550.959,754.2857,761.13556,737.3626,712.7839,956.9597
1694300550.96,745.82416,758.71796,740.989,715.6044,1176.1538
1694300550.961,752.27106,760.32965,747.8388,714.7985,984.35895
1694300550.962,758.71796,757.1062,752.674,713.5897,729.707
1694300550.963,759.92676,749.45056,752.27106,716.4103,802.6374
1694300550.964,767.1795,745.42126,756.30035,725.6777,892.0879
1694300551.0049999,771.2088,739.3773,757.1062,730.5128,780.07324
1694300551.006,776.4469,734.5421,756.30035,734.1392,730.10986
1694300551.007,783.2967,731.31866,762.74725,739.7802,795.38464
1694300551.008,781.28204,725.2747,767.5824,740.18317,798.60803
1694300551.008,769.59705,720.84247,771.2088,734.94507,796.99634
1694300551.0089998,756.30035,718.4249,772.8205,736.9597,840.10986
1694300551.01,745.0183,718.4249,776.8498,753.8828,968.6447
1694300551.0110002,740.58606,718.022,783.69965,759.5238,1126.9963
1694300551.0110002,745.82416,715.6044,788.5348,751.4652,949.304
1694300551.013,755.09155,716.4103,792.96704,749.0476,805.05493
1694300551.0140002,749.0476,715.2015,793.7729,750.2564,971.06226
1694300551.0140002,740.18317,708.7546,793.36993,761.13556,934.3956
1694300551.062,748.24176,708.3516,793.7729,743.00366,780.87915
1694300551.063,757.9121,711.5751,794.57874,714.7985,815.9341
1694300551.064,767.5824,707.9487,792.5641,710.7692,942.0513
1694300551.0649998,770.0,708.3516,794.17584,718.4249,875.16486
1694300551.066,767.1795,711.978,798.60803,728.49817,740.58606
1694300551.0670002,764.7619,718.022,800.2198,730.10986,892.8938
1694300551.068,763.5531,722.8571,801.4286,726.8865,1222.8938
1694300551.069,770.40295,726.4835,807.0696,718.8278,982.74725
1694300551.0700002,774.0293,732.52747,814.7253,721.6484,730.5128
1694300551.0700002,774.0293,742.6007,818.7546,726.08057,778.46155
1694300551.071,775.2381,755.4945,822.381,728.9011,787.326
1694300551.072,786.9231,765.56775,828.8278,734.94507,794.9817
1694300551.1030002,781.28204,770.80585,831.2454,743.4066,762.74725
1694300551.104,772.8205,776.8498,835.2747,756.7033,751.4652
1694300551.105,778.46155,782.0879,836.8865,747.8388,819.5604
1694300551.106,780.07324,782.49084,839.707,741.39197,872.74725
1694300551.107,787.72894,784.10254,841.7216,748.6447,749.45056
1694300551.108,784.90845,787.72894,840.5128,759.12085,937.2161
1694300551.109,779.2674,791.75824,843.3333,776.4469,1350.2197
1694300551.1100001,781.685,796.1905,850.18317,769.59705,1055.6776
1694300551.1100001,784.5055,799.81683,853.4066,757.1062,697.47253
1694300551.111,779.67035,804.2491,854.21246,758.315,901.3553
1694300551.111,780.4762,809.89014,856.63007,762.3443,944.0659
1694300551.112,780.87915,809.4872,861.06226,757.1062,722.0513
1694300551.1390002,768.3883,807.47253,862.674,762.3443,720.4396
1694300551.14,761.53845,808.68134,858.24176,758.315,788.5348
1694300551.1430001,772.4176,811.50183,857.8388,741.39197,776.4469
1694300551.144,782.0879,811.0989,859.85345,707.5458,743.8095
1694300551.145,777.25275,813.91943,862.674,707.1429,797.3993
1694300551.145,775.2381,813.1135,865.4945,733.73627,868.315
1694300551.146,778.46155,815.12823,869.12085,742.1978,859.85345
1694300551.147,772.4176,817.5458,868.71796,752.27106,813.5165
1694300551.148,760.32965,811.0989,863.8828,747.4359,817.5458
1694300551.148,769.59705,811.0989,861.8681,742.1978,1173.7362
1694300551.149,777.6557,812.71063,859.0476,728.49817,1108.0586
1694300551.15,769.19415,809.4872,862.674,725.2747,759.12085
1694300551.205,773.6264,807.0696,861.4652,734.1392,756.7033
1694300551.207,769.59705,807.8755,855.82416,741.39197,817.1429
1694300551.208,775.64105,810.293,855.82416,748.24176,796.1905
1694300551.2089999,786.52014,811.0989,855.0183,751.06226,761.9414
1694300551.2099998,781.28204,807.47253,850.18317,748.6447,765.9707
1694300551.211,778.86444,803.44324,851.79486,751.06226,869.5238
1694300551.211,778.46155,799.011,852.6007,743.8095,913.0403
1694300551.212,780.87915,793.36993,846.55676,741.79486,772.8205
1694300551.212,783.2967,791.3553,837.6923,729.707,953.73627
1694300551.2129998,782.8938,789.34064,834.0659,736.55676,1263.9927
1694300551.2129998,783.2967,785.7143,832.8571,734.94507,1030.2931
1694300551.2129998,782.0879,782.8938,827.619,724.87177,767.98535
1694300551.268,786.52014,782.49084,821.1722,735.7509,821.1722
1694300551.2700002,787.72894,776.4469,814.3223,730.9158,803.0403
1694300551.2710001,786.9231,770.80585,812.3077,728.49817,748.6447
1694300551.2710001,784.90845,770.0,808.2784,745.82416,760.7326
1694300551.277,782.8938,770.40295,806.26373,747.8388,806.6667
1694300551.277,788.93774,770.40295,803.0403,723.2601,844.1392
1694300551.278,794.9817,767.1795,794.57874,703.5165,842.1245
1694300551.279,789.7436,763.95605,790.14655,705.5311,819.9634
1694300551.28,776.8498,762.3443,788.93774,713.9927,1065.348
1694300551.28,769.59705,758.71796,783.2967,717.619,963.4066
1694300551.281,768.3883,754.2857,779.2674,721.6484,758.71796
1694300551.2819998,767.98535,756.30035,782.8938,729.304,879.59705
1694300551.316,769.19415,753.0769,785.31134,738.97437,913.0403
1694300551.317,774.0293,749.85345,784.5055,731.7216,820.7692
1694300551.318,762.74725,749.0476,780.07324,719.6337,815.9341
1694300551.318,751.06226,744.21246,776.4469,712.381,867.1062
1694300551.319,767.5824,742.1978,778.0586,711.1722,906.5934
1694300551.319,771.6117,738.97437,778.0586,720.0366,941.6484
1694300551.32,759.92676,735.7509,778.46155,728.0952,906.5934
1694300551.32,748.24176,728.9011,773.22345,736.1539,1050.4396
1694300551.3209999,745.82416,723.663,771.2088,753.0769,1390.9158
1694300551.3219998,748.24176,723.663,772.8205,750.65936,1077.8389
1694300551.3219998,752.27106,724.0659,772.8205,731.31866,744.21246
1694300551.323,759.5238,724.0659,771.2088,720.84247,818.7546
1694300551.324,760.32965,722.8571,761.9414,707.1429,817.1429
1694300551.325,761.53845,726.4835,759.5238,720.4396,779.67035
1694300551.325,752.674,732.1245,761.13556,742.1978,803.8461
1694300551.3260002,751.4652,734.1392,760.32965,739.7802,919.0842
1694300551.3270001,749.0476,733.3333,757.9121,732.52747,836.8865
1694300551.3270001,743.00366,729.707,753.47986,716.4103,789.7436
1694300551.331,747.03296,726.08057,750.65936,712.7839,929.9634
1694300551.332,753.47986,729.304,749.45056,742.6007,1172.5275
1694300551.332,757.50916,733.73627,749.45056,745.0183,978.71796
1694300551.333,753.8828,735.34796,749.0476,732.9304,726.8865
1694300551.334,756.30035,739.3773,748.6447,722.8571,761.13556
1694300551.334,756.7033,739.3773,749.0476,716.8132,786.52014
1694300551.3830001,759.5238,735.7509,748.6447,721.2454,767.5824
1694300551.385,767.5824,734.5421,749.85345,732.9304,770.80585
1694300551.385,762.74725,736.9597,753.0769,751.8681,784.10254
1694300551.388,768.7912,740.989,755.4945,758.71796,827.2161
1694300551.39,770.0,744.61536,756.30035,765.56775,890.87915
1694300551.391,760.32965,741.79486,754.2857,753.0769,876.3736
1694300551.393,766.3736,743.8095,751.8681,720.4396,1006.52014
1694300551.395,759.12085,746.63007,752.674,732.52747,1333.6996
1694300551.3969998,758.315,747.8388,757.1062,749.0476,1098.7913
1694300551.3990002,763.1502,752.27106,759.92676,746.63007,731.7216
1694300551.4,764.35895,755.09155,757.50916,743.00366,762.74725
1694300551.401,767.5824,755.4945,757.9121,734.94507,713.1868
1694300551.447,766.77655,755.4945,759.12085,722.8571,672.8938
1694300551.448,769.19415,761.9414,761.13556,717.2161,722.8571
1694300551.449,766.77655,764.35895,765.16486,724.87177,758.315
1694300551.449,756.30035,764.35895,769.59705,719.6337,753.0769
1694300551.4499998,748.24176,765.9707,768.7912,718.022,700.293
1694300551.451,754.68866,769.19415,770.0,735.7509,816.7399
1694300551.451,750.65936,769.19415,775.2381,752.674,1128.2051
1694300551.452,746.63007,768.7912,776.04395,753.0769,946.8865
1694300551.456,745.82416,773.6264,780.87915,745.42126,695.8608
1694300551.457,743.8095,778.0586,786.1172,736.55676,801.02563
1694300551.458,748.6447,785.7143,788.1319,730.9158,971.4652
1694300551.458,746.2271,787.72894,792.1612,731.7216,828.8278
1694300551.4940002,741.79486,786.1172,794.9817,744.21246,718.022
1694300551.4950001,742.6007,785.7143,794.17584,755.89746,786.1172
1694300551.4950001,747.03296,789.34064,796.5934,750.65936,830.0366
1694300551.496,746.63007,793.36993,797.3993,738.1685,787.326
1694300551.496,747.8388,794.9817,794.57874,727.28937,733.3333
1694300551.497,749.45056,797.8022,794.9817,722.8571,855.0183
1694300551.498,748.24176,796.5934,798.60803,722.0513,940.84247
1694300551.498,744.61536,794.9817,799.81683,728.9011,892.49084
1694300551.499,742.6007,796.1905,801.8315,730.9158,863.0769
1694300551.499,745.82416,792.5641,801.02563,734.1392,1002.8938
1694300551.5,748.24176,792.96704,800.2198,742.6007,1256.7399
1694300551.5,752.27106,799.011,801.8315,742.6007,989.19415
1694300551.539,749.45056,798.20514,803.44324,741.79486,758.315
1694300551.54,749.85345,794.9817,804.65204,736.9597,816.7399
1694300551.541,757.50916,799.011,802.6374,736.55676,823.1868
1694300551.541,753.8828,797.3993,799.011,732.9304,774.0293
1694300551.542,748.24176,791.75824,799.41394,725.6777,802.6374
1694300551.542,740.989,787.326,798.60803,724.4689,1028.6813
1694300551.543,741.79486,783.69965,797.3993,727.28937,981.9414
1694300551.544,746.2271,778.86444,801.02563,728.9011,748.6447
1694300551.544,755.09155,778.46155,798.60803,734.5421,751.4652
1694300551.5449998,760.32965,780.07324,792.96704,745.82416,1074.6154
1694300551.549,747.8388,774.43225,791.75824,747.8388,948.9011
1694300551.5500002,744.21246,773.22345,789.7436,744.21246,753.47986
1694300551.586,745.0183,772.4176,788.93774,742.6007,854.61536
1694300551.5870001,750.65936,766.77655,786.52014,743.8095,881.2088
1694300551.588,751.4652,763.5531,784.90845,739.3773,759.12085
1694300551.589,745.0183,760.32965,789.34064,748.24176,722.0513
1694300551.589,746.2271,761.13556,792.1612,759.12085,788.1319
1694300551.5900002,747.8388,761.9414,787.326,749.45056,860.65936
1694300551.5900002,752.27106,763.5531,788.93774,736.9597,875.9707
1694300551.591,762.74725,770.0,791.3553,725.2747,739.7802
1694300551.591,756.30035,771.2088,786.9231,728.0952,914.2491
1694300551.592,750.65936,774.43225,788.5348,749.45056,1236.1904
1694300551.593,753.47986,778.0586,794.17584,759.12085,933.1868
1694300551.593,752.674,782.49084,794.9817,754.2857,736.1539
1694300551.5939999,752.27106,787.326,789.34064,738.5714,837.6923
1694300551.595,761.13556,788.93774,791.75824,734.1392,807.8755
1694300551.596,768.7912,790.14655,796.5934,743.00366,768.3883
1694300551.596,761.13556,793.7729,795.38464,745.42126,777.25275
1694300551.597,752.674,792.96704,792.5641,750.65936,904.57874
1694300551.597,754.68866,791.3553,789.7436,744.21246,890.07324
1694300551.598,752.27106,796.99634,792.1612,731.31866,819.15753
1694300551.599,753.0769,801.02563,794.57874,731.31866,848.97437
1694300551.599,761.53845,801.02563,795.38464,752.27106,1097.5824
1694300551.6,761.9414,802.6374,797.3993,753.0769,972.27106
1694300551.6,755.4945,800.6227,794.57874,739.3773,734.1392
1694300551.6009998,759.12085,798.60803,796.99634,738.5714,819.5604
1694300551.635,766.77655,799.81683,801.4286,733.73627,884.83514
1694300551.636,767.1795,801.4286,796.1905,721.6484,860.2564
1694300551.6369998,767.5824,801.4286,792.5641,709.15753,823.5897
1694300551.6369998,771.2088,797.8022,793.36993,720.4396,819.9634
1694300551.638,767.5824,800.2198,791.75824,731.7216,838.0952
1694300551.638,763.5531,798.20514,793.36993,733.3333,877.5824
1694300551.6390002,765.16486,794.57874,797.8022,732.9304,830.84247
1694300551.6390002,764.7619,796.1905,794.17584,728.0952,925.5311
1694300551.64,761.9414,792.96704,790.9524,724.4689,1313.5531
1694300551.64,768.3883,792.96704,789.7436,729.707,1100.8059
1694300551.641,764.35895,792.1612,784.90845,733.73627,771.6117
1694300551.642,755.09155,792.96704,785.31134,740.58606,823.5897
1694300551.6990001,755.4945,794.57874,789.7436,732.52747,782.8938
1694300551.7,751.4652,790.9524,787.326,728.0952,730.5128
1694300551.701,749.45056,788.5348,782.49084,735.34796,717.619
1694300551.7020001,754.2857,791.3553,781.28204,724.4689,768.7912
1694300551.703,749.45056,782.0879,781.28204,720.4396,797.8022
1694300551.704,751.8681,772.4176,775.2381,722.4542,796.1905
1694300551.705,759.5238,767.1795,769.59705,725.6777,811.9048
1694300551.705,760.7326,759.5238,761.53845,743.8095,1102.4176
1694300551.7059999,753.8828,753.0769,751.06226,748.6447,1120.9524
1694300551.707,751.8681,745.82416,744.21246,719.6337,802.23444
1694300551.708,754.2857,738.97437,736.9597,713.5897,772.01465
1694300551.7089999,760.32965,732.9304,731.7216,727.28937,844.94507
1694300551.742,766.77655,724.4689,726.08057,732.1245,767.98535
1694300551.743,771.2088,714.3956,716.4103,730.9158,735.7509
1694300551.747,783.69965,707.9487,705.9341,722.8571,805.05493
1694300551.747,794.17584,709.5604,697.47253,723.2601,809.0842
1694300551.748,783.69965,706.7399,691.8315,724.4689,745.0183
1694300551.7489998,777.6557,694.65204,686.99634,724.0659,810.293
1694300551.7500002,770.80585,684.57874,681.3553,726.4835,1032.3077
1694300551.7500002,763.1502,679.7436,674.90845,734.1392,987.1795
1694300551.7510002,756.7033,676.9231,669.2674,740.989,839.304
1694300551.7510002,752.27106,674.5055,664.43225,747.8388,789.7436
1694300551.752,759.12085,671.28204,659.59705,753.0769,1033.9194
1694300551.753,754.68866,669.67035,657.1795,754.68866,1317.5824
1694300551.799,757.9121,670.87915,653.5531,743.00366,982.3443
1694300551.8,765.56775,671.28204,652.74725,728.9011,776.8498
1694300551.8009999,757.1062,677.326,647.9121,723.663,849.7802
1694300551.8019998,755.09155,677.72894,642.674,723.663,814.7253
1694300551.8019998,751.4652,668.86444,639.85345,726.08057,773.22345
1694300551.803,740.989,666.04395,632.6007,737.76556,919.89014
1694300551.804,751.06226,671.28204,628.5714,751.4652,1198.7179
1694300551.804,756.7033,674.90845,629.3773,748.6447,983.95605
1694300551.8049998,751.8681,673.2967,626.55676,735.34796,759.12085
1694300551.8060002,753.0769,673.2967,625.7509,734.1392,789.7436
1694300551.8070002,745.82416,679.34064,631.39197,738.1685,835.6777
1694300551.8070002,743.00366,685.38464,637.03296,745.82416,786.9231
1694300551.8609998,749.45056,691.02563,637.03296,731.31866,746.2271
1694300551.8620002,749.0476,695.4579,640.2564,722.8571,855.82416
1694300551.8630002,755.09155,697.8755,645.4945,713.5897,849.3773
1694300551.8630002,759.12085,703.1135,652.3443,706.337,753.8828
1694300551.867,756.7033,709.9634,660.0,716.8132,707.1429
1694300551.868,760.7326,712.381,660.80585,718.022,911.02563
1694300551.869,758.71796,715.2015,663.22345,722.4542,1170.5128
1694300551.8700001,759.92676,720.84247,668.86444,720.0366,930.3663
1694300551.871,763.95605,727.28937,673.69965,710.7692,713.5897
1694300551.871,766.3736,732.9304,685.38464,720.4396,905.38464
1694300551.872,764.7619,736.9597,697.0696,736.9597,1025.8608
1694300551.873,768.7912,746.63007,702.71063,729.304,807.0696
1694300551.9169998,767.5824,755.4945,706.7399,711.1722,781.28204
1694300551.9180002,759.12085,754.68866,713.9927,713.5897,865.89746
1694300551.9190001,764.7619,752.27106,721.2454,726.08057,850.18317
1694300551.92,768.7912,752.674,718.022,727.28937,832.8571
1694300551.921,759.5238,756.30035,722.4542,730.9158,893.2967
1694300551.921,753.8828,763.95605,737.3626,733.3333,1074.2124
1694300551.922,760.7326,769.59705,743.00366,730.10986,1009.7436
1694300551.923,763.1502,771.2088,740.58606,731.31866,780.4762
1694300551.924,766.3736,773.6264,740.989,742.1978,794.17584
1694300551.924,764.35895,778.0586,742.1978,753.47986,1028.6813
1694300551.925,759.5238,779.67035,740.58606,738.97437,882.01465
1694300551.926,769.19415,770.0,744.61536,732.52747,758.315
1694300551.988,781.28204,766.3736,747.4359,727.6923,779.2674
1694300551.9889998,771.6117,763.95605,743.4066,713.5897,749.45056
1694300551.99,749.45056,760.32965,747.4359,721.6484,783.2967
1694300551.99,747.4359,765.16486,754.68866,734.94507,793.7729
1694300551.9910002,756.30035,765.9707,754.68866,734.1392,816.7399
1694300551.992,752.27106,764.35895,755.4945,724.4689,911.02563
1694300551.996,747.4359,765.16486,759.92676,709.15753,926.337
1694300551.997,759.5238,765.16486,765.9707,701.50183,834.0659
1694300551.9980001,768.7912,763.5531,766.3736,709.9634,995.64105
1694300551.9980001,773.6264,765.16486,763.95605,723.2601,1321.2087
1694300551.999,765.16486,768.3883,763.95605,724.87177,1102.8206
1694300551.999,753.8828,765.9707,770.0,725.2747,810.293
1694300552.001,765.9707,762.3443,774.43225,723.663,819.5604
1694300552.001,762.3443,763.5531,773.22345,718.4249,839.304
1694300552.0019999,755.89746,766.3736,769.19415,727.28937,821.1722
1694300552.003,763.95605,767.98535,766.77655,733.73627,789.34064
1694300552.003,770.40295,770.0,763.95605,726.8865,788.1319
1694300552.004,765.56775,771.2088,756.30035,728.9011,866.30035
1694300552.004,760.7326,770.80585,748.24176,740.58606,908.20514
1694300552.0049999,757.9121,769.19415,741.39197,742.6007,814.3223
1694300552.006,762.74725,760.32965,734.94507,744.21246,1114.5055
1694300552.006,762.74725,757.1062,728.49817,734.5421,1115.7142
1694300552.007,752.27106,761.9414,725.6777,729.304,754.2857
1694300552.008,747.8388,757.50916,724.4689,735.34796,763.1502
1694300552.037,755.89746,754.2857,719.2308,739.7802,815.12823
1694300552.038,765.16486,761.13556,718.022,737.76556,767.98535
1694300552.038,773.6264,761.53845,714.7985,734.1392,787.326
1694300552.039,776.04395,753.0769,704.3223,744.61536,848.5714
1694300552.039,776.04395,755.4945,700.293,754.68866,865.89746
1694300552.04,776.04395,759.5238,701.0989,755.09155,911.8315
1694300552.04,762.3443,759.12085,697.47253,731.31866,852.6007
1694300552.041,753.0769,761.9414,691.8315,723.663,981.9414
1694300552.044,749.85345,762.74725,690.2198,742.1978,1296.227
1694300552.0449998,748.24176,759.92676,689.81683,733.73627,987.1795
1694300552.0460002,749.0476,757.1062,689.41394,722.4542,781.685
1694300552.0460002,745.0183,753.47986,686.5934,725.6777,923.1135
1694300552.048,739.7802,752.27106,687.3993,724.0659,849.7802
1694300552.048,739.3773,749.0476,689.41394,718.022,741.79486
1694300552.049,739.3773,749.45056,688.60803,723.2601,773.22345
1694300552.05,742.6007,754.2857,688.60803,738.5714,887.6557
1694300552.05,745.82416,755.89746,685.78754,729.707,817.5458
1694300552.051,749.45056,753.8828,684.9817,718.022,764.7619
1694300552.051,748.24176,757.1062,688.60803,716.0073,848.1685
1694300552.052,739.7802,757.50916,691.8315,722.8571,1097.5824
1694300552.052,741.39197,753.0769,695.05493,725.6777,962.1978
1694300552.053,737.3626,751.4652,691.4286,717.2161,754.68866
1694300552.053,732.52747,750.2564,689.011,719.6337,783.69965
1694300552.0540001,738.1685,750.2564,688.60803,717.619,772.8205
1694300552.133,732.9304,754.2857,682.1612,707.1429,728.0952
1694300552.134,735.7509,758.71796,677.326,706.337,733.3333
1694300552.135,739.7802,757.9121,674.90845,705.5311,932.381
1694300552.136,731.7216,760.32965,674.5055,706.7399,936.4103
1694300552.1369998,736.9597,766.77655,676.1172,717.2161,821.5751
1694300552.1369998,737.76556,761.13556,672.49084,723.663,873.95605
1694300552.1379998,726.8865,755.4945,672.0879,735.34796,993.6264
1694300552.1390002,728.9011,757.9121,673.2967,746.2271,1113.2968
1694300552.14,722.8571,757.9121,668.86444,724.87177,939.6337
1694300552.141,717.2161,758.71796,664.43225,704.3223,777.6557
1694300552.146,718.8278,761.13556,662.01465,712.7839,942.8571
1694300552.146,721.2454,763.1502,664.83514,721.2454,961.39197
1694300552.171,727.28937,765.56775,666.04395,706.7399,778.0586
1694300552.1729999,724.87177,766.3736,666.8498,711.1722,742.6007
1694300552.1729999,714.7985,767.5824,669.2674,710.7692,796.1905
1694300552.174,711.1722,771.2088,673.69965,699.89014,831.6484
1694300552.175,711.1722,773.6264,678.5348,703.91943,777.25275
1694300552.175,716.8132,775.2381,684.17584,708.7546,817.1429
1694300552.176,725.2747,777.6557,689.81683,718.022,1174.5421
1694300552.177,718.8278,780.87915,687.8022,708.7546,1101.2087
1694300552.178,716.0073,780.4762,690.6227,694.65204,765.16486
1694300552.1790001,721.2454,784.90845,694.2491,688.20514,779.67035
1694300552.18,724.0659,788.93774,697.47253,694.65204,824.7985
1694300552.181,723.2601,786.52014,701.50183,700.293,780.87915
1694300552.2419999,724.0659,787.326,705.9341,702.71063,753.47986
1694300552.244,730.5128,789.7436,710.3663,709.5604,796.5934
1694300552.245,732.9304,794.17584,716.0073,709.5604,832.8571
1694300552.245,724.4689,795.38464,724.0659,713.5897,801.4286
1694300552.246,723.663,798.20514,726.4835,716.0073,799.81683
1694300552.247,724.4689,801.4286,727.6923,713.9927,978.315
1694300552.248,726.8865,803.44324,732.1245,716.4103,1019.41394
1694300552.248,726.08057,803.8461,734.5421,715.2015,915.4579
1694300552.2489998,724.87177,804.2491,737.76556,717.2161,898.93774
1694300552.2489998,722.0513,809.0842,746.2271,724.4689,1021.8315
1694300552.2499998,725.6777,810.293,753.8828,731.7216,1246.6666
1694300552.2499998,736.55676,807.0696,755.89746,726.08057,919.89014
1694300552.311,729.707,810.293,755.4945,712.381,712.7839
1694300552.312,728.0952,811.50183,756.30035,711.1722,809.89014
1694300552.314,736.1539,811.50183,760.32965,722.4542,762.3443
1694300552.315,736.55676,810.696,764.35895,720.4396,745.82416
1694300552.316,730.9158,803.8461,757.1062,712.7839,778.46155
1694300552.317,724.87177,803.8461,754.2857,712.381,868.71796
1694300552.319,724.0659,807.47253,763.95605,711.5751,905.78754
1694300552.32,722.8571,806.6667,767.5824,711.978,823.5897
1694300552.3209999,729.707,804.2491,766.77655,714.7985,840.9158
1694300552.323,726.4835,805.8608,770.80585,726.8865,1093.1501
1694300552.324,714.7985,806.6667,773.22345,722.0513,965.0183
1694300552.325,720.0366,807.47253,774.43225,712.381,731.31866
1694300552.365,724.87177,805.8608,772.8205,704.7253,771.2088
1694300552.3660002,728.0952,799.81683,769.19415,670.07324,857.03296
1694300552.367,726.4835,800.6227,767.5824,635.0183,770.40295
1694300552.368,720.4396,799.41394,763.95605,627.3626,724.4689
1694300552.369,724.4689,793.7729,758.315,635.0183,798.20514
1694300552.37,727.6923,794.17584,757.9121,625.34796,855.0183
1694300552.37,726.08057,797.3993,763.1502,613.663,883.6264
1694300552.371,730.10986,796.99634,758.71796,613.663,877.5824
1694300552.371,734.1392,791.75824,753.8828,607.2161,1030.6959
1694300552.372,735.34796,791.75824,754.68866,610.84247,1251.9048
1694300552.373,737.76556,790.14655,757.1062,610.4396,1004.10254
1694300552.373,744.21246,790.14655,759.5238,614.4689,796.5934
1694300552.375,738.97437,791.3553,755.89746,620.10986,815.9341
1694300552.375,731.31866,791.3553,756.30035,616.08057,778.0586
1694300552.381,736.1539,793.7729,756.30035,614.87177,775.2381
1694300552.3820002,736.9597,794.57874,754.68866,616.8865,838.9011
1694300552.3830001,740.18317,790.54944,754.2857,628.1685,993.22345
1694300552.384,747.4359,785.31134,753.47986,633.8095,972.27106
1694300552.385,747.8388,783.69965,757.1062,644.2857,885.2381
1694300552.386,746.2271,786.1172,754.68866,651.53845,811.50183
1694300552.386,743.4066,783.2967,748.6447,653.1502,1074.6154
1694300552.387,751.8681,783.69965,745.42126,654.35895,1083.8828
1694300552.388,754.68866,786.9231,742.1978,641.06226,773.22345
1694300552.388,756.30035,783.69965,737.76556,640.65936,771.6117
1694300552.421,761.53845,783.69965,734.5421,648.71796,788.93774
1694300552.423,746.63007,783.2967,738.5714,660.80585,752.27106
1694300552.424,737.3626,780.07324,744.21246,670.4762,793.7729
1694300552.424,743.00366,777.6557,743.4066,667.6557,930.7692
1694300552.425,747.4359,778.86444,742.6007,664.43225,912.23444
1694300552.4259999,753.47986,782.49084,743.00366,672.8938,842.9304
1694300552.4259999,757.50916,778.86444,738.97437,674.5055,890.07324
1694300552.427,754.2857,778.86444,740.58606,672.8938,1080.2565
1694300552.428,755.89746,782.49084,746.2271,683.36993,1285.751
1694300552.429,759.5238,783.2967,745.82416,677.72894,950.5128
1694300552.429,756.7033,781.28204,746.63007,668.46155,744.21246
1694300552.43,751.8681,778.86444,747.4359,672.49084,828.4249
1694300552.431,755.4945,778.0586,751.06226,678.93774,788.1319
1694300552.432,755.89746,773.22345,754.68866,689.011,751.06226
1694300552.4329998,759.92676,770.80585,753.8828,705.9341,754.68866
1694300552.4339998,760.7326,774.43225,752.674,710.3663,768.7912
1694300552.44,755.4945,781.685,753.0769,686.5934,749.45056
1694300552.441,747.03296,779.2674,749.45056,672.49084,788.93774
1694300552.441,753.0769,775.64105,751.06226,682.5641,895.7143
1694300552.442,763.95605,777.6557,755.4945,703.91943,1189.8535
1694300552.443,761.9414,774.83514,753.47986,690.2198,1083.0769
1694300552.444,758.71796,782.49084,754.68866,670.87915,754.68866
1694300552.445,753.0769,786.9231,757.9121,673.69965,756.30035
1694300552.445,760.7326,782.8938,759.12085,671.685,768.7912
1694300552.498,766.77655,782.49084,759.5238,682.5641,743.4066
1694300552.499,774.0293,780.4762,764.7619,692.6374,711.5751
1694300552.5,774.83514,778.0586,763.1502,698.68134,768.3883
1694300552.501,766.77655,779.67035,763.1502,704.3223,832.0513
1694300552.502,773.6264,786.1172,768.3883,699.4872,805.05493
1694300552.503,776.04395,787.72894,770.40295,705.5311,794.17584
1694300552.503,766.3736,785.7143,770.40295,718.8278,973.8828
1694300552.504,758.315,786.52014,767.1795,738.1685,1155.6044
1694300552.5049999,747.4359,785.31134,768.3883,732.9304,932.381
1694300552.5059998,744.21246,782.0879,770.40295,713.5897,775.2381
1694300552.507,746.2271,778.86444,773.22345,724.87177,959.3773
1694300552.508,747.03296,781.28204,778.0586,725.2747,975.4945
1694300552.554,746.63007,784.5055,777.6557,718.022,765.16486
1694300552.555,749.45056,782.8938,773.22345,719.2308,772.4176
1694300552.555,757.9121,783.69965,772.4176,711.978,804.2491
1694300552.556,753.8828,786.52014,772.4176,708.7546,764.7619
1694300552.557,753.47986,786.9231,772.4176,710.3663,716.8132
1694300552.558,765.16486,788.93774,773.6264,715.6044,839.304
1694300552.5619998,774.0293,791.75824,769.19415,723.663,1144.7252
1694300552.563,762.3443,790.54944,771.6117,714.7985,990.40295
1694300552.563,756.30035,787.72894,776.4469,702.3077,765.9707
1694300552.564,766.3736,790.54944,778.0586,713.5897,773.6264
1694300552.5649998,769.59705,793.36993,776.04395,724.0659,874.35895
1694300552.5660002,772.8205,790.54944,773.22345,721.2454,930.7692
1694300552.598,774.0293,788.93774,772.8205,721.6484,822.7839
1694300552.599,775.2381,791.3553,768.7912,719.6337,793.36993
1694300552.599,780.4762,792.1612,767.1795,720.4396,857.8388
1694300552.6,778.86444,787.72894,765.56775,720.4396,778.46155
1694300552.6009998,773.6264,784.90845,760.7326,720.0366,759.92676
1694300552.6009998,771.2088,784.5055,759.5238,722.8571,941.2454
1694300552.6019998,777.25275,779.67035,754.68866,714.3956,956.9597
1694300552.6030002,776.8498,775.64105,754.68866,703.5165,836.08057
1694300552.604,773.6264,777.25275,758.71796,704.7253,799.011
1694300552.605,776.4469,779.67035,762.3443,717.619,850.989
1694300552.605,774.43225,780.4762,766.3736,730.5128,854.21246
1694300552.6060002,773.6264,780.87915,766.3736,723.663,782.0879
1694300552.6460001,779.67035,780.4762,764.35895,717.619,752.674
1694300552.647,789.7436,780.07324,763.1502,728.9011,1030.2931
1694300552.647,787.326,781.28204,764.7619,736.55676,1185.8242
1694300552.648,776.4469,782.49084,762.74725,718.8278,857.03296
1694300552.649,782.8938,776.4469,761.53845,711.978,807.0696
1694300552.6499999,787.72894,774.43225,763.95605,723.663,882.8205
1694300552.651,790.9524,781.685,763.95605,722.4542,842.9304
1694300552.651,794.9817,784.10254,765.56775,721.2454,789.7436
1694300552.655,790.9524,784.5055,768.7912,730.10986,809.89014
1694300552.656,792.1612,782.8938,765.9707,735.34796,1059.7069
1694300552.6569998,800.2198,782.8938,763.95605,724.0659,936.8132
1694300552.6569998,790.54944,781.28204,767.5824,719.2308,747.03296
1694300552.711,787.326,781.685,767.1795,727.28937,800.6227
1694300552.7129998,794.57874,784.5055,764.35895,729.707,831.6484
1694300552.7129998,792.1612,786.9231,763.1502,737.3626,830.0366
1694300552.714,788.5348,781.685,759.5238,738.97437,780.07324
1694300552.7150002,801.02563,780.87915,759.92676,738.1685,904.9817
1694300552.7150002,809.4872,785.7143,762.3443,736.1539,1017.3993
1694300552.716,806.26373,782.49084,762.74725,729.707,905.38464
1694300552.716,807.47253,779.67035,762.74725,730.9158,871.9414
1694300552.717,793.7729,779.67035,764.35895,737.76556,1004.5055
1694300552.7180002,786.1172,776.04395,763.5531,757.1062,1237.3993
1694300552.7180002,790.9524,769.59705,751.8681,754.2857,958.1685
1694300552.719,792.5641,761.9414,720.0366,739.7802,735.7509
1694300552.7459998,797.3993,755.89746,691.8315,736.1539,805.05493
1694300552.747,797.8022,753.8828,676.1172,736.1539,790.14655
1694300552.748,801.02563,756.7033,668.86444,733.3333,776.4469
1694300552.7489998,805.05493,756.30035,665.2381,732.1245,816.337
1694300552.7500002,802.23444,749.0476,664.0293,741.39197,840.5128
1694300552.7500002,797.8022,747.8388,670.07324,761.53845,863.47986
1694300552.7510002,798.20514,746.2271,670.07324,752.674,850.989
1694300552.752,796.99634,741.79486,670.07324,734.5421,766.77655
1694300552.752,791.3553,739.3773,674.5055,743.00366,1050.4396
1694300552.753,792.1612,739.7802,680.9524,746.63007,1019.81683
1694300552.757,785.31134,743.00366,688.20514,741.39197,755.09155
1694300552.7580001,782.8938,741.79486,689.011,746.63007,802.6374
1694300552.7649999,789.34064,742.6007,694.65204,758.315,806.6667
1694300552.766,778.0586,747.03296,700.293,750.2564,764.35895
1694300552.767,769.19415,744.61536,698.68134,744.61536,784.90845
1694300552.768,771.6117,745.42126,703.5165,754.2857,849.7802
1694300552.769,765.56775,750.2564,713.1868,753.8828,873.5531
1694300552.769,768.7912,753.47986,716.8132,748.24176,935.2015
1694300552.77,776.4469,755.89746,717.2161,734.1392,885.64105
1694300552.7710001,765.56775,751.8681,720.84247,730.9158,927.5458
1694300552.7710001,759.5238,754.2857,724.4689,736.9597,1239.414
1694300552.772,759.12085,765.16486,731.7216,736.1539,1028.2784
1694300552.773,755.4945,768.3883,734.94507,738.97437,749.85345
1694300552.773,762.74725,768.3883,735.34796,745.42126,860.2564
1694300552.797,767.5824,769.59705,739.7802,749.0476,833.2601
1694300552.798,769.19415,770.0,742.6007,741.39197,741.79486
1694300552.799,766.3736,771.6117,742.1978,732.1245,788.5348
1694300552.8,754.2857,772.4176,742.6007,738.1685,824.7985
1694300552.8,750.65936,774.43225,745.42126,741.39197,804.2491
1694300552.8009999,755.89746,775.64105,746.2271,739.3773,817.1429
1694300552.8019998,758.71796,778.46155,751.8681,757.1062,920.696
1694300552.8019998,761.53845,780.07324,755.09155,762.74725,1132.6373
1694300552.803,767.98535,780.07324,750.65936,736.1539,998.86444
1694300552.803,771.2088,780.87915,749.0476,716.0073,782.49084
1694300552.804,765.56775,781.28204,748.24176,718.022,796.1905
1694300552.8049998,762.3443,777.6557,747.03296,715.2015,798.60803
1694300552.8700001,761.53845,778.0586,751.06226,723.2601,823.9927
1694300552.871,763.95605,782.49084,755.89746,740.18317,800.6227
1694300552.872,765.16486,784.5055,757.9121,730.10986,815.5311
1694300552.873,770.0,788.93774,762.3443,718.8278,882.4176
1694300552.873,771.6117,786.52014,759.92676,729.304,839.304
1694300552.8739998,773.22345,783.2967,757.1062,734.1392,782.8938
1694300552.875,776.04395,788.5348,760.32965,727.28937,952.52747
1694300552.875,761.53845,789.34064,758.315,726.8865,1275.2748
1694300552.876,754.68866,785.7143,758.315,722.4542,944.4689
1694300552.8769999,755.89746,786.1172,761.53845,717.619,713.5897
1694300552.8769999,760.32965,784.10254,761.9414,722.8571,902.1612
1694300552.878,767.98535,784.90845,763.5531,720.0366,888.86444
1694300552.906,761.53845,788.93774,766.3736,716.0073,774.43225
1694300552.907,754.2857,784.90845,770.40295,730.10986,805.8608
1694300552.908,755.4945,780.87915,772.4176,738.5714,898.5348
1694300552.909,759.5238,781.685,772.4176,735.34796,886.4469
1694300552.909,769.59705,784.5055,770.80585,733.73627,817.1429
1694300552.91,780.87915,786.52014,767.98535,734.1392,923.91943
1694300552.911,781.28204,785.31134,765.16486,726.8865,1002.49084
1694300552.911,770.40295,786.52014,765.16486,716.8132,880.40295
1694300552.912,770.0,784.5055,765.9707,724.4689,812.3077
1694300552.9129999,770.80585,781.28204,766.77655,725.6777,835.6777
1694300552.9129999,773.22345,780.07324,766.3736,729.707,1105.641
1694300552.9139998,772.01465,780.87915,766.3736,724.4689,1023.0403
1694300552.994,767.98535,784.90845,768.7912,716.4103,744.61536
1694300552.9950001,770.0,784.5055,766.77655,724.0659,793.7729
1694300552.999,767.1795,783.2967,763.5531,732.9304,844.5421
1694300553.0,769.19415,780.87915,763.5531,735.7509,815.12823
1694300553.0,782.0879,780.07324,763.95605,728.0952,810.696
1694300553.001,782.0879,782.8938,762.74725,721.2454,856.2271
1694300553.0019999,769.19415,785.7143,765.56775,717.619,869.92676
1694300553.0019999,770.80585,784.10254,767.1795,725.2747,885.2381
1694300553.003,780.07324,779.67035,765.16486,731.7216,889.2674
1694300553.004,781.685,777.25275,763.5531,737.76556,1082.674
1694300553.004,779.67035,780.07324,760.32965,749.85345,1205.9707
1694300553.0049999,776.4469,782.0879,763.1502,749.45056,857.4359
1694300553.028,776.8498,780.4762,767.1795,739.3773,734.5421
1694300553.029,780.87915,780.07324,764.7619,717.2161,1009.34064
1694300553.0300002,789.7436,780.4762,762.3443,709.15753,1014.17584
1694300553.0310001,789.34064,783.2967,763.95605,714.3956,788.93774
1694300553.0310001,783.2967,782.8938,761.53845,708.7546,813.5165
1694300553.032,784.90845,779.2674,757.1062,716.0073,948.0952
1694300553.032,790.9524,778.86444,758.71796,728.0952,941.2454
1694300553.033,798.60803,778.0586,760.32965,727.28937,839.707
1694300553.034,794.17584,775.64105,758.315,732.9304,867.50916
1694300553.035,789.34064,773.22345,758.71796,740.18317,872.74725
1694300553.035,786.52014,772.4176,758.315,735.7509,798.60803
1694300553.036,787.72894,774.0293,754.68866,728.9011,734.1392
1694300553.043,787.326,776.04395,755.09155,724.87177,762.3443
1694300553.044,783.2967,777.6557,759.12085,732.52747,1095.5677
1694300553.044,788.5348,779.67035,759.92676,728.0952,1002.8938
1694300553.0449998,790.14655,779.2674,761.9414,726.08057,751.8681
1694300553.049,786.1172,776.4469,761.53845,735.34796,812.3077
1694300553.049,778.46155,778.46155,762.74725,736.55676,888.0586
1694300553.05,778.0586,778.86444,761.13556,730.9158,880.80585
1694300553.053,785.7143,777.25275,759.92676,724.0659,755.09155
1694300553.055,790.54944,775.64105,759.92676,713.5897,920.696
1694300553.055,789.7436,772.4176,759.5238,725.2747,1235.3846
1694300553.056,781.28204,772.01465,758.315,731.7216,966.2271
1694300553.057,781.685,772.8205,757.1062,721.6484,738.5714
1694300553.131,783.2967,767.5824,760.7326,724.4689,894.5055
1694300553.132,790.54944,769.19415,762.3443,722.8571,821.1722
1694300553.133,795.38464,770.40295,756.30035,718.022,699.89014
1694300553.134,795.38464,757.50916,754.68866,723.663,719.2308
1694300553.135,794.17584,739.7802,754.2857,725.6777,757.9121
1694300553.136,786.9231,731.7216,755.09155,726.08057,878.3883
1694300553.136,800.2198,734.94507,758.71796,725.2747,864.68866
1694300553.1369998,793.36993,738.1685,760.32965,727.6923,823.5897
1694300553.1379998,778.86444,739.3773,760.7326,740.58606,1120.9524
1694300553.1390002,773.6264,741.39197,757.9121,741.39197,1021.02563
1694300553.1390002,775.64105,740.18317,755.4945,740.18317,745.82416
1694300553.14,776.04395,742.6007,757.50916,747.03296,787.72894
1694300553.1820002,773.22345,747.8388,755.09155,728.9011,830.0366
1694300553.183,780.4762,750.65936,753.8828,710.7692,852.1978
1694300553.184,775.2381,750.65936,754.68866,698.68134,782.8938
1694300553.185,771.6117,748.6447,750.2564,697.0696,778.86444
1694300553.1859999,774.43225,746.2271,748.24176,715.6044,836.8865
1694300553.187,774.83514,749.0476,748.6447,713.1868,803.0403
1694300553.191,774.43225,747.03296,745.42126,718.4249,828.8278
1694300553.192,772.01465,747.03296,745.82416,736.55676,1003.69965
1694300553.1929998,780.07324,751.8681,748.24176,733.73627,1046.8132
1694300553.1939998,778.0586,754.2857,747.03296,717.2161,815.12823
1694300553.1939998,777.6557,755.4945,745.82416,723.2601,768.7912
1694300553.1950002,779.2674,755.4945,745.82416,733.3333,933.9927
1694300553.196,772.01465,756.30035,744.61536,733.73627,877.1795
1694300553.197,774.0293,758.71796,740.989,735.34796,733.73627
1694300553.1980002,774.83514,758.315,742.6007,745.0183,751.06226
1694300553.1990001,782.8938,757.50916,743.00366,753.47986,1056.4835
1694300553.1990001,794.57874,760.7326,736.1539,738.1685,1228.5348
1694300553.2,789.34064,762.3443,732.9304,725.6777,886.4469
1694300553.201,787.72894,761.53845,734.1392,737.3626,809.0842
1694300553.202,793.36993,760.7326,731.7216,745.0183,956.9597
1694300553.203,792.1612,759.12085,731.7216,732.52747,833.2601
1694300553.204,792.5641,759.12085,732.9304,723.663,707.1429
1694300553.205,796.5934,759.12085,729.707,718.022,814.7253
1694300553.205,796.99634,756.7033,726.4835,712.381,1000.87915
1694300553.245,796.99634,758.315,725.2747,714.7985,892.8938
1694300553.246,793.7729,759.92676,726.08057,720.4396,770.40295
1694300553.248,792.96704,759.5238,723.663,726.08057,774.0293
1694300553.2489998,789.7436,758.71796,724.87177,740.18317,788.1319
1694300553.2489998,778.46155,760.32965,730.10986,744.61536,790.14655
1694300553.2499998,775.2381,762.74725,728.49817,736.9597,771.2088
1694300553.2499998,775.64105,760.7326,721.2454,740.58606,940.4396
1694300553.2510002,770.0,763.1502,721.6484,750.2564,1278.9011
1694300553.255,759.92676,760.7326,725.6777,739.3773,999.67035
1694300553.256,761.9414,757.9121,725.2747,726.4835,731.31866
1694300553.257,768.7912,757.50916,723.663,735.7509,834.4689
1694300553.258,763.95605,753.8828,723.663,745.0183,833.663
1694300553.299,765.56775,758.71796,725.2747,742.1978,756.7033
1694300553.3,767.5824,762.3443,723.663,727.28937,765.9707
1694300553.3009999,763.5531,759.5238,716.0073,713.9927,965.42126
1694300553.302,765.56775,758.315,714.7985,723.663,922.71063
1694300553.303,765.16486,760.7326,718.4249,736.55676,712.7839
1694300553.303,761.53845,765.16486,718.022,741.39197,844.94507
1694300553.304,765.56775,765.9707,720.4396,752.674,1177.3627
1694300553.3049998,772.01465,766.3736,723.663,736.55676,1000.87915
1694300553.3059998,778.86444,768.3883,724.4689,710.7692,743.00366
1694300553.3070002,781.28204,769.19415,721.6484,718.8278,860.2564
1694300553.308,770.80585,768.3883,718.8278,730.9158,1007.72894
1694300553.309,766.3736,765.16486,716.8132,728.9011,858.6447
1694300553.344,769.59705,763.95605,716.0073,731.7216,733.3333
1694300553.345,774.83514,761.13556,717.619,734.94507,765.56775
1694300553.346,765.9707,757.9121,719.2308,739.3773,810.696
1694300553.3470001,756.7033,757.9121,722.4542,743.4066,783.69965
1694300553.3470001,761.13556,758.315,722.8571,742.1978,765.9707
1694300553.348,766.3736,759.92676,720.0366,745.82416,929.15753
1694300553.349,762.74725,761.53845,722.8571,762.74725,988.3883
1694300553.349,762.3443,759.5238,726.4835,763.5531,880.40295
1694300553.3500001,770.0,760.7326,726.08057,741.79486,821.1722
1694300553.351,777.6557,767.1795,725.2747,718.8278,855.42126
1694300553.3539999,773.6264,765.16486,724.0659,727.28937,836.4835
1694300553.355,771.2088,759.12085,722.0513,718.8278,799.81683
1694300553.395,770.0,758.315,723.2601,712.7839,805.05493
1694300553.396,763.95605,757.50916,723.2601,735.7509,993.6264
1694300553.3969998,770.40295,761.9414,726.4835,743.4066,1161.2454
1694300553.3980002,769.19415,766.3736,732.1245,739.7802,821.1722
1694300553.3990002,772.4176,764.7619,734.5421,751.06226,737.3626
1694300553.4,772.4176,759.12085,731.7216,753.47986,840.9158
1694300553.401,763.1502,755.09155,725.2747,740.989,833.663
1694300553.402,766.77655,757.50916,724.4689,737.76556,796.1905
1694300553.402,776.4469,759.92676,729.304,731.31866,829.2308
1694300553.403,774.0293,757.9121,728.9011,734.94507,1133.0403
1694300553.404,763.1502,754.68866,725.2747,740.58606,1042.381
1694300553.404,757.50916,753.0769,726.4835,736.9597,799.81683
1694300553.464,760.32965,751.06226,724.4689,732.52747,830.84247
1694300553.465,769.59705,753.47986,723.2601,737.3626,807.47253
1694300553.4659998,768.3883,753.0769,723.663,744.61536,799.011
1694300553.467,767.1795,750.65936,722.0513,741.79486,794.17584
1694300553.468,765.9707,754.2857,719.6337,757.1062,866.7033
1694300553.4689999,766.3736,755.4945,716.0073,758.315,1028.6813
1694300553.4689999,766.3736,749.85345,716.0073,749.45056,923.5165
1694300553.47,763.5531,749.0476,718.8278,747.03296,797.3993
1694300553.471,761.9414,749.45056,715.6044,745.82416,911.8315
1694300553.472,753.0769,749.0476,712.7839,756.7033,1189.8535
1694300553.472,747.4359,751.8681,716.8132,751.8681,951.31866
1694300553.473,750.65936,752.27106,718.022,753.0769,762.74725
1694300553.52,756.7033,753.8828,714.3956,758.71796,840.10986
1694300553.5219998,765.9707,753.47986,712.381,741.79486,756.30035
1694300553.523,773.22345,751.4652,715.2015,735.7509,731.7216
1694300553.523,778.86444,751.8681,714.3956,748.24176,814.3223
1694300553.524,777.25275,753.0769,713.5897,760.7326,844.1392
1694300553.5249999,772.4176,756.7033,716.8132,757.1062,813.1135
1694300553.526,772.01465,754.68866,714.7985,741.79486,813.5165
1694300553.526,767.1795,752.27106,713.1868,736.9597,932.7839
1694300553.527,754.68866,750.65936,708.7546,748.6447,1157.2161
1694300553.528,745.0183,750.65936,706.337,753.0769,1035.1282
1694300553.528,740.989,748.24176,714.7985,758.71796,760.7326
1694300553.529,743.4066,747.8388,711.978,757.9121,708.7546
1694300553.537,751.4652,749.45056,708.7546,742.6007,759.12085
1694300553.5379999,756.30035,748.6447,710.7692,735.7509,808.2784
1694300553.539,760.32965,749.85345,707.1429,734.94507,758.315
1694300553.54,761.13556,753.0769,712.381,733.73627,756.30035
1694300553.541,761.53845,755.89746,716.8132,738.5714,792.5641
1694300553.542,753.8828,755.4945,713.9927,743.8095,904.9817
1694300553.542,745.0183,754.2857,715.2015,736.9597,865.09155
1694300553.543,748.24176,755.89746,720.0366,745.42126,1005.7143
1694300553.544,747.8388,755.4945,718.8278,756.30035,1168.9011
1694300553.5449998,745.82416,748.6447,716.4103,759.12085,869.92676
1694300553.5459998,748.24176,740.18317,717.619,755.09155,727.6923
1694300553.5470002,752.674,747.8388,720.0366,738.97437,925.12823
1694300553.607,757.50916,752.27106,718.4249,736.55676,1208.3883
1694300553.608,757.1062,746.63007,718.8278,726.08057,906.1905
1694300553.613,748.6447,748.6447,717.619,721.6484,685.38464
1694300553.614,750.65936,752.674,713.9927,730.10986,765.16486
1694300553.615,752.27106,752.27106,714.7985,730.5128,732.9304
1694300553.615,750.2564,752.674,716.8132,722.0513,742.1978
1694300553.616,750.2564,750.2564,719.2308,738.97437,817.5458
1694300553.6169999,758.315,751.06226,724.4689,759.5238,1061.3187
1694300553.6179998,760.32965,753.0769,730.5128,755.09155,967.8388
1694300553.619,761.13556,750.2564,726.8865,744.21246,752.674
1694300553.619,768.7912,750.65936,721.2454,727.6923,889.2674
1694300553.62,760.7326,751.8681,722.0513,714.7985,952.52747
1694300553.656,758.315,751.06226,722.8571,715.6044,794.9817
1694300553.6569998,763.95605,753.0769,720.4396,715.2015,723.663
1694300553.6579998,750.2564,752.27106,720.84247,719.6337,853.4066
1694300553.6590002,745.0183,752.27106,725.2747,730.9158,913.0403
1694300553.6590002,747.8388,752.27106,727.6923,743.00366,874.35895
1694300553.66,749.45056,748.24176,721.6484,723.2601,801.02563
1694300553.661,747.8388,747.4359,716.8132,692.23444,902.1612
1694300553.661,745.82416,750.2564,722.8571,709.9634,1230.1465
1694300553.6620002,748.24176,758.315,730.10986,724.87177,987.5824
1694300553.663,754.68866,763.5531,734.5421,726.4835,733.73627
1694300553.664,762.3443,767.5824,736.55676,726.4835,853.8095
1694300553.665,764.7619,767.5824,741.39197,728.9011,825.2015
1694300553.666,765.9707,765.16486,743.4066,729.304,749.45056
1694300553.668,767.98535,762.3443,745.0183,733.73627,826.8132
1694300553.669,762.3443,756.30035,745.82416,741.39197,959.3773
1694300553.67,754.2857,756.30035,743.8095,736.9597,912.6374
1694300553.6739998,757.1062,758.71796,743.4066,734.1392,785.7143
1694300553.675,762.3443,757.9121,740.58606,737.3626,837.28937
1694300553.676,756.7033,755.89746,739.3773,751.06226,1114.5055
1694300553.677,752.27106,760.32965,740.58606,746.63007,1008.5348
1694300553.6780002,754.2857,761.53845,740.18317,721.2454,779.67035
1694300553.6790001,749.85345,757.1062,740.18317,721.6484,807.0696
1694300553.6790001,737.76556,751.4652,741.39197,728.49817,873.1502
1694300553.681,738.97437,748.24176,740.58606,718.022,854.61536
1694300553.739,748.24176,750.2564,738.5714,717.2161,775.64105
1694300553.74,747.8388,752.674,736.9597,717.619,760.7326
1694300553.741,749.0476,753.8828,736.9597,719.6337,784.5055
1694300553.742,743.8095,753.8828,739.3773,731.31866,832.0513
1694300553.743,739.3773,754.68866,736.55676,733.3333,798.20514
1694300553.743,740.989,751.8681,732.9304,731.31866,929.9634
1694300553.744,748.6447,755.09155,736.55676,739.7802,1308.7179
1694300553.745,756.30035,758.71796,740.989,733.73627,1070.586
1694300553.7459998,752.674,756.7033,739.7802,738.5714,756.7033
1694300553.747,749.0476,751.06226,734.5421,748.24176,921.0989
1694300553.748,746.63007,748.24176,733.3333,732.52747,1002.0879
1694300553.7489998,747.03296,752.27106,738.5714,719.2308,783.2967
1694300553.775,744.21246,749.45056,735.7509,709.5604,751.06226
1694300553.776,734.5421,741.79486,725.6777,705.5311,801.02563
1694300553.777,736.1539,736.9597,720.4396,710.3663,764.7619
1694300553.7779999,741.39197,736.1539,720.0366,713.1868,725.6777
1694300553.7779999,742.1978,734.5421,718.8278,714.7985,807.47253
1694300553.779,734.5421,734.1392,722.0513,721.2454,971.4652
1694300553.784,730.10986,730.9158,725.6777,720.84247,974.2857
1694300553.784,733.3333,732.1245,726.4835,720.0366,866.30035
1694300553.7849998,738.1685,740.18317,724.87177,710.3663,773.22345
1694300553.7859998,734.94507,738.1685,725.2747,707.1429,1064.1392
1694300553.7870002,734.94507,736.55676,728.0952,719.2308,1011.3553
1694300553.7870002,740.58606,742.6007,726.08057,716.0073,740.58606
1694300553.8179998,745.0183,744.61536,722.0513,716.4103,754.2857
1694300553.819,745.82416,742.1978,726.08057,718.022,799.011
1694300553.82,744.61536,740.989,730.9158,721.6484,780.4762
1694300553.82,751.4652,742.6007,730.9158,724.0659,711.978
1694300553.8209999,756.30035,751.06226,733.3333,712.7839,742.6007
1694300553.822,750.65936,751.4652,734.94507,716.0073,820.7692
1694300553.822,750.2564,751.06226,737.76556,722.8571,866.7033
1694300553.823,753.8828,751.8681,737.76556,718.4249,886.8498
1694300553.823,750.65936,749.45056,736.55676,713.5897,1050.8425
1694300553.824,749.0476,754.68866,738.97437,719.6337,1180.1831
1694300553.824,749.45056,759.5238,740.989,721.6484,889.67035
1694300553.825,749.85345,761.13556,744.61536,710.3663,711.978
1694300553.8569999,750.2564,762.3443,744.21246,719.6337,962.6007
1694300553.8579998,755.4945,766.3736,744.21246,744.21246,1238.2051
1694300553.859,755.4945,764.35895,744.21246,739.3773,920.696
1694300553.859,755.4945,763.1502,745.82416,731.7216,735.7509
1694300553.86,767.5824,763.5531,746.2271,719.6337,840.10986
1694300553.8609998,774.83514,762.74725,743.4066,709.15753,885.64105
1694300553.8620002,760.32965,767.5824,746.63007,718.8278,883.6264
1694300553.8630002,762.74725,767.5824,748.6447,723.663,823.5897
1694300553.866,769.59705,767.98535,746.63007,729.707,1073.8096
1694300553.867,773.6264,773.6264,749.45056,735.34796,1024.652
1694300553.868,786.1172,774.43225,752.27106,734.5421,767.5824
1694300553.869,786.9231,771.2088,751.4652,739.3773,896.9231
1694300553.904,786.52014,775.64105,753.0769,749.85345,974.2857
1694300553.905,785.7143,780.07324,755.09155,756.30035,802.6374
1694300553.905,785.31134,779.2674,756.7033,748.6447,739.3773
1694300553.906,792.1612,780.4762,759.12085,727.28937,796.99634
1694300553.907,784.90845,779.67035,758.71796,724.87177,834.0659
1694300553.908,774.43225,778.46155,758.315,733.3333,917.8755
1694300553.909,772.01465,780.87915,759.12085,731.7216,879.19415
1694300553.91,780.07324,780.07324,762.74725,734.5421,968.6447
1694300553.91,781.28204,779.67035,764.7619,755.89746,1320.403
1694300553.911,776.04395,779.67035,764.35895,762.3443,1031.0989
1694300553.912,780.4762,776.8498,763.95605,757.1062,772.4176
1694300553.912,782.49084,776.4469,763.1502,755.4945,869.5238
1694300553.948,780.87915,778.46155,766.77655,741.79486,822.381
1694300553.949,782.0879,779.67035,769.19415,735.34796,759.12085
1694300553.95,789.34064,783.69965,772.01465,750.65936,836.8865
1694300553.95,788.5348,780.87915,772.01465,761.9414,945.6777
1694300553.951,785.31134,776.04395,766.3736,750.65936,837.6923
1694300553.952,796.99634,778.46155,763.5531,743.00366,798.20514
1694300553.9529998,801.02563,780.4762,759.92676,747.03296,874.7619
1694300553.9529998,808.68134,783.2967,761.13556,757.1062,1074.2124
1694300553.9539998,817.1429,783.69965,764.35895,747.4359,973.8828
1694300553.9550002,808.2784,784.90845,766.3736,727.28937,736.55676
1694300553.959,794.9817,784.5055,768.3883,729.707,748.24176
1694300553.959,788.93774,780.4762,768.7912,743.4066,811.0989
1694300554.004,788.93774,780.87915,772.01465,765.16486,834.0659
1694300554.0049999,780.4762,779.2674,772.4176,772.4176,819.9634
1694300554.006,782.8938,781.28204,767.1795,760.7326,831.2454
1694300554.007,787.72894,782.8938,770.0,755.09155,840.10986
1694300554.008,789.7436,779.67035,773.22345,751.06226,849.3773
1694300554.008,786.52014,776.8498,767.1795,751.06226,850.18317
1694300554.0089998,778.0586,776.4469,765.56775,752.674,986.77655
1694300554.01,781.685,773.22345,763.95605,756.30035,1355.8608
1694300554.0110002,786.52014,772.01465,759.5238,747.03296,1139.0842
1694300554.0110002,780.07324,771.2088,758.315,730.9158,805.4579
1694300554.012,784.90845,769.59705,759.92676,738.97437,922.71063
1694300554.013,784.5055,770.0,759.5238,745.0183,892.0879
1694300554.049,772.8205,768.7912,759.5238,736.55676,738.1685
1694300554.051,779.67035,765.56775,763.1502,739.7802,730.5128
1694300554.052,786.9231,765.9707,764.35895,748.24176,848.5714
1694300554.052,782.49084,770.0,760.32965,733.3333,814.7253
1694300554.053,783.69965,770.40295,757.9121,716.8132,711.5751
1694300554.0540001,785.7143,772.01465,757.1062,724.0659,857.8388
1694300554.055,776.04395,771.6117,755.09155,737.3626,1175.751
1694300554.055,778.0586,769.19415,754.2857,739.3773,1067.3627
1694300554.056,781.685,769.59705,755.4945,740.58606,779.67035
1694300554.057,772.8205,771.2088,752.27106,738.97437,807.47253
1694300554.0579998,773.6264,770.40295,745.42126,749.45056,894.10254
1694300554.059,778.0586,765.9707,744.21246,739.3773,788.1319
1694300554.099,782.8938,765.56775,749.45056,707.9487,778.86444
1694300554.1,782.8938,765.9707,751.06226,720.0366,849.7802
1694300554.1009998,773.6264,762.3443,751.4652,736.1539,814.3223
1694300554.1020002,781.28204,764.35895,757.1062,747.03296,817.9487
1694300554.1020002,784.5055,765.56775,755.4945,738.1685,777.6557
1694300554.1030002,772.01465,759.92676,751.06226,725.2747,927.9487
1694300554.104,780.4762,757.1062,754.2857,738.97437,1043.9927
1694300554.104,795.38464,757.1062,753.0769,745.82416,963.4066
1694300554.105,792.5641,757.9121,748.6447,751.4652,851.39197
1694300554.106,797.3993,760.7326,745.42126,760.7326,977.9121
1694300554.107,797.3993,761.9414,741.79486,758.71796,1319.597
1694300554.107,796.5934,759.92676,745.82416,753.47986,981.53845
1694300554.135,796.99634,755.89746,746.2271,749.45056,714.3956
1694300554.136,790.54944,758.315,740.989,736.55676,786.1172
1694300554.1369998,788.93774,757.50916,741.79486,737.76556,777.25275
1694300554.1379998,791.75824,751.8681,741.79486,751.8681,757.9121
1694300554.1379998,790.9524,751.4652,738.97437,761.13556,768.7912
1694300554.1390002,792.1612,755.09155,742.6007,764.7619,906.99634
1694300554.14,793.36993,761.53845,748.6447,746.63007,863.8828
1694300554.14,782.8938,760.7326,750.65936,742.1978,718.4249
1694300554.141,785.7143,756.30035,749.45056,751.4652,774.83514
1694300554.1420002,787.72894,752.674,750.2564,755.89746,1059.7069
1694300554.1420002,793.7729,755.09155,746.2271,748.24176,943.663
1694300554.1430001,806.6667,755.09155,742.1978,746.2271,745.82416
1694300554.175,801.02563,749.45056,745.42126,750.2564,862.27106
1694300554.176,785.31134,750.2564,743.4066,749.85345,912.6374
1694300554.18,780.87915,750.2564,737.76556,748.24176,821.5751
1694300554.181,780.87915,751.4652,738.97437,753.0769,777.6557
1694300554.181,783.2967,752.674,739.3773,749.85345,820.7692
1694300554.1820002,784.10254,751.06226,732.9304,741.79486,831.6484
1694300554.1820002,777.6557,744.61536,725.6777,738.1685,812.3077
1694300554.183,772.4176,737.76556,719.2308,732.1245,863.8828
1694300554.183,768.3883,733.73627,715.2015,728.0952,992.8205
1694300554.184,760.32965,733.3333,714.7985,736.1539,1241.8315
1694300554.185,753.8828,735.34796,715.2015,727.28937,971.06226
1694300554.185,756.7033,733.73627,716.4103,724.0659,726.8865
1694300554.2289999,765.56775,729.707,713.9927,727.6923,835.2747
1694300554.23,761.9414,728.49817,711.5751,722.0513,832.0513
1694300554.231,752.674,730.10986,716.8132,713.1868,741.39197
1694300554.231,756.30035,737.3626,722.4542,709.9634,819.9634
1694300554.232,755.4945,743.4066,726.8865,725.2747,1024.249
1694300554.233,757.50916,739.3773,728.0952,734.1392,984.35895
1694300554.233,764.35895,739.7802,725.2747,728.9011,876.3736
1694300554.2350001,761.53845,745.0183,724.4689,720.84247,870.32965
1694300554.236,756.30035,745.0183,725.2747,725.6777,1216.4469
1694300554.237,753.47986,740.18317,725.6777,729.304,1119.7435
1694300554.2380002,755.89746,742.1978,726.08057,716.0073,769.19415
1694300554.239,757.1062,745.0183,727.28937,716.8132,757.1062
1694300554.299,767.1795,745.0183,732.1245,721.6484,763.1502
1694300554.3,774.43225,747.8388,730.9158,709.9634,778.86444
1694300554.3009999,772.01465,750.2564,732.52747,708.7546,793.7729
1694300554.302,767.5824,752.674,736.55676,718.8278,784.5055
1694300554.3059998,767.1795,751.4652,738.1685,720.0366,809.4872
1694300554.3059998,767.98535,752.674,738.1685,716.4103,891.685
1694300554.3070002,767.98535,755.09155,738.1685,721.2454,898.93774
1694300554.308,770.40295,758.315,744.21246,735.7509,1027.4725
1694300554.309,772.4176,763.5531,747.4359,748.24176,1383.663
1694300554.309,768.3883,764.35895,744.61536,745.0183,1226.5201
1694300554.3100002,772.01465,765.9707,749.0476,739.7802,841.31866
1694300554.311,777.6557,771.6117,753.0769,747.4359,804.2491
1694300554.3539999,777.25275,776.8498,752.27106,746.63007,773.22345
1694300554.356,780.87915,778.46155,751.06226,745.42126,745.42126
1694300554.3569999,776.8498,776.8498,750.2564,749.85345,772.01465
1694300554.358,771.2088,772.4176,754.68866,756.30035,816.337
1694300554.359,777.25275,771.6117,759.92676,758.71796,818.3516
1694300554.36,781.685,771.2088,756.7033,754.68866,842.1245
1694300554.36,771.6117,770.0,749.85345,733.3333,895.7143
1694300554.3609998,763.5531,772.4176,750.2564,707.9487,1102.4176
1694300554.362,767.1795,773.6264,756.30035,703.5165,1053.663
1694300554.3630002,767.98535,775.64105,756.30035,716.0073,832.8571
1694300554.3630002,772.01465,776.4469,756.30035,729.304,807.8755
1694300554.364,775.64105,776.4469,756.7033,734.1392,922.3077
1694300554.428,772.01465,782.49084,757.9121,746.63007,854.61536
1694300554.43,776.04395,787.326,757.50916,743.8095,763.1502
1694300554.431,771.2088,783.69965,755.89746,723.2601,791.3553
1694300554.432,763.5531,778.86444,755.4945,719.2308,837.28937
1694300554.4329998,765.16486,777.25275,751.4652,721.6484,825.6044
1694300554.4350002,764.7619,776.04395,749.45056,699.4872,766.77655
1694300554.441,767.5824,773.22345,751.06226,684.57874,976.30035
1694300554.442,769.19415,769.19415,752.674,680.14655,1297.4359
1694300554.442,767.98535,766.77655,753.8828,657.1795,1031.0989
1694300554.443,765.9707,769.19415,752.674,649.92676,807.47253
1694300554.444,760.32965,769.59705,748.6447,661.6117,986.77655
1694300554.445,761.13556,764.35895,746.2271,656.3736,1015.38464
1694300554.447,765.56775,764.7619,748.6447,643.0769,857.03296
1694300554.448,757.1062,759.92676,749.0476,648.315,809.0842
1694300554.449,743.8095,756.7033,749.45056,658.3883,965.82416
1694300554.4499998,749.0476,762.3443,752.27106,657.1795,918.68134
1694300554.451,759.12085,761.9414,755.4945,660.80585,787.72894
1694300554.452,765.9707,765.9707,756.7033,666.4469,938.022
1694300554.452,770.0,764.35895,758.71796,684.57874,1227.326
1694300554.4529998,772.01465,753.0769,759.12085,691.02563,1011.75824
1694300554.4540002,774.83514,749.0476,755.4945,679.34064,763.1502
1694300554.4550002,773.6264,743.8095,754.68866,682.5641,836.08057
1694300554.4550002,774.0293,737.3626,752.27106,689.81683,865.09155
1694300554.456,770.0,734.5421,749.45056,693.44324,813.1135
1694300554.4910002,772.8205,733.73627,749.45056,684.57874,728.0952
1694300554.493,773.22345,733.3333,747.4359,684.17584,788.93774
1694300554.493,767.5824,732.1245,744.61536,699.4872,927.9487
1694300554.4940002,767.1795,728.9011,746.2271,705.5311,850.58606
1694300554.4950001,771.2088,730.10986,749.45056,707.1429,761.53845
1694300554.4950001,767.5824,728.9011,746.63007,704.7253,1018.60803
1694300554.496,760.7326,727.28937,743.8095,700.696,1216.044
1694300554.497,763.5531,733.3333,747.8388,695.8608,941.2454
1694300554.502,771.2088,735.34796,751.4652,693.44324,812.3077
1694300554.503,776.04395,735.34796,748.6447,700.293,880.40295
1694300554.504,774.0293,734.1392,748.24176,708.3516,862.674
1694300554.504,764.35895,730.9158,747.8388,708.3516,763.5531
1694300554.527,758.71796,734.94507,746.2271,711.5751,778.0586
1694300554.528,757.9121,735.34796,744.21246,716.4103,939.2308
1694300554.529,762.74725,732.52747,743.4066,716.8132,900.14655
1694300554.53,770.40295,736.9597,747.03296,709.5604,738.97437
1694300554.53,776.4469,740.989,748.6447,711.1722,869.5238
1694300554.5310001,771.2088,737.76556,744.61536,715.2015,1070.989
1694300554.532,767.1795,736.1539,747.03296,711.1722,985.16486
1694300554.532,775.64105,740.18317,753.0769,712.7839,809.89014
1694300554.533,778.46155,740.18317,753.47986,722.0513,812.3077
1694300554.5340002,775.64105,742.6007,754.2857,728.9011,1127.8022
1694300554.5340002,778.46155,745.82416,749.85345,729.304,1068.1685
1694300554.535,784.90845,748.6447,746.63007,737.76556,818.3516
1694300554.568,779.2674,751.4652,748.24176,737.3626,805.8608
1694300554.569,765.56775,746.2271,745.42126,721.6484,826.8132
1694300554.57,761.13556,744.21246,744.61536,716.0073,823.5897
1694300554.571,771.6117,746.63007,748.24176,719.2308,802.6374
1694300554.571,780.87915,749.45056,753.0769,728.49817,827.2161
1694300554.572,776.04395,751.8681,753.47986,734.5421,921.50183
1694300554.573,776.8498,753.0769,751.06226,734.94507,872.74725
1694300554.5740001,780.87915,755.89746,752.27106,733.73627,866.7033
1694300554.5740001,778.86444,755.89746,751.8681,740.989,1019.41394
1694300554.575,780.4762,758.71796,750.2564,736.55676,954.1392
1694300554.579,787.72894,764.7619,747.8388,721.6484,792.1612
1694300554.579,791.3553,765.9707,745.82416,716.8132,740.18317
1694300554.612,783.2967,762.74725,749.85345,721.2454,938.8278
1694300554.613,778.0586,759.92676,750.2564,735.7509,1288.9744
1694300554.614,773.6264,759.5238,747.03296,731.7216,1070.989
1694300554.615,778.0586,759.12085,750.65936,702.71063,785.31134
1694300554.615,779.2674,757.50916,753.0769,681.3553,807.8755
1694300554.616,780.4762,759.5238,752.674,674.5055,897.326
1694300554.616,774.43225,761.9414,752.674,672.49084,933.1868
1694300554.6169999,768.7912,760.7326,752.674,675.7143,838.0952
1694300554.6179998,781.685,763.95605,756.7033,695.8608,1068.9744
1694300554.6179998,786.9231,766.77655,756.30035,696.26373,1022.6374
1694300554.619,782.0879,768.3883,754.68866,691.4286,758.315
1694300554.619,774.43225,767.5824,752.674,689.81683,806.6667
1694300554.663,774.83514,762.74725,749.0476,680.54944,937.2161
1694300554.665,779.2674,759.92676,750.2564,679.34064,859.85345
1694300554.667,771.6117,757.1062,749.0476,686.1905,763.5531
1694300554.668,768.7912,754.2857,750.65936,686.5934,793.36993
1694300554.669,768.3883,756.30035,749.85345,689.41394,851.39197
1694300554.67,764.35895,760.7326,745.82416,690.2198,882.8205
1694300554.671,768.7912,761.13556,748.24176,689.011,869.12085
1694300554.671,771.6117,763.5531,750.65936,692.6374,950.5128
1694300554.672,766.77655,763.5531,746.2271,695.05493,1305.4945
1694300554.6729999,770.40295,767.5824,748.6447,689.011,1099.1941
1694300554.6739998,775.64105,768.7912,751.8681,685.78754,761.13556
1694300554.6739998,774.0293,767.1795,748.24176,693.8461,819.9634
1694300554.714,780.4762,767.1795,745.0183,689.81683,838.9011
1694300554.7150002,790.9524,768.7912,748.6447,681.3553,768.3883
1694300554.7150002,791.3553,769.59705,751.06226,686.99634,760.7326
1694300554.716,789.34064,766.3736,749.0476,701.0989,907.8022
1694300554.717,789.34064,765.56775,752.674,713.5897,910.6227
1694300554.717,784.5055,767.1795,753.8828,699.89014,853.00366
1694300554.7180002,777.6557,766.77655,753.0769,681.75824,880.40295
1694300554.719,772.4176,765.9707,752.674,684.9817,1075.0183
1694300554.719,769.19415,766.3736,754.2857,693.44324,1002.0879
1694300554.72,770.0,765.9707,760.32965,705.9341,794.9817
1694300554.72,764.7619,766.3736,761.53845,707.9487,788.5348
1694300554.721,763.5531,767.5824,761.13556,703.91943,782.8938
1694300554.748,763.5531,766.3736,762.74725,701.0989,792.5641
1694300554.7489998,763.1502,765.9707,761.13556,686.1905,779.67035
1694300554.7500002,764.7619,772.4176,757.50916,684.17584,867.9121
1694300554.7500002,765.16486,770.80585,756.7033,691.02563,952.1245
1694300554.7510002,757.9121,768.7912,759.12085,689.81683,831.2454
1694300554.752,753.8828,770.0,755.89746,690.6227,835.2747
1694300554.752,760.7326,768.7912,756.7033,705.12823,1012.96704
1694300554.753,761.9414,770.80585,759.92676,718.022,1050.8425
1694300554.753,761.53845,772.8205,760.7326,713.9927,863.47986
1694300554.754,770.80585,771.2088,763.5531,705.5311,769.59705
1694300554.754,775.64105,770.80585,761.53845,701.9048,947.6923
1694300554.755,765.56775,774.0293,762.3443,704.3223,1224.1025
1694300554.789,769.59705,774.43225,764.35895,704.3223,960.18317
1694300554.7900002,772.8205,770.0,765.56775,701.50183,802.23444
1694300554.795,770.80585,770.40295,771.6117,691.8315,867.50916
1694300554.796,770.0,767.1795,770.0,691.02563,811.50183
1694300554.796,763.5531,764.35895,762.3443,690.6227,756.7033
1694300554.797,756.7033,763.1502,762.3443,683.7729,811.9048
1694300554.798,753.0769,759.92676,765.9707,691.8315,1170.9158
1694300554.798,757.9121,759.92676,762.74725,691.8315,1085.8975
1694300554.799,761.13556,764.7619,760.32965,691.02563,791.3553
1694300554.8,758.71796,765.56775,761.13556,695.4579,818.7546
1694300554.8,758.71796,763.5531,763.1502,701.0989,992.8205
1694300554.8009999,763.95605,765.16486,766.77655,703.91943,859.45056
1694300554.833,762.3443,763.95605,763.1502,697.0696,718.8278
1694300554.8339999,757.9121,764.7619,762.3443,695.8608,752.674
1694300554.835,769.19415,770.0,765.9707,695.4579,760.7326
1694300554.836,770.0,767.98535,764.35895,701.50183,757.1062
1694300554.836,763.5531,763.5531,763.5531,709.15753,748.6447
1694300554.837,765.16486,761.53845,763.1502,710.3663,915.8608
1694300554.838,765.56775,763.1502,761.53845,704.7253,1002.8938
1694300554.838,767.1795,768.7912,759.5238,697.8755,913.44324
1694300554.839,767.1795,772.4176,759.12085,696.6667,894.10254
1694300554.839,765.16486,764.7619,758.315,689.81683,1012.1612
1694300554.84,747.4359,755.09155,757.1062,696.26373,1274.0659
1694300554.84,732.52747,752.27106,754.68866,695.05493,1041.978
1694300554.8739998,732.9304,745.42126,749.45056,681.75824,821.1722
1694300554.875,726.08057,740.18317,745.42126,688.60803,925.12823
1694300554.876,726.4835,734.5421,743.4066,690.6227,935.6044
1694300554.876,729.707,727.28937,742.6007,679.34064,779.2674
1694300554.881,724.4689,725.2747,744.61536,687.8022,778.46155
1694300554.8830001,728.49817,724.0659,743.4066,697.8755,1023.8461
1694300554.884,731.31866,717.2161,740.58606,696.6667,971.06226
1694300554.885,734.1392,714.3956,739.3773,699.0842,782.0879
1694300554.8860002,737.3626,715.6044,732.52747,702.3077,795.38464
1694300554.8860002,735.34796,710.7692,728.9011,712.7839,1003.2967
1694300554.887,738.1685,707.1429,731.7216,713.9927,927.9487
1694300554.888,745.42126,707.1429,725.2747,696.26373,783.69965
1694300554.924,752.674,711.5751,720.0366,702.3077,806.26373
1694300554.925,754.68866,713.5897,720.0366,715.6044,881.6117
1694300554.926,753.47986,709.9634,714.3956,708.3516,815.9341
1694300554.927,756.30035,716.8132,714.7985,716.0073,753.0769
1694300554.927,764.7619,728.9011,724.87177,743.8095,816.337
1694300554.928,774.43225,734.5421,728.0952,758.71796,886.4469
1694300554.929,780.87915,743.00366,727.6923,758.315,950.9158
1694300554.929,788.93774,751.06226,732.9304,762.3443,853.4066
1694300554.9299998,805.4579,757.50916,738.5714,776.8498,915.8608
1694300554.9299998,817.1429,758.71796,736.55676,789.7436,1250.2931
1694300554.931,812.71063,760.32965,737.76556,786.9231,1006.1172
1694300554.932,808.68134,767.5824,742.1978,789.7436,764.7619
1694300555.018,809.89014,770.40295,744.61536,796.99634,846.9597
1694300555.019,809.89014,777.25275,748.24176,802.6374,819.9634
1694300555.021,811.50183,782.49084,749.45056,799.011,728.49817
1694300555.022,809.4872,780.87915,747.4359,788.93774,754.68866
1694300555.023,807.47253,779.67035,747.4359,786.1172,932.381
1694300555.0249999,807.8755,780.4762,749.85345,793.7729,887.25275
1694300555.0300002,810.696,780.87915,749.85345,792.96704,828.8278
1694300555.0310001,813.5165,781.685,751.8681,786.52014,833.2601
1694300555.0310001,811.0989,783.2967,754.2857,794.57874,1060.1099
1694300555.033,815.12823,787.326,758.71796,801.4286,983.95605
1694300555.034,817.9487,782.8938,759.92676,794.17584,758.71796
1694300555.034,809.89014,781.28204,759.12085,788.5348,798.20514
1694300555.041,805.8608,786.1172,760.7326,794.57874,838.0952
1694300555.0419998,803.44324,784.5055,759.92676,799.41394,842.9304
1694300555.043,807.8755,783.2967,762.3443,796.99634,797.8022
1694300555.044,803.8461,782.8938,765.56775,795.78754,862.27106
1694300555.0460002,793.7729,782.0879,762.3443,792.96704,952.52747
1694300555.0470002,792.1612,777.6557,758.71796,790.54944,916.26373
1694300555.048,793.7729,771.2088,758.71796,798.60803,902.96704
1694300555.049,792.96704,775.64105,757.1062,804.65204,1062.1245
1694300555.05,797.3993,780.4762,757.9121,788.5348,1081.8682
1694300555.051,800.6227,779.67035,763.1502,779.2674,863.47986
1694300555.052,797.8022,776.8498,759.92676,773.22345,777.6557
1694300555.052,800.6227,777.6557,759.92676,771.6117,1013.7729
1694300555.1,803.8461,777.6557,764.35895,784.10254,1296.63
1694300555.1009998,808.68134,778.0586,766.77655,774.83514,1008.1319
1694300555.1020002,795.78754,778.46155,766.3736,764.35895,829.6337
1694300555.1020002,786.52014,775.64105,765.9707,769.59705,857.8388
1694300555.1030002,787.72894,779.67035,768.7912,777.25275,848.5714
1694300555.104,780.4762,783.2967,771.2088,778.46155,857.4359
1694300555.105,779.2674,782.49084,770.80585,775.64105,872.3443
1694300555.105,786.52014,780.07324,769.19415,785.31134,1185.0183
1694300555.1100001,792.5641,781.28204,772.8205,789.34064,1175.348
1694300555.111,794.17584,784.5055,778.86444,787.326,811.50183
1694300555.112,793.36993,782.49084,778.86444,784.90845,770.80585
1694300555.113,787.326,779.2674,774.83514,771.2088,838.9011
1694300555.144,778.46155,776.4469,775.64105,767.5824,761.9414
1694300555.146,782.0879,776.4469,776.4469,765.56775,728.0952
1694300555.147,786.52014,776.4469,775.2381,773.22345,750.65936
1694300555.148,772.8205,777.6557,775.64105,778.46155,770.80585
1694300555.148,765.9707,776.4469,776.8498,773.6264,790.9524
1694300555.149,769.59705,774.0293,778.46155,767.1795,802.6374
1694300555.15,776.4469,776.8498,778.46155,763.5531,939.2308
1694300555.151,776.4469,778.86444,781.685,774.83514,1276.8865
1694300555.151,778.0586,781.28204,783.69965,763.95605,1027.0696
1694300555.152,778.46155,779.67035,783.2967,760.32965,744.21246
1694300555.1529999,775.64105,774.83514,784.5055,767.1795,900.9524
1694300555.1529999,775.64105,774.83514,784.5055,768.3883,950.10986
1694300555.18,777.25275,775.2381,784.90845,756.30035,761.13556
1694300555.181,784.10254,778.0586,786.52014,754.68866,717.619
1694300555.1820002,784.5055,776.04395,786.52014,765.9707,844.5421
1694300555.183,777.6557,771.2088,786.9231,759.5238,837.6923
1694300555.184,773.6264,769.19415,786.1172,751.8681,767.98535
1694300555.185,770.0,767.5824,786.9231,756.30035,918.68134
1694300555.1859999,771.2088,770.40295,784.90845,762.74725,1192.2711
1694300555.187,768.3883,768.3883,783.69965,767.1795,1013.7729
1694300555.187,761.13556,766.3736,785.31134,759.5238,825.2015
1694300555.188,758.71796,770.0,784.5055,755.4945,852.6007
1694300555.1929998,764.7619,773.6264,786.1172,757.50916,898.1319
1694300555.1929998,771.6117,773.22345,782.8938,757.1062,917.47253
1694300555.2419999,767.98535,772.4176,780.07324,755.09155,869.12085
1694300555.244,764.7619,770.40295,778.86444,763.95605,878.3883
1694300555.244,778.0586,770.40295,777.6557,777.25275,952.52747
1694300555.245,776.04395,773.22345,774.83514,762.3443,850.18317
1694300555.246,753.47986,776.04395,770.0,745.42126,811.0989
1694300555.247,750.65936,778.86444,766.3736,743.8095,982.3443
1694300555.247,765.16486,780.07324,768.7912,747.03296,1093.956
1694300555.248,770.0,780.07324,771.2088,749.85345,959.3773
1694300555.2489998,766.77655,782.0879,774.43225,757.9121,792.5641
1694300555.2499998,767.98535,782.49084,777.25275,775.2381,941.6484
1694300555.2510002,764.35895,780.07324,774.43225,782.49084,1175.751
1694300555.2510002,768.3883,780.87915,770.0,767.5824,904.57874
1694300555.288,774.43225,779.67035,770.80585,761.53845,788.1319
1694300555.289,772.01465,776.4469,773.22345,771.6117,872.74725
1694300555.29,771.2088,781.28204,772.8205,776.4469,904.17584
1694300555.29,772.01465,785.31134,772.8205,784.10254,836.08057
1694300555.2910001,776.8498,786.1172,771.2088,790.14655,840.9158
1694300555.292,773.6264,783.2967,769.19415,785.31134,1180.989
1694300555.292,770.0,782.49084,766.3736,773.22345,1097.9854
1694300555.293,774.83514,789.34064,767.1795,763.5531,766.77655
1694300555.2940001,774.0293,787.326,772.4176,766.77655,790.54944
1694300555.2940001,773.6264,785.31134,769.19415,777.6557,996.4469
1694300555.295,772.8205,786.52014,768.7912,767.1795,884.43225
1694300555.295,767.5824,782.8938,767.5824,762.3443,752.674
1694300555.33,763.95605,783.69965,767.98535,774.0293,796.1905
1694300555.331,768.7912,785.7143,773.22345,777.25275,838.49817
1694300555.332,773.6264,785.31134,773.22345,782.49084,897.326
1694300555.333,770.80585,786.1172,774.0293,791.75824,817.1429
1694300555.334,772.8205,784.90845,770.40295,799.011,803.8461
1694300555.335,769.19415,782.49084,769.59705,808.2784,943.663
1694300555.336,764.35895,784.10254,773.22345,813.91943,940.84247
1694300555.337,767.98535,788.1319,776.04395,815.9341,862.674
1694300555.3379998,763.95605,786.1172,776.04395,819.15753,963.4066
1694300555.339,755.89746,784.90845,775.64105,826.4103,1297.8389
1694300555.339,764.35895,783.69965,778.86444,824.7985,1079.8535
1694300555.34,770.0,783.2967,782.8938,808.2784,791.3553
1694300555.3420002,763.1502,783.69965,782.49084,793.36993,891.685
1694300555.3430002,765.56775,783.69965,777.6557,788.93774,847.76556
1694300555.344,757.9121,780.07324,778.0586,788.1319,772.4176
1694300555.344,754.2857,778.0586,780.4762,789.34064,815.9341
1694300555.345,760.32965,781.28204,779.2674,785.7143,861.06226
1694300555.346,759.12085,780.87915,781.685,780.4762,912.23444
1694300555.3470001,757.1062,778.46155,786.1172,786.1172,878.3883
1694300555.348,763.5531,777.25275,787.72894,786.1172,825.2015
1694300555.348,765.16486,774.83514,786.1172,781.28204,1140.2931
1694300555.349,766.77655,774.43225,783.69965,772.8205,1171.3187
1694300555.3500001,764.7619,773.6264,780.4762,758.315,835.2747
1694300555.351,763.95605,774.0293,780.07324,761.13556,774.43225
1694300555.403,757.1062,770.80585,778.46155,759.5238,785.7143
1694300555.403,753.0769,770.40295,777.25275,765.16486,743.00366
1694300555.407,757.9121,775.2381,780.4762,775.2381,705.9341
1694300555.408,752.674,772.4176,784.5055,762.3443,734.1392
1694300555.409,751.4652,769.59705,785.31134,756.7033,790.14655
1694300555.409,750.2564,770.0,786.1172,767.1795,844.1392
1694300555.4099998,751.06226,768.7912,786.1172,766.3736,779.67035
1694300555.412,762.74725,764.35895,784.5055,757.50916,936.8132
1694300555.4129999,771.2088,765.56775,788.5348,760.7326,1345.3846
1694300555.4129999,767.98535,768.3883,788.93774,764.35895,1092.7472
1694300555.414,769.19415,768.3883,782.0879,761.53845,798.60803
1694300555.415,771.6117,768.3883,779.67035,766.3736,949.707
1694300555.4659998,771.2088,769.19415,780.07324,765.16486,992.8205
1694300555.467,767.5824,764.7619,776.04395,750.65936,843.3333
1694300555.468,759.12085,763.95605,773.6264,750.2564,854.21246
1694300555.4689999,747.4359,766.3736,778.46155,776.8498,888.46155
1694300555.47,747.8388,761.13556,782.0879,783.2967,815.9341
1694300555.471,749.45056,763.95605,787.326,771.2088,796.1905
1694300555.472,741.39197,763.5531,786.52014,753.47986,909.81683
1694300555.472,741.79486,758.315,779.2674,754.68866,1094.359
1694300555.473,737.76556,757.9121,781.28204,763.1502,970.65936
1694300555.474,738.5714,762.3443,786.9231,759.5238,765.9707
1694300555.4750001,747.8388,766.3736,784.90845,757.9121,808.2784
1694300555.476,744.21246,764.7619,780.87915,754.2857,826.4103
1694300555.535,746.63007,762.74725,778.86444,749.85345,833.2601
1694300555.536,752.674,765.16486,781.685,756.30035,823.1868
1694300555.537,746.63007,763.95605,778.86444,763.95605,830.84247
1694300555.537,746.2271,761.9414,775.2381,757.1062,884.83514
1694300555.542,751.06226,765.9707,778.86444,752.27106,827.619
1694300555.543,755.09155,768.7912,781.28204,747.8388,789.7436
1694300555.544,749.45056,766.3736,782.49084,745.82416,977.1062
1694300555.5449998,742.1978,762.74725,775.2381,757.50916,1259.9634
1694300555.5459998,736.9597,765.16486,772.4176,746.63007,1054.8718
1694300555.5470002,742.1978,767.5824,775.2381,728.9011,809.0842
1694300555.549,747.03296,765.16486,774.0293,736.1539,929.15753
1694300555.5500002,753.47986,765.56775,773.6264,737.76556,1007.72894
1694300555.5779998,757.1062,765.16486,774.0293,730.10986,845.34796
1694300555.579,754.2857,764.35895,778.0586,732.9304,792.96704
1694300555.58,758.71796,769.19415,778.86444,736.9597,820.7692
1694300555.58,767.5824,768.3883,774.83514,739.7802,846.9597
1694300555.5809999,757.1062,765.9707,768.7912,734.5421,821.978
1694300555.582,744.21246,765.56775,770.80585,726.8865,830.4396
1694300555.582,745.0183,766.3736,771.6117,729.304,1168.0952
1694300555.5830002,744.61536,768.3883,767.98535,732.9304,1198.3151
1694300555.584,746.2271,765.56775,767.5824,725.2747,869.12085
1694300555.584,743.4066,767.98535,769.19415,732.52747,789.7436
1694300555.585,742.6007,768.3883,767.5824,738.5714,799.41394
1694300555.586,747.03296,764.7619,771.2088,733.73627,808.68134
1694300555.5939999,753.8828,763.95605,776.4469,738.97437,766.77655
1694300555.595,759.5238,766.3736,772.8205,739.7802,795.78754
1694300555.596,757.50916,771.6117,769.19415,729.304,877.5824
1694300555.597,750.65936,770.80585,764.35895,719.2308,816.7399
1694300555.597,749.85345,769.19415,760.32965,718.022,747.03296
1694300555.598,751.4652,772.8205,761.13556,717.619,872.3443
1694300555.6019998,749.0476,770.40295,762.3443,723.2601,1002.8938
1694300555.6030002,753.47986,768.3883,767.5824,732.9304,935.6044
1694300555.6030002,755.89746,770.40295,771.2088,744.21246,828.8278
1694300555.604,757.50916,768.3883,766.3736,746.2271,946.4835
1694300555.605,758.71796,765.16486,765.16486,753.8828,1197.5092
1694300555.6060002,760.7326,764.7619,767.5824,752.27106,946.4835
1694300555.629,765.16486,761.13556,769.59705,744.61536,783.2967
1694300555.63,767.98535,759.92676,770.80585,728.49817,850.18317
1694300555.63,757.9121,765.56775,768.3883,713.1868,812.3077
1694300555.631,757.50916,770.40295,766.77655,720.4396,789.7436
1694300555.631,761.53845,765.16486,767.1795,738.97437,884.0293
1694300555.632,759.12085,763.95605,767.5824,736.9597,1038.7546
1694300555.632,769.19415,771.2088,763.5531,724.0659,920.293
1694300555.633,765.16486,772.01465,759.12085,706.337,783.69965
1694300555.633,765.56775,770.40295,759.12085,693.44324,807.0696
1694300555.6339998,777.6557,774.0293,764.35895,713.9927,1106.4469
1694300555.6339998,773.22345,779.67035,764.35895,711.978,1025.4579
1694300555.635,774.43225,774.43225,760.7326,705.9341,767.5824
1694300555.682,782.0879,773.22345,760.7326,713.1868,801.02563
1694300555.683,776.8498,776.04395,761.53845,711.5751,832.8571
1694300555.684,772.01465,775.64105,762.3443,720.4396,805.05493
1694300555.684,768.3883,772.8205,757.1062,730.5128,817.9487
1694300555.685,767.98535,768.7912,756.30035,722.4542,864.68866
1694300555.686,766.3736,772.4176,761.9414,720.0366,902.5641
1694300555.686,767.1795,773.22345,760.7326,717.619,913.0403
1694300555.687,761.9414,770.80585,759.92676,713.9927,901.75824
1694300555.691,763.1502,772.01465,759.5238,720.0366,994.43225
1694300555.691,771.6117,775.64105,758.315,737.3626,1260.3663
1694300555.692,764.7619,778.0586,758.71796,744.21246,1045.6044
1694300555.6929998,758.315,774.83514,757.9121,739.7802,836.08057
1694300555.717,761.13556,769.19415,758.71796,736.9597,971.8681
1694300555.7180002,769.19415,770.40295,761.13556,738.97437,915.05493
1694300555.7180002,769.59705,771.6117,756.30035,738.97437,828.8278
1694300555.719,755.89746,767.98535,747.4359,753.0769,834.0659
1694300555.72,746.63007,768.7912,743.00366,763.5531,839.304
1694300555.72,751.06226,774.43225,743.00366,749.85345,857.8388
1694300555.721,762.74725,781.685,737.3626,737.3626,895.31134
1694300555.722,756.7033,778.86444,728.9011,736.1539,914.65204
1694300555.722,748.24176,775.2381,721.6484,740.989,1117.326
1694300555.723,753.47986,779.67035,722.4542,740.989,1005.7143
1694300555.723,753.0769,775.2381,722.8571,738.1685,766.3736
1694300555.724,751.4652,772.4176,717.619,738.1685,780.4762
1694300555.775,751.4652,773.6264,719.2308,735.7509,799.011
1694300555.776,748.24176,769.59705,720.4396,730.10986,828.022
1694300555.777,742.1978,765.9707,724.87177,727.6923,835.2747
1694300555.7779999,740.989,767.5824,730.9158,726.08057,828.8278
1694300555.7779999,742.1978,765.9707,728.49817,728.9011,889.2674
1694300555.779,744.21246,766.3736,726.8865,724.87177,938.8278
1694300555.78,740.18317,769.19415,730.10986,718.022,959.3773
1694300555.781,738.1685,770.80585,733.73627,719.2308,1034.7252
1694300555.782,736.1539,770.40295,735.7509,728.0952,1272.8572
1694300555.783,734.5421,769.19415,735.34796,724.4689,1067.7656
1694300555.7870002,738.97437,771.6117,732.9304,708.3516,828.022
1694300555.788,738.5714,769.19415,732.9304,718.4249,879.19415
