timestamp,RAW_TP9,RAW_AF7,RAW_AF8,RAW_TP10,AUX_RIGHT
1694131417.38,786.1172,790.14655,791.75824,805.05493,763.95605
1694131417.38,788.1319,786.1172,786.1172,794.9817,699.89014
1694131417.3820002,788.1319,783.2967,782.8938,782.0879,724.87177
1694131417.3830001,782.49084,778.46155,791.3553,792.96704,761.53845
1694131417.384,793.36993,781.28204,793.7729,815.9341,789.34064
1694131417.384,789.7436,786.52014,787.72894,788.93774,830.4396
1694131417.387,786.9231,786.52014,785.31134,782.0879,878.3883
1694131417.388,777.25275,787.72894,784.90845,788.93774,1025.4579
1694131417.389,755.89746,789.7436,787.72894,792.96704,939.2308
1694131417.389,770.40295,791.75824,791.75824,812.71063,735.34796
1694131417.391,803.0403,793.36993,790.9524,791.75824,802.23444
1694131417.392,789.7436,791.75824,789.34064,778.46155,1098.3883
1694131417.4190001,771.6117,792.1612,788.1319,782.8938,846.1539
1694131417.42,774.43225,789.7436,791.75824,787.326,583.8461
1694131417.421,783.2967,786.9231,791.75824,793.7729,699.0842
1694131417.421,793.7729,786.1172,790.9524,782.8938,786.52014
1694131417.4220002,782.8938,789.34064,792.1612,778.46155,766.77655
1694131417.4220002,787.326,788.5348,785.31134,783.2967,724.4689
1694131417.423,793.7729,784.5055,782.0879,788.5348,868.71796
1694131417.424,765.16486,787.326,788.5348,792.96704,1061.7216
1694131417.424,782.8938,789.34064,791.3553,788.1319,852.1978
1694131417.425,808.2784,784.5055,787.326,784.10254,767.1795
1694131417.425,801.02563,786.52014,787.72894,786.1172,805.4579
1694131417.4259999,788.93774,791.75824,792.1612,786.1172,739.7802
1694131417.468,785.31134,795.78754,794.57874,790.54944,712.7839
1694131417.4689999,796.1905,794.57874,791.3553,807.0696,749.45056
1694131417.47,790.14655,791.75824,790.14655,814.7253,927.9487
1694131417.471,791.75824,798.20514,792.1612,811.50183,857.4359
1694131417.472,819.15753,796.5934,788.5348,793.7729,675.31134
1694131417.472,811.50183,788.93774,786.9231,776.04395,784.5055
1694131417.473,782.8938,785.7143,790.14655,790.14655,1109.6703
1694131417.474,783.69965,789.34064,793.36993,802.23444,944.4689
1694131417.477,784.5055,792.1612,792.1612,797.8022,640.65936
1694131417.4780002,782.0879,784.90845,791.75824,801.02563,657.5824
1694131417.4780002,789.34064,777.6557,800.2198,803.0403,726.4835
1694131417.479,806.26373,783.69965,800.6227,796.99634,797.8022
1694131417.5219998,790.9524,789.34064,795.78754,806.26373,710.3663
1694131417.523,775.2381,792.96704,797.3993,801.02563,728.0952
1694131417.523,787.326,791.3553,795.38464,792.96704,1064.9451
1694131417.524,807.8755,792.5641,791.75824,786.52014,880.0
1694131417.5249999,801.8315,791.75824,791.75824,791.75824,670.4762
1694131417.5249999,789.7436,788.1319,794.17584,811.50183,881.2088
1694131417.526,795.38464,788.1319,793.7729,798.60803,970.65936
1694131417.526,803.44324,794.17584,793.36993,785.7143,752.27106
1694131417.527,803.44324,796.5934,790.54944,797.8022,602.7839
1694131417.527,794.17584,786.1172,786.1172,800.2198,747.4359
1694131417.528,780.87915,782.49084,786.1172,788.93774,857.8388
1694131417.528,776.04395,787.326,792.5641,796.1905,667.25275
1694131417.569,782.49084,788.93774,793.36993,806.6667,612.8571
1694131417.57,782.49084,789.34064,788.93774,793.7729,787.72894
1694131417.57,793.36993,790.54944,786.9231,779.2674,790.14655
1694131417.571,792.96704,787.72894,784.90845,791.75824,690.6227
1694131417.572,774.83514,784.90845,787.326,797.3993,757.50916
1694131417.572,763.95605,784.10254,787.72894,797.8022,927.5458
1694131417.573,776.8498,782.49084,787.326,792.5641,831.6484
1694131417.573,794.9817,780.87915,788.1319,785.7143,709.15753
1694131417.5740001,793.36993,785.31134,788.1319,788.5348,819.5604
1694131417.5740001,790.9524,791.75824,790.54944,799.81683,1072.6007
1694131417.577,794.17584,792.5641,791.3553,795.78754,970.65936
1694131417.5779998,792.1612,788.5348,792.1612,792.1612,743.8095
1694131417.6179998,779.2674,787.326,793.36993,792.1612,750.65936
1694131417.619,775.2381,788.93774,792.96704,774.83514,899.7436
1694131417.62,774.0293,791.75824,793.36993,776.8498,797.3993
1694131417.62,771.6117,787.326,791.3553,796.1905,666.8498
1694131417.621,796.1905,784.5055,791.3553,812.3077,650.32965
1694131417.621,793.36993,786.9231,790.9524,793.36993,750.2564
1694131417.6220002,784.10254,788.1319,790.14655,790.9524,842.1245
1694131417.6220002,774.0293,788.93774,790.9524,787.72894,762.74725
1694131417.6230001,774.0293,789.7436,792.96704,788.5348,794.9817
1694131417.6230001,783.69965,788.1319,791.3553,806.6667,1068.1685
1694131417.624,786.1172,790.14655,785.7143,793.7729,862.674
1694131417.624,772.01465,789.7436,789.7436,789.34064,672.0879
1694131417.669,782.0879,789.34064,792.1612,781.685,791.3553
1694131417.67,791.75824,792.5641,795.38464,796.1905,744.21246
1694131417.671,779.67035,792.1612,796.5934,826.8132,664.83514
1694131417.672,778.86444,791.3553,792.1612,785.31134,715.6044
1694131417.672,776.8498,788.5348,793.36993,780.07324,792.5641
1694131417.6729999,784.10254,786.1172,792.1612,797.8022,825.6044
1694131417.6729999,781.28204,787.326,788.93774,794.9817,730.5128
1694131417.6739998,787.72894,785.31134,792.1612,782.0879,693.0403
1694131417.675,789.7436,786.52014,789.7436,778.46155,983.95605
1694131417.676,790.9524,785.7143,785.7143,780.87915,963.4066
1694131417.677,782.49084,785.31134,789.7436,784.10254,757.50916
1694131417.6780002,775.64105,787.326,792.96704,800.2198,748.6447
1694131417.7180002,783.69965,787.72894,790.54944,809.0842,944.0659
1694131417.719,781.28204,789.7436,790.9524,787.72894,831.2454
1694131417.72,784.5055,790.54944,795.38464,791.75824,699.4872
1694131417.72,782.8938,788.93774,793.7729,790.14655,773.6264
1694131417.721,785.7143,786.9231,792.1612,797.8022,718.8278
1694131417.721,786.1172,784.5055,794.9817,812.3077,713.9927
1694131417.722,784.90845,786.1172,795.38464,790.14655,722.8571
1694131417.723,785.31134,784.10254,791.75824,783.69965,810.293
1694131417.723,781.28204,786.52014,789.7436,796.1905,1054.8718
1694131417.724,790.14655,795.78754,788.93774,794.57874,838.9011
1694131417.724,781.28204,794.9817,786.9231,790.54944,675.31134
1694131417.725,774.83514,788.93774,784.90845,801.8315,837.6923
1694131417.77,783.2967,790.54944,788.1319,815.12823,842.52747
1694131417.7710001,799.81683,794.17584,791.3553,780.07324,786.1172
1694131417.772,792.96704,796.1905,792.96704,780.07324,803.8461
1694131417.772,778.86444,792.96704,796.1905,811.0989,895.31134
1694131417.773,781.28204,789.34064,796.1905,797.3993,809.89014
1694131417.773,790.14655,790.14655,794.17584,790.14655,762.74725
1694131417.7740002,788.1319,790.54944,788.5348,792.5641,849.7802
1694131417.775,786.9231,786.52014,783.69965,794.17584,1066.5568
1694131417.775,791.75824,788.5348,786.9231,813.5165,921.9048
1694131417.776,779.67035,790.9524,795.78754,786.52014,648.71796
1694131417.777,774.83514,782.0879,796.99634,789.34064,726.8865
1694131417.777,792.1612,783.69965,795.38464,806.26373,869.5238
1694131417.82,801.4286,786.9231,800.2198,770.80585,811.0989
1694131417.82,785.7143,789.34064,802.6374,780.4762,676.52014
1694131417.823,784.10254,790.14655,795.38464,800.2198,697.0696
1694131417.824,779.2674,791.3553,793.36993,806.26373,847.3626
1694131417.824,780.4762,795.38464,795.78754,809.4872,838.0952
1694131417.825,780.87915,796.5934,796.99634,808.68134,814.7253
1694131417.825,765.56775,788.5348,794.9817,801.8315,914.2491
1694131417.826,778.86444,783.69965,792.1612,807.47253,1103.2234
1694131417.826,798.60803,790.9524,784.10254,784.10254,828.4249
1694131417.8270001,792.96704,791.75824,781.685,759.92676,630.58606
1694131417.8270001,782.8938,792.1612,791.75824,764.35895,744.21246
1694131417.828,778.0586,790.54944,795.38464,765.9707,672.0879
1694131417.869,781.28204,788.1319,794.9817,776.4469,607.2161
1694131417.869,782.49084,786.52014,797.3993,785.31134,671.28204
1694131417.8700001,790.9524,788.1319,795.78754,805.4579,769.59705
1694131417.8700001,797.8022,796.5934,791.75824,802.23444,769.19415
1694131417.871,788.1319,798.20514,790.9524,789.7436,703.1135
1694131417.871,777.25275,794.9817,792.96704,779.2674,740.989
1694131417.871,782.49084,792.1612,795.78754,790.9524,1006.9231
1694131417.872,783.2967,792.5641,790.9524,792.96704,931.1722
1694131417.872,780.4762,785.31134,786.52014,784.10254,714.7985
1694131417.872,782.0879,781.28204,789.7436,784.5055,757.50916
1694131417.873,787.326,785.7143,794.9817,786.9231,911.8315
1694131417.873,789.34064,789.7436,798.20514,796.1905,850.58606
1694131417.8739998,791.3553,794.9817,799.011,792.96704,708.3516
1694131417.8739998,796.99634,798.20514,798.60803,802.6374,723.2601
1694131417.875,783.2967,797.3993,792.96704,809.4872,834.0659
1694131417.875,784.10254,799.41394,789.7436,790.14655,725.6777
1694131417.878,787.72894,797.3993,792.1612,809.4872,626.9597
1694131417.878,776.04395,790.14655,790.14655,826.0073,862.27106
1694131417.879,786.52014,795.78754,791.75824,799.81683,998.46155
1694131417.879,808.2784,801.02563,796.5934,783.2967,816.337
1694131417.88,807.47253,797.8022,793.7729,770.0,706.7399
1694131417.881,783.69965,791.75824,794.17584,772.8205,844.94507
1694131417.882,778.0586,786.9231,796.99634,798.60803,1060.5128
1694131417.8830001,791.3553,796.1905,799.81683,812.71063,847.76556
1694131417.927,806.26373,799.81683,796.1905,801.8315,746.2271
1694131417.928,786.9231,796.1905,795.78754,786.52014,756.30035
1694131417.928,788.5348,799.41394,793.7729,789.7436,677.326
1694131417.929,798.20514,796.99634,786.9231,790.54944,684.17584
1694131417.929,793.7729,793.7729,787.326,789.34064,797.3993
1694131417.9299998,802.23444,796.1905,793.36993,797.8022,937.619
1694131417.931,790.14655,797.3993,791.3553,796.99634,814.3223
1694131417.931,784.10254,796.5934,788.1319,785.31134,687.8022
1694131417.931,786.9231,794.57874,791.75824,769.19415,722.4542
1694131417.932,787.326,790.54944,796.1905,780.87915,1015.38464
1694131417.932,787.326,798.20514,801.02563,789.7436,919.89014
1694131417.9329998,794.9817,795.78754,798.20514,772.4176,727.6923
1694131417.978,784.5055,784.10254,794.17584,789.34064,822.7839
1694131417.979,777.25275,785.7143,794.9817,809.4872,1024.652
1694131417.979,783.2967,792.1612,800.2198,793.36993,880.80585
1694131417.98,783.69965,793.36993,802.23444,794.57874,695.8608
1694131417.981,804.2491,793.7729,797.3993,800.2198,732.1245
1694131417.981,796.99634,794.17584,791.3553,791.75824,863.47986
1694131417.985,784.5055,795.78754,791.3553,790.54944,906.5934
1694131417.9859998,783.69965,792.1612,801.02563,796.5934,766.77655
1694131417.987,779.2674,784.10254,799.81683,791.3553,883.22345
1694131417.988,775.64105,786.1172,790.9524,786.9231,1056.0806
1694131417.9889998,783.69965,792.1612,794.57874,789.34064,791.3553
1694131417.9889998,783.69965,788.1319,795.38464,789.34064,703.91943
1694131418.0419998,785.7143,785.31134,792.5641,796.5934,805.8608
1694131418.0419998,799.41394,790.9524,803.0403,802.23444,845.7509
1694131418.043,785.7143,792.1612,801.8315,784.5055,826.0073
1694131418.044,774.83514,790.9524,789.7436,789.34064,726.4835
1694131418.0449998,788.93774,794.57874,787.326,789.34064,836.8865
1694131418.0460002,791.3553,799.011,787.72894,777.25275,865.89746
1694131418.0460002,787.326,795.78754,790.14655,783.2967,780.87915
1694131418.0470002,794.57874,790.9524,794.57874,797.8022,748.24176
1694131418.048,786.1172,790.14655,794.17584,798.20514,936.4103
1694131418.048,773.6264,796.99634,792.5641,784.5055,845.7509
1694131418.049,786.1172,795.38464,791.3553,775.64105,662.01465
1694131418.05,787.72894,792.1612,790.14655,790.54944,826.4103
1694131418.0979998,796.5934,792.5641,796.5934,809.4872,884.0293
1694131418.099,786.52014,793.36993,795.38464,785.31134,689.011
1694131418.1,770.80585,790.14655,791.3553,785.31134,584.65204
1694131418.1009998,789.34064,783.69965,791.75824,800.2198,696.26373
1694131418.1020002,774.0293,787.326,795.78754,781.28204,877.5824
1694131418.1030002,772.01465,789.7436,799.011,786.9231,820.7692
1694131418.104,788.5348,790.14655,796.1905,793.36993,666.8498
1694131418.105,780.87915,792.96704,796.1905,791.3553,746.63007
1694131418.109,776.8498,793.36993,792.5641,808.2784,1095.1648
1694131418.1100001,777.6557,796.5934,790.14655,803.8461,928.3516
1694131418.111,793.7729,794.9817,794.17584,784.5055,702.71063
1694131418.111,805.4579,794.9817,793.36993,778.0586,772.8205
1694131418.146,804.2491,798.60803,795.38464,785.7143,686.99634
1694131418.147,790.9524,797.8022,795.78754,812.71063,661.2088
1694131418.148,796.99634,798.20514,792.1612,798.20514,731.31866
1694131418.148,813.1135,800.6227,797.8022,781.28204,760.32965
1694131418.149,794.57874,798.60803,793.36993,794.17584,718.8278
1694131418.15,788.93774,798.20514,787.326,794.9817,741.79486
1694131418.151,786.1172,802.23444,797.3993,790.14655,811.0989
1694131418.152,772.8205,800.6227,800.6227,801.02563,1120.9524
1694131418.1529999,773.22345,801.4286,798.60803,799.81683,1098.3883
1694131418.1539998,777.25275,804.2491,798.60803,797.3993,682.5641
1694131418.1539998,783.69965,801.4286,799.41394,810.696,692.6374
1694131418.155,780.07324,795.78754,798.20514,791.3553,818.3516
1694131418.1569998,770.40295,796.1905,794.17584,774.43225,814.7253
1694131418.1580002,752.27106,792.1612,794.57874,765.16486,775.2381
1694131418.1590002,746.2271,791.75824,798.20514,754.68866,777.25275
1694131418.1590002,766.77655,803.0403,797.8022,763.5531,758.71796
1694131418.16,756.30035,796.99634,796.5934,753.8828,699.89014
1694131418.161,746.2271,788.5348,794.57874,745.42126,701.0989
1694131418.162,739.3773,786.1172,791.75824,749.0476,862.27106
1694131418.162,718.4249,783.69965,792.1612,746.63007,1120.5494
1694131418.163,697.8755,786.1172,789.7436,736.1539,891.28204
1694131418.164,699.89014,785.31134,787.72894,706.7399,710.7692
1694131418.167,706.337,784.10254,788.93774,710.7692,820.3663
1694131418.168,710.3663,786.9231,782.49084,711.978,797.3993
1694131418.217,712.381,788.5348,777.6557,700.293,673.69965
1694131418.218,699.0842,785.7143,783.69965,713.1868,620.5128
1694131418.218,683.7729,785.31134,790.54944,705.9341,689.41394
1694131418.219,711.978,789.34064,794.57874,713.9927,733.73627
1694131418.219,743.4066,788.1319,803.44324,738.1685,689.81683
1694131418.22,716.4103,783.2967,797.3993,734.1392,767.98535
1694131418.22,708.3516,790.14655,794.57874,717.619,1088.7179
1694131418.221,733.73627,796.99634,799.81683,738.97437,928.3516
1694131418.221,739.7802,792.96704,796.99634,749.0476,679.7436
1694131418.2220001,732.9304,792.5641,803.0403,744.61536,769.19415
1694131418.2220001,767.5824,798.60803,801.4286,754.68866,757.1062
1694131418.223,799.81683,795.38464,789.7436,760.32965,712.381
1694131418.247,780.07324,795.78754,794.9817,760.32965,722.0513
1694131418.248,758.315,795.38464,802.23444,765.16486,780.4762
1694131418.248,770.0,790.14655,800.2198,770.0,1029.0842
1694131418.2489998,797.3993,801.4286,802.23444,782.8938,836.8865
1694131418.2489998,805.8608,810.696,795.38464,807.47253,574.9817
1694131418.2499998,782.0879,800.6227,791.3553,794.9817,717.2161
1694131418.2510002,769.19415,794.17584,794.57874,770.80585,793.7729
1694131418.2510002,770.0,791.75824,791.3553,777.25275,744.21246
1694131418.252,764.35895,785.31134,790.54944,775.64105,686.5934
1694131418.252,777.25275,780.07324,786.9231,787.326,788.5348
1694131418.253,797.8022,790.9524,789.7436,813.91943,934.3956
1694131418.2540002,813.5165,795.78754,795.38464,806.26373,768.3883
1694131418.2979999,818.3516,790.54944,791.75824,795.38464,742.1978
1694131418.299,818.3516,792.5641,792.96704,796.99634,780.07324
1694131418.3,803.44324,792.1612,789.34064,815.5311,703.1135
1694131418.3009999,806.6667,795.38464,782.0879,827.619,667.25275
1694131418.302,829.2308,804.2491,793.7729,826.4103,714.3956
1694131418.302,839.304,807.0696,802.6374,835.2747,1055.2748
1694131418.303,839.304,801.02563,803.8461,836.8865,1090.7325
1694131418.303,837.6923,797.3993,801.8315,825.6044,707.1429
1694131418.304,819.15753,792.1612,793.7729,812.71063,656.77655
1694131418.3049998,812.71063,790.14655,790.14655,811.9048,799.41394
1694131418.3049998,830.84247,791.75824,786.9231,814.3223,745.0183
1694131418.3059998,807.8755,784.90845,776.8498,828.022,682.5641
1694131418.344,802.23444,787.326,779.67035,828.022,695.8608
1694131418.345,840.5128,798.60803,793.7729,822.7839,821.1722
1694131418.346,838.9011,798.20514,797.3993,818.7546,731.31866
1694131418.3470001,826.0073,797.3993,791.3553,809.89014,659.19415
1694131418.3470001,824.7985,801.8315,789.34064,819.5604,720.84247
1694131418.348,826.4103,801.02563,792.5641,831.2454,764.7619
1694131418.349,828.8278,791.3553,790.9524,827.619,767.5824
1694131418.3500001,832.0513,787.72894,796.1905,823.5897,757.1062
1694131418.3500001,837.28937,786.52014,798.20514,813.91943,971.06226
1694131418.351,799.41394,789.34064,792.1612,832.0513,1265.6044
1694131418.352,797.3993,800.2198,793.7729,828.022,976.30035
1694131418.353,811.50183,807.0696,792.96704,803.0403,701.50183
1694131418.4129999,803.8461,800.2198,786.9231,809.0842,774.0293
1694131418.414,814.7253,794.9817,783.69965,826.8132,774.0293
1694131418.4190001,814.7253,799.81683,783.2967,822.7839,742.6007
1694131418.42,822.381,803.0403,796.1905,819.15753,743.00366
1694131418.421,825.2015,794.9817,800.2198,822.7839,770.0
1694131418.4220002,819.5604,792.5641,794.9817,801.4286,786.52014
1694131418.423,807.0696,795.78754,798.60803,803.8461,811.9048
1694131418.424,805.05493,794.17584,799.011,808.2784,793.36993
1694131418.425,812.71063,796.5934,790.9524,822.381,1057.2894
1694131418.4259999,803.44324,797.3993,790.54944,838.9011,1021.4286
1694131418.427,807.47253,801.4286,788.5348,824.3956,652.3443
1694131418.428,830.0366,806.6667,787.72894,824.7985,745.0183
1694131418.4540002,831.6484,796.1905,799.41394,830.4396,957.76556
1694131418.4550002,820.3663,794.9817,805.4579,825.6044,789.7436
1694131418.456,822.7839,794.9817,797.8022,821.978,641.8681
1694131418.457,823.9927,796.99634,796.99634,826.8132,647.9121
1694131418.459,809.89014,805.05493,792.5641,829.6337,733.3333
1694131418.46,800.2198,796.1905,784.10254,834.4689,840.10986
1694131418.461,815.12823,789.34064,786.9231,828.4249,783.69965
1694131418.4620001,815.12823,790.54944,787.326,830.0366,771.2088
1694131418.463,811.9048,798.20514,791.3553,834.0659,786.9231
1694131418.464,822.381,799.81683,794.9817,803.0403,689.41394
1694131418.465,805.4579,793.7729,790.9524,794.9817,675.31134
1694131418.4659998,802.23444,794.17584,788.5348,810.293,890.87915
1694131418.4950001,811.0989,795.38464,792.1612,798.20514,956.1539
1694131418.496,801.4286,792.1612,790.9524,788.5348,677.326
1694131418.496,792.5641,783.2967,785.7143,795.78754,686.99634
1694131418.497,799.81683,785.31134,793.7729,793.7729,836.4835
1694131418.501,800.2198,788.1319,799.81683,792.1612,802.6374
1694131418.502,798.60803,784.90845,792.96704,791.3553,763.1502
1694131418.502,801.4286,790.54944,791.75824,795.78754,829.6337
1694131418.503,807.8755,790.54944,794.9817,815.5311,1023.44324
1694131418.504,804.65204,787.72894,793.7729,813.91943,949.707
1694131418.504,798.60803,789.34064,794.17584,814.3223,706.7399
1694131418.5049999,803.0403,793.7729,789.34064,819.9634,711.978
1694131418.5049999,798.20514,796.1905,786.9231,823.1868,779.67035
1694131418.532,794.17584,792.1612,793.7729,803.0403,723.2601
1694131418.533,784.90845,787.72894,798.60803,801.02563,735.7509
1694131418.5340002,777.6557,788.5348,797.8022,822.381,869.92676
1694131418.5340002,800.2198,788.5348,788.5348,793.7729,1036.7399
1694131418.535,798.20514,788.93774,780.07324,781.28204,853.00366
1694131418.536,799.41394,789.7436,788.1319,815.5311,742.1978
1694131418.536,803.8461,790.14655,796.1905,808.68134,921.50183
1694131418.537,788.93774,794.17584,792.5641,800.2198,1113.6996
1694131418.537,794.9817,792.96704,782.8938,809.0842,809.0842
1694131418.5379999,788.5348,785.31134,785.31134,811.9048,600.3663
1694131418.539,778.86444,793.36993,799.81683,801.8315,695.05493
1694131418.54,792.5641,792.5641,800.6227,790.14655,743.4066
1694131418.584,790.14655,788.93774,789.7436,792.96704,722.8571
1694131418.585,784.5055,793.36993,788.1319,802.6374,739.7802
1694131418.586,803.8461,791.3553,796.99634,793.7729,783.69965
1694131418.5870001,804.65204,790.9524,799.011,790.54944,690.2198
1694131418.5870001,774.0293,792.1612,794.57874,794.9817,666.04395
1694131418.588,780.87915,790.54944,785.31134,804.2491,841.7216
1694131418.592,813.1135,790.9524,784.5055,819.5604,1238.2051
1694131418.593,810.696,795.78754,794.9817,807.47253,1204.762
1694131418.593,791.3553,796.1905,794.9817,794.57874,786.1172
1694131418.5939999,786.9231,794.57874,792.5641,798.20514,711.978
1694131418.595,799.41394,794.17584,794.57874,791.3553,785.7143
1694131418.596,809.4872,799.011,791.75824,804.65204,789.34064
1694131418.647,811.50183,800.6227,793.36993,802.6374,694.65204
1694131418.648,788.5348,790.9524,798.60803,811.0989,708.3516
1694131418.649,805.4579,797.8022,799.011,822.381,918.2784
1694131418.6499999,823.1868,805.4579,799.011,799.011,840.9158
1694131418.651,809.89014,793.7729,792.1612,793.7729,697.8755
1694131418.651,802.6374,789.34064,784.90845,805.4579,847.3626
1694131418.652,803.8461,795.38464,792.5641,813.91943,967.4359
1694131418.6529999,801.8315,798.20514,796.99634,802.6374,796.5934
1694131418.6529999,788.5348,796.5934,787.326,788.1319,676.1172
1694131418.654,776.4469,792.1612,795.38464,811.9048,782.0879
1694131418.655,787.72894,793.36993,803.44324,817.9487,832.4542
1694131418.656,801.8315,803.44324,795.78754,804.2491,640.2564
1694131418.684,804.65204,807.0696,793.36993,799.011,667.25275
1694131418.685,803.44324,793.36993,790.54944,797.8022,799.81683
1694131418.686,809.89014,788.5348,786.9231,809.4872,794.17584
1694131418.686,780.07324,790.14655,785.31134,809.4872,709.15753
1694131418.687,774.43225,796.1905,794.17584,792.1612,736.55676
1694131418.688,798.20514,797.8022,794.57874,788.1319,871.13556
1694131418.688,795.38464,784.10254,789.7436,794.57874,846.55676
1694131418.689,798.60803,780.87915,792.5641,801.8315,765.9707
1694131418.6940002,821.1722,798.20514,801.02563,799.81683,740.18317
1694131418.6950002,800.6227,797.8022,801.8315,819.9634,1042.381
1694131418.696,776.8498,794.17584,798.20514,828.022,979.92676
1694131418.697,793.36993,798.60803,798.60803,807.47253,694.65204
1694131418.741,793.7729,794.9817,797.3993,788.93774,757.1062
1694131418.742,791.3553,798.20514,803.44324,801.8315,908.20514
1694131418.744,808.68134,804.2491,804.2491,813.91943,773.22345
1694131418.745,804.2491,800.2198,799.011,802.23444,704.3223
1694131418.747,794.57874,793.36993,794.9817,784.10254,752.674
1694131418.7500002,798.20514,789.34064,795.38464,784.90845,833.2601
1694131418.7510002,796.99634,792.1612,796.5934,789.34064,847.3626
1694131418.752,801.8315,800.6227,796.1905,787.72894,695.8608
1694131418.753,787.72894,796.5934,794.57874,797.8022,795.78754
1694131418.754,774.43225,792.1612,797.3993,797.8022,1041.5751
1694131418.755,791.75824,794.9817,801.8315,798.20514,815.9341
1694131418.755,796.5934,799.41394,803.44324,803.0403,694.65204
1694131418.825,800.2198,793.7729,798.20514,804.65204,873.95605
1694131418.828,784.5055,776.04395,792.96704,786.1172,796.99634
1694131418.831,784.5055,774.83514,791.3553,778.86444,662.4176
1694131418.832,795.78754,782.8938,778.46155,797.8022,706.7399
1694131418.833,789.34064,786.52014,785.7143,795.78754,828.8278
1694131418.8339999,773.22345,782.8938,802.23444,795.38464,782.49084
1694131418.8339999,765.56775,781.28204,803.8461,792.1612,722.4542
1694131418.835,770.0,781.28204,793.36993,775.2381,797.3993
1694131418.835,787.326,778.0586,781.28204,801.02563,1105.641
1694131418.836,785.31134,779.67035,780.07324,785.7143,1078.6447
1694131418.84,770.0,783.69965,788.1319,773.6264,734.1392
1694131418.84,775.64105,788.1319,797.8022,801.02563,833.2601
1694131418.8700001,782.0879,790.54944,796.5934,792.1612,975.09155
1694131418.871,779.2674,794.17584,798.20514,772.8205,790.54944
1694131418.872,782.0879,792.5641,800.6227,788.5348,754.68866
1694131418.873,785.31134,789.7436,790.14655,788.5348,732.52747
1694131418.8739998,801.8315,793.36993,788.93774,800.2198,709.15753
1694131418.875,810.696,793.36993,786.9231,809.0842,728.9011
1694131418.876,803.0403,790.9524,776.8498,799.011,724.0659
1694131418.876,780.07324,784.5055,786.9231,789.34064,836.08057
1694131418.8769999,761.9414,786.1172,801.4286,791.75824,1002.8938
1694131418.878,770.40295,799.81683,797.3993,788.1319,728.9011
1694131418.879,773.22345,801.8315,789.34064,792.1612,600.3663
1694131418.88,781.685,799.011,790.9524,813.5165,745.82416
1694131418.887,795.38464,802.6374,796.1905,803.0403,743.8095
1694131418.888,778.46155,800.6227,799.81683,791.3553,662.8205
1694131418.889,780.07324,790.9524,795.38464,788.93774,628.97437
1694131418.889,793.36993,789.34064,778.0586,790.9524,679.34064
1694131418.8899999,782.0879,792.96704,776.4469,778.0586,723.2601
1694131418.891,780.4762,796.5934,798.60803,774.43225,740.18317
1694131418.891,777.6557,788.1319,803.0403,785.31134,780.4762
1694131418.892,784.5055,788.5348,804.2491,810.696,1069.3773
1694131418.893,811.0989,797.3993,802.23444,825.6044,1030.2931
1694131418.894,801.02563,794.57874,787.326,794.9817,690.6227
1694131418.895,780.4762,792.96704,780.07324,799.41394,751.4652
1694131418.895,786.9231,794.57874,786.52014,792.96704,822.7839
1694131418.934,780.07324,793.7729,794.17584,774.43225,699.0842
1694131418.9350002,773.6264,799.011,795.38464,798.20514,681.75824
1694131418.9350002,792.5641,806.26373,803.0403,817.5458,749.0476
1694131418.936,804.65204,802.23444,799.011,784.90845,786.9231
1694131418.936,791.75824,799.41394,786.52014,775.64105,733.73627
1694131418.937,782.0879,796.1905,789.34064,780.87915,669.2674
1694131418.937,797.3993,787.326,793.36993,777.6557,781.685
1694131418.938,793.36993,786.52014,789.34064,793.36993,1159.2307
1694131418.9390001,792.1612,794.57874,788.1319,798.20514,1051.6483
1694131418.9390001,805.05493,796.1905,792.96704,800.2198,711.978
1694131418.941,793.36993,791.75824,795.38464,813.1135,752.674
1694131418.9420002,770.80585,790.9524,791.75824,811.50183,735.7509
1694131418.949,769.19415,787.72894,782.8938,786.1172,659.59705
1694131418.95,767.1795,786.52014,782.49084,785.7143,722.4542
1694131418.951,766.3736,794.57874,785.31134,769.19415,804.2491
1694131418.952,789.34064,809.4872,786.1172,778.86444,765.16486
1694131418.9550002,799.011,804.65204,788.5348,813.91943,674.90845
1694131418.956,789.34064,788.93774,795.38464,801.02563,769.59705
1694131418.9580002,786.9231,789.34064,798.20514,797.8022,1162.0513
1694131418.959,781.685,791.75824,797.3993,793.36993,1025.4579
1694131418.96,780.4762,786.9231,794.9817,787.72894,676.9231
1694131418.961,789.34064,792.5641,786.9231,803.44324,671.685
1694131418.962,796.99634,795.78754,777.6557,817.9487,766.3736
1694131418.964,797.3993,792.5641,782.8938,804.2491,835.2747
1694131419.0140002,784.5055,796.1905,796.5934,780.07324,749.85345
1694131419.015,786.52014,794.17584,796.99634,785.7143,705.9341
1694131419.019,787.72894,786.1172,792.5641,791.75824,969.45056
1694131419.02,768.7912,793.7729,794.17584,790.54944,872.3443
1694131419.021,774.43225,802.23444,790.14655,793.36993,656.3736
1694131419.021,785.7143,796.1905,789.34064,790.9524,863.0769
1694131419.022,774.43225,798.20514,790.54944,796.5934,1269.6337
1694131419.023,786.9231,806.26373,792.1612,815.5311,1003.2967
1694131419.024,798.60803,798.20514,797.3993,806.6667,673.69965
1694131419.0249999,786.1172,793.36993,799.81683,796.5934,755.09155
1694131419.0249999,809.89014,796.5934,796.1905,783.69965,783.69965
1694131419.0259998,818.7546,798.20514,785.7143,784.90845,706.337
1694131419.053,790.9524,796.99634,780.4762,797.3993,668.0586
1694131419.0540001,782.8938,797.8022,791.3553,802.23444,866.7033
1694131419.055,791.75824,793.36993,798.20514,796.1905,853.00366
1694131419.056,799.41394,789.7436,796.1905,784.10254,736.1539
1694131419.056,798.20514,793.36993,788.1319,786.9231,740.18317
1694131419.057,790.14655,792.96704,785.31134,794.57874,775.64105
1694131419.0579998,799.41394,795.38464,788.1319,784.90845,806.26373
1694131419.0579998,792.1612,798.60803,790.14655,784.90845,784.90845
1694131419.059,781.28204,796.99634,784.10254,779.67035,774.43225
1694131419.06,787.72894,794.17584,782.0879,790.14655,975.09155
1694131419.06,786.9231,795.78754,792.1612,820.3663,842.52747
1694131419.0609999,788.1319,799.81683,795.38464,797.8022,649.92676
1694131419.0830002,805.8608,802.23444,787.72894,786.52014,767.98535
1694131419.084,813.1135,799.81683,788.93774,794.17584,953.3333
1694131419.084,790.14655,793.36993,796.99634,782.8938,808.2784
1694131419.085,782.8938,789.7436,794.57874,786.1172,651.53845
1694131419.089,773.6264,791.75824,794.9817,796.1905,710.7692
1694131419.089,771.2088,798.20514,799.81683,811.9048,822.381
1694131419.09,793.36993,800.6227,797.8022,816.7399,865.4945
1694131419.091,812.3077,804.65204,797.3993,800.6227,782.49084
1694131419.092,808.68134,804.2491,791.75824,794.17584,840.10986
1694131419.092,802.23444,802.23444,784.90845,812.3077,1047.619
1694131419.093,803.0403,808.68134,791.75824,808.2784,859.45056
1694131419.094,785.31134,807.8755,796.1905,802.6374,788.5348
1694131419.12,783.2967,795.38464,784.5055,788.5348,851.39197
1694131419.121,784.90845,792.5641,786.9231,799.81683,731.31866
1694131419.122,784.10254,797.8022,796.1905,815.12823,660.0
1694131419.122,783.2967,795.78754,795.78754,790.54944,724.4689
1694131419.1230001,787.72894,791.75824,794.57874,773.6264,772.01465
1694131419.124,796.5934,801.8315,792.1612,786.52014,786.1172
1694131419.124,812.71063,804.65204,788.1319,798.20514,807.47253
1694131419.125,807.8755,798.60803,790.14655,791.3553,780.07324
1694131419.1260002,783.69965,799.41394,793.36993,805.4579,1016.5934
1694131419.1260002,783.2967,797.3993,792.5641,823.9927,1050.8425
1694131419.127,786.1172,797.3993,794.57874,812.3077,752.27106
1694131419.128,796.99634,793.7729,789.7436,784.90845,784.5055
1694131419.221,799.41394,786.52014,783.69965,787.72894,858.24176
1694131419.2220001,776.04395,785.7143,784.5055,783.2967,689.011
1694131419.223,773.22345,783.69965,787.326,781.28204,626.1539
1694131419.224,779.67035,780.87915,782.8938,802.23444,673.2967
1694131419.225,784.90845,776.8498,785.7143,793.7729,694.65204
1694131419.2259998,777.6557,781.685,792.5641,791.75824,703.1135
1694131419.232,777.25275,783.69965,791.75824,793.7729,701.50183
1694131419.232,787.326,781.28204,792.96704,780.87915,885.2381
1694131419.233,787.72894,785.31134,790.14655,798.20514,1133.4432
1694131419.234,780.4762,792.5641,787.326,797.3993,838.9011
1694131419.2350001,781.685,792.5641,794.17584,776.8498,605.2015
1694131419.236,776.04395,788.5348,794.17584,780.07324,774.43225
1694131419.272,771.2088,790.9524,791.75824,786.9231,806.6667
1694131419.273,782.49084,789.34064,790.54944,801.4286,728.0952
1694131419.273,788.93774,789.34064,788.93774,817.1429,733.3333
1694131419.274,794.57874,795.78754,791.75824,784.90845,731.7216
1694131419.275,792.96704,795.38464,790.14655,770.0,695.05493
1694131419.276,772.8205,789.34064,784.10254,777.25275,736.1539
1694131419.276,777.6557,783.69965,791.75824,782.49084,809.0842
1694131419.277,805.05493,784.5055,800.2198,796.1905,999.67035
1694131419.278,789.7436,794.17584,798.20514,787.72894,885.2381
1694131419.279,770.40295,796.1905,795.38464,773.6264,611.2454
1694131419.279,773.6264,793.7729,792.96704,794.17584,718.4249
1694131419.28,770.0,792.1612,789.34064,803.0403,857.4359
1694131419.329,774.83514,793.7729,787.326,797.3993,770.0
1694131419.33,784.5055,792.96704,775.64105,810.696,656.77655
1694131419.331,798.60803,786.9231,780.4762,818.3516,693.8461
1694131419.332,789.7436,793.7729,797.8022,790.9524,788.5348
1694131419.333,770.0,798.20514,803.44324,778.46155,758.71796
1694131419.333,777.6557,791.75824,804.65204,788.93774,748.24176
1694131419.334,783.2967,788.1319,803.44324,780.4762,790.54944
1694131419.335,780.87915,783.69965,798.60803,785.31134,1040.3663
1694131419.339,782.8938,780.87915,794.57874,794.9817,953.3333
1694131419.34,786.52014,782.0879,799.41394,786.1172,708.3516
1694131419.3409998,798.20514,784.10254,805.4579,801.8315,767.1795
1694131419.3409998,801.8315,787.326,800.2198,826.4103,749.85345
1694131419.386,789.34064,783.69965,794.57874,797.3993,656.3736
1694131419.387,778.46155,775.2381,792.5641,774.43225,716.8132
1694131419.388,778.0586,772.01465,792.96704,788.1319,1007.326
1694131419.389,791.3553,782.49084,800.2198,789.7436,959.3773
1694131419.39,794.17584,797.8022,801.8315,804.2491,778.86444
1694131419.391,792.1612,793.36993,795.38464,809.4872,811.50183
1694131419.391,790.9524,784.5055,789.7436,791.3553,1020.6227
1694131419.392,779.2674,788.5348,786.1172,786.9231,956.9597
1694131419.392,778.0586,788.5348,798.60803,783.69965,705.12823
1694131419.393,772.8205,785.31134,805.05493,785.7143,701.0989
1694131419.3939998,776.04395,785.7143,800.6227,806.26373,731.7216
1694131419.3939998,794.57874,787.72894,799.41394,783.2967,759.12085
1694131419.396,785.31134,786.52014,796.1905,778.0586,720.84247
1694131419.396,795.78754,785.31134,794.9817,795.38464,759.12085
1694131419.3969998,802.23444,787.326,797.8022,811.50183,954.94507
1694131419.3980002,778.46155,791.75824,797.3993,797.3993,765.56775
1694131419.3990002,772.01465,791.75824,791.3553,782.49084,664.83514
1694131419.3990002,778.46155,795.78754,788.93774,792.96704,834.87177
1694131419.4,780.87915,796.5934,792.96704,795.38464,876.3736
1694131419.401,793.7729,791.75824,794.57874,792.1612,744.61536
1694131419.402,803.44324,795.78754,803.8461,795.78754,618.49817
1694131419.403,785.7143,793.7729,803.0403,806.26373,755.4945
1694131419.4060001,771.2088,785.31134,794.17584,802.6374,1106.044
1694131419.407,778.46155,788.93774,794.9817,786.1172,881.2088
1694131419.446,778.46155,785.7143,794.57874,788.5348,621.31866
1694131419.447,788.93774,786.1172,785.7143,784.10254,691.4286
1694131419.448,802.23444,794.17584,780.87915,798.20514,710.7692
1694131419.449,801.8315,796.99634,785.31134,779.67035,693.44324
1694131419.4499998,796.1905,795.78754,786.9231,780.07324,774.43225
1694131419.451,792.5641,799.81683,788.93774,807.0696,934.7985
1694131419.452,793.7729,801.02563,791.75824,795.38464,844.94507
1694131419.4529998,789.7436,795.78754,790.14655,801.8315,783.69965
1694131419.4529998,780.87915,792.1612,788.93774,804.65204,778.0586
1694131419.4540002,787.72894,786.1172,792.1612,798.60803,1032.7106
1694131419.4550002,792.1612,789.7436,792.1612,799.41394,1042.381
1694131419.456,787.326,796.1905,795.78754,797.8022,671.28204
1694131419.484,767.98535,794.17584,795.78754,782.0879,654.7619
1694131419.485,772.4176,793.36993,795.38464,788.1319,872.74725
1694131419.486,788.5348,790.9524,795.38464,805.05493,804.65204
1694131419.487,781.28204,789.7436,797.3993,814.3223,680.14655
1694131419.488,787.326,792.5641,800.6227,821.5751,695.05493
1694131419.488,797.3993,791.3553,798.20514,802.6374,758.315
1694131419.4889998,794.9817,792.1612,792.96704,787.326,792.96704
1694131419.4899998,794.9817,792.5641,784.5055,789.34064,799.41394
1694131419.4899998,783.69965,787.326,785.7143,777.6557,846.55676
1694131419.4910002,782.8938,790.9524,790.54944,782.8938,807.8755
1694131419.492,795.78754,799.81683,789.7436,784.5055,773.6264
1694131419.493,787.72894,798.20514,791.75824,779.67035,717.619
1694131419.528,778.46155,794.17584,789.34064,794.57874,895.7143
1694131419.529,785.31134,792.1612,786.52014,812.3077,1156.8132
1694131419.53,796.1905,798.60803,791.75824,813.1135,837.28937
1694131419.5310001,794.57874,803.0403,801.02563,805.8608,677.72894
1694131419.532,780.4762,800.6227,792.5641,801.02563,801.8315
1694131419.533,784.5055,796.99634,786.9231,796.5934,900.54944
1694131419.533,788.5348,793.7729,791.3553,776.8498,884.0293
1694131419.5340002,786.1172,793.7729,789.34064,788.5348,785.31134
1694131419.535,789.7436,791.3553,782.0879,808.2784,960.18317
1694131419.536,790.14655,792.5641,779.2674,807.8755,899.34064
1694131419.537,779.2674,797.3993,784.10254,807.0696,671.685
1694131419.5379999,786.9231,795.38464,792.5641,786.52014,802.6374
1694131419.5660002,798.20514,790.54944,794.57874,797.3993,1097.1794
1694131419.5670002,796.1905,795.38464,790.9524,791.75824,837.28937
1694131419.568,790.54944,802.23444,796.99634,771.2088,597.9487
1694131419.569,783.2967,801.8315,803.44324,786.9231,723.2601
1694131419.57,794.57874,799.011,802.6374,796.1905,737.76556
1694131419.57,804.2491,799.81683,802.6374,789.7436,738.1685
1694131419.571,803.44324,796.99634,795.78754,794.9817,710.7692
1694131419.572,796.5934,794.17584,789.34064,793.36993,764.7619
1694131419.572,779.67035,794.17584,799.41394,790.9524,1014.17584
1694131419.573,770.80585,795.38464,805.4579,794.57874,825.6044
1694131419.5740001,790.9524,792.1612,794.9817,786.9231,713.1868
1694131419.575,796.99634,791.75824,786.1172,782.8938,801.02563
1694131419.6019998,781.28204,794.9817,790.9524,782.0879,738.1685
1694131419.6030002,777.6557,799.41394,797.8022,775.2381,711.1722
1694131419.6060002,780.07324,797.8022,791.75824,791.3553,767.5824
1694131419.607,788.93774,796.5934,788.93774,798.20514,846.9597
1694131419.607,787.326,792.96704,800.2198,798.60803,744.21246
1694131419.608,774.83514,788.1319,804.65204,790.9524,749.45056
1694131419.608,780.87915,790.14655,802.6374,786.1172,865.09155
1694131419.609,788.93774,786.1172,804.2491,812.3077,1172.9304
1694131419.609,797.3993,789.7436,802.6374,803.8461,1141.9048
1694131419.61,788.93774,792.96704,796.1905,771.2088,704.3223
1694131419.61,788.1319,786.52014,791.75824,774.43225,634.61536
1694131419.611,798.60803,788.5348,791.3553,776.4469,767.1795
1694131419.655,788.1319,792.96704,789.34064,780.87915,773.6264
1694131419.6569998,793.36993,792.96704,789.34064,788.1319,668.46155
1694131419.6579998,787.326,793.36993,791.3553,793.36993,693.0403
1694131419.6579998,771.6117,786.9231,791.75824,789.7436,769.19415
1694131419.6590002,777.25275,786.1172,794.17584,787.326,762.3443
1694131419.66,774.43225,788.93774,795.78754,803.0403,753.8828
1694131419.661,777.6557,785.7143,794.57874,800.6227,877.98535
1694131419.6620002,799.011,788.1319,794.57874,793.7729,1138.2784
1694131419.663,795.38464,789.34064,794.57874,792.96704,828.4249
1694131419.664,783.2967,783.69965,788.5348,790.9524,644.68866
1694131419.665,788.93774,788.5348,792.1612,805.4579,823.1868
1694131419.666,777.25275,792.96704,800.6227,829.6337,803.0403
1694131419.7299998,778.86444,794.57874,796.99634,817.9487,678.1319
1694131419.732,782.49084,793.36993,791.3553,782.8938,628.97437
1694131419.733,788.1319,789.34064,789.34064,776.4469,711.978
1694131419.733,780.07324,785.31134,791.3553,779.67035,750.65936
1694131419.738,788.93774,787.326,797.8022,794.57874,705.12823
1694131419.739,809.0842,792.1612,796.1905,783.69965,781.685
1694131419.74,801.02563,788.1319,794.57874,794.9817,1051.6483
1694131419.741,794.17584,789.7436,804.2491,827.619,975.89746
1694131419.742,796.99634,798.60803,803.0403,793.7729,761.9414
1694131419.743,786.1172,803.44324,801.8315,782.8938,753.0769
1694131419.743,778.0586,800.6227,800.6227,797.8022,799.81683
1694131419.744,782.49084,795.38464,793.36993,795.38464,734.1392
1694131419.7710001,791.3553,793.7729,796.1905,800.2198,617.6923
1694131419.772,790.14655,794.57874,801.8315,807.0696,707.9487
1694131419.773,777.6557,794.9817,800.6227,805.05493,923.1135
1694131419.773,782.8938,794.57874,791.75824,789.7436,807.0696
1694131419.7740002,786.1172,796.5934,790.14655,792.96704,648.315
1694131419.775,784.10254,797.3993,799.81683,807.8755,771.6117
1694131419.776,794.57874,793.36993,796.1905,785.7143,863.8828
1694131419.776,788.1319,793.7729,790.9524,783.2967,750.65936
1694131419.777,768.7912,801.4286,792.96704,809.0842,670.07324
1694131419.7779999,784.10254,796.5934,792.96704,814.3223,766.77655
1694131419.7779999,802.23444,791.75824,787.72894,799.41394,867.9121
1694131419.779,799.81683,797.8022,787.326,783.69965,809.89014
1694131419.813,799.41394,803.44324,795.38464,787.72894,759.92676
1694131419.8140001,796.1905,798.20514,796.1905,804.2491,846.55676
1694131419.815,786.9231,790.54944,795.78754,813.91943,817.1429
1694131419.816,774.0293,797.8022,800.6227,805.4579,695.8608
1694131419.817,784.90845,801.8315,796.1905,816.337,761.13556
1694131419.8179998,801.8315,798.20514,790.14655,801.02563,964.61536
1694131419.822,799.011,799.011,790.54944,773.22345,884.43225
1694131419.823,791.75824,796.99634,784.5055,771.6117,684.9817
1694131419.823,790.9524,796.99634,783.2967,779.2674,707.5458
1694131419.824,792.96704,790.9524,791.75824,791.75824,984.35895
1694131419.824,786.9231,785.7143,786.1172,793.36993,971.06226
1694131419.825,782.0879,790.54944,786.1172,792.96704,767.98535
1694131419.853,789.34064,784.90845,787.326,792.1612,767.1795
1694131419.854,796.1905,783.2967,784.90845,801.8315,1008.93774
1694131419.855,786.52014,790.14655,786.1172,797.3993,866.30035
1694131419.856,781.28204,786.1172,786.9231,798.60803,673.2967
1694131419.8579998,787.326,780.07324,789.34064,793.7729,803.0403
1694131419.859,783.69965,784.10254,787.326,792.96704,915.4579
1694131419.859,787.72894,792.5641,782.49084,794.17584,805.05493
1694131419.86,796.5934,796.1905,785.31134,789.7436,664.0293
1694131419.8609998,785.31134,788.93774,786.1172,796.5934,799.81683
1694131419.8630002,776.04395,789.34064,790.14655,790.14655,1007.326
1694131419.864,780.4762,794.57874,800.2198,784.90845,737.3626
1694131419.866,781.685,791.3553,802.23444,790.14655,602.381
1694131419.896,781.685,796.1905,797.3993,794.9817,738.97437
1694131419.8969998,782.8938,797.8022,797.8022,800.2198,787.72894
1694131419.8979998,784.10254,793.7729,798.60803,797.8022,742.6007
1694131419.8990002,799.81683,794.57874,794.17584,785.31134,703.91943
1694131419.8990002,805.05493,799.011,792.96704,793.36993,831.6484
1694131419.9,795.78754,801.02563,795.38464,797.8022,829.6337
1694131419.901,801.4286,796.5934,791.3553,795.78754,787.72894
1694131419.9020002,793.36993,787.72894,785.7143,787.72894,799.81683
1694131419.905,776.8498,787.326,788.5348,779.67035,1037.5458
1694131419.906,784.90845,793.36993,790.54944,781.28204,1050.8425
1694131419.907,782.49084,793.36993,790.9524,778.0586,704.7253
1694131419.907,775.64105,793.7729,790.14655,790.9524,788.5348
1694131419.9350002,792.5641,796.99634,790.9524,797.8022,1000.07324
1694131419.936,804.65204,792.1612,791.75824,788.93774,784.90845
1694131419.937,801.02563,790.54944,796.1905,784.90845,624.94507
1694131419.938,784.5055,796.1905,799.011,796.99634,695.05493
1694131419.938,784.10254,794.17584,802.23444,805.4579,788.1319
1694131419.9390001,798.20514,794.57874,802.23444,805.8608,893.69965
1694131419.94,789.7436,797.8022,794.9817,805.4579,834.87177
1694131419.94,787.72894,796.1905,796.99634,790.54944,900.9524
1694131419.941,792.96704,797.3993,798.60803,789.34064,1142.3077
1694131419.941,793.36993,800.6227,801.8315,800.2198,890.07324
1694131419.9420002,796.5934,797.8022,803.44324,797.3993,685.38464
1694131419.943,788.1319,796.5934,794.57874,806.6667,767.98535
1694131419.973,794.17584,789.34064,789.7436,803.0403,708.7546
1694131419.9740002,799.011,787.72894,792.1612,780.4762,628.97437
1694131419.9740002,794.9817,794.9817,799.011,789.7436,686.99634
1694131419.9750001,796.1905,796.1905,798.60803,807.47253,767.5824
1694131419.976,791.3553,798.60803,792.5641,799.81683,760.7326
1694131419.976,798.20514,799.81683,788.5348,803.0403,707.5458
1694131419.977,801.4286,792.96704,788.1319,809.0842,794.17584
1694131419.978,785.31134,792.96704,798.60803,812.71063,879.59705
1694131419.978,784.90845,797.3993,796.99634,821.978,836.8865
1694131419.979,784.5055,794.17584,792.1612,801.4286,829.2308
1694131419.983,765.16486,791.3553,797.8022,780.87915,832.4542
1694131419.983,767.5824,790.9524,800.6227,788.1319,1166.4835
1694131420.072,782.0879,794.57874,803.8461,795.78754,1116.5201
1694131420.073,779.67035,794.9817,797.3993,797.8022,728.0952
1694131420.074,781.685,792.5641,792.1612,803.8461,760.7326
1694131420.075,792.1612,790.54944,795.78754,781.28204,982.74725
1694131420.075,791.3553,784.90845,792.1612,777.6557,765.16486
1694131420.076,771.6117,786.1172,792.1612,793.7729,629.7802
1694131420.077,775.64105,789.34064,789.7436,801.8315,938.4249
1694131420.078,772.01465,787.326,790.54944,806.6667,1231.7583
1694131420.079,770.0,790.9524,786.9231,785.7143,853.8095
1694131420.079,781.28204,788.5348,782.49084,774.43225,583.44324
1694131420.08,778.46155,784.90845,790.14655,774.43225,696.26373
1694131420.0809999,768.3883,780.87915,792.96704,766.3736,722.8571
1694131420.116,763.95605,778.0586,793.7729,763.1502,752.27106
1694131420.1169999,761.13556,786.52014,791.75824,765.16486,705.12823
1694131420.118,750.65936,785.7143,798.20514,780.87915,781.685
1694131420.118,761.53845,781.28204,806.26373,786.1172,772.01465
1694131420.119,777.6557,790.54944,799.011,800.2198,689.41394
1694131420.12,788.1319,787.326,797.8022,788.93774,797.3993
1694131420.121,791.3553,789.34064,795.38464,765.9707,1039.5604
1694131420.122,785.31134,800.2198,789.34064,766.77655,891.28204
1694131420.1230001,772.4176,796.1905,797.8022,777.6557,655.56775
1694131420.124,772.8205,795.78754,802.6374,792.96704,710.3663
1694131420.124,789.34064,798.60803,797.3993,801.4286,814.7253
1694131420.125,782.0879,798.20514,794.17584,797.3993,842.52747
1694131420.1529999,777.6557,798.20514,794.17584,797.8022,718.8278
1694131420.1539998,782.0879,796.99634,798.60803,791.3553,681.3553
1694131420.1539998,779.2674,789.7436,798.20514,774.83514,822.7839
1694131420.155,767.5824,781.28204,794.57874,775.64105,840.9158
1694131420.156,773.6264,786.1172,793.36993,780.07324,724.4689
1694131420.1569998,776.8498,790.54944,795.78754,784.5055,884.0293
1694131420.1590002,768.3883,793.7729,792.1612,797.8022,1235.7876
1694131420.16,773.6264,794.57874,790.14655,812.71063,961.39197
1694131420.161,799.41394,795.78754,802.23444,819.5604,664.43225
1694131420.161,806.26373,792.96704,803.0403,794.57874,819.5604
1694131420.162,782.0879,790.54944,797.3993,793.36993,967.8388
1694131420.163,771.6117,795.78754,796.5934,803.8461,743.00366
1694131420.169,773.22345,800.6227,793.7729,795.78754,692.6374
1694131420.1699998,781.685,799.011,793.36993,776.04395,819.15753
1694131420.171,793.36993,796.5934,796.5934,778.46155,768.7912
1694131420.172,798.20514,795.78754,794.17584,770.80585,699.89014
1694131420.172,789.34064,783.2967,786.52014,771.6117,721.6484
1694131420.1729999,784.5055,784.90845,784.5055,793.36993,916.26373
1694131420.174,772.8205,794.57874,790.54944,803.0403,968.6447
1694131420.174,780.4762,800.2198,796.5934,785.31134,837.28937
1694131420.175,795.38464,800.6227,798.20514,799.81683,736.55676
1694131420.176,785.7143,796.5934,792.5641,825.2015,938.8278
1694131420.176,789.7436,795.38464,789.7436,791.75824,911.02563
1694131420.177,788.93774,792.1612,794.57874,772.8205,664.83514
1694131420.2,789.34064,800.6227,794.9817,778.46155,673.69965
1694131420.2,793.36993,805.05493,789.34064,791.75824,720.4396
1694131420.204,783.2967,798.60803,786.9231,795.78754,688.20514
1694131420.205,780.87915,799.41394,785.31134,786.52014,643.0769
1694131420.206,784.10254,793.7729,784.5055,790.9524,734.1392
1694131420.207,787.72894,788.5348,786.1172,794.57874,986.77655
1694131420.208,778.0586,791.75824,785.7143,788.5348,847.76556
1694131420.208,761.13556,799.41394,782.0879,790.9524,630.18317
1694131420.2089999,783.69965,805.05493,780.07324,800.6227,782.8938
1694131420.2089999,783.69965,803.44324,787.326,810.696,1101.2087
1694131420.2099998,786.1172,808.2784,790.14655,788.1319,865.09155
1694131420.211,800.6227,807.0696,791.3553,781.685,653.95605
1694131420.268,801.02563,803.44324,794.17584,776.04395,746.63007
1694131420.269,803.0403,808.2784,791.75824,776.8498,708.3516
1694131420.2700002,794.9817,804.65204,788.1319,786.9231,688.60803
1694131420.2710001,773.22345,798.20514,786.1172,788.1319,776.04395
1694131420.2710001,766.77655,803.0403,787.326,781.28204,788.1319
1694131420.272,777.6557,807.0696,787.72894,769.59705,724.0659
1694131420.273,784.10254,794.57874,778.0586,774.43225,745.0183
1694131420.273,783.2967,790.9524,776.4469,800.2198,791.3553
1694131420.274,783.2967,799.011,782.8938,799.41394,1008.5348
1694131420.275,787.72894,803.0403,787.72894,795.38464,907.8022
1694131420.275,793.36993,805.05493,795.78754,805.05493,648.315
1694131420.276,799.011,802.6374,797.8022,803.44324,790.9524
1694131420.3059998,788.5348,797.3993,792.5641,804.65204,1093.1501
1694131420.3070002,766.77655,796.99634,788.1319,788.5348,926.7399
1694131420.308,765.56775,796.5934,790.14655,787.72894,680.54944
1694131420.309,786.52014,794.17584,787.72894,791.3553,668.86444
1694131420.312,800.6227,797.3993,790.9524,763.95605,657.1795
1694131420.313,774.43225,799.41394,796.1905,774.43225,728.49817
1694131420.314,776.4469,799.81683,789.34064,796.5934,742.1978
1694131420.315,788.1319,796.99634,781.685,792.5641,800.6227
1694131420.315,776.8498,793.36993,783.2967,809.89014,996.8498
1694131420.316,793.36993,797.3993,788.93774,780.87915,763.95605
1694131420.317,807.0696,797.8022,793.7729,761.9414,633.4066
1694131420.318,805.8608,793.7729,790.54944,779.67035,746.63007
1694131420.359,790.14655,797.8022,787.72894,789.7436,747.8388
1694131420.359,787.326,801.8315,778.46155,789.7436,702.71063
1694131420.36,790.54944,797.3993,777.6557,790.54944,684.17584
1694131420.3609998,785.7143,795.38464,792.5641,792.96704,831.2454
1694131420.362,785.31134,795.38464,799.011,798.60803,870.32965
1694131420.3630002,780.4762,793.7729,793.7729,788.5348,807.47253
1694131420.3630002,780.07324,791.75824,790.54944,784.5055,787.72894
1694131420.364,800.2198,792.5641,797.3993,807.0696,998.0586
1694131420.365,782.0879,796.1905,799.41394,802.6374,921.9048
1694131420.365,771.2088,796.5934,790.9524,783.2967,705.12823
1694131420.3660002,782.8938,791.75824,784.10254,776.04395,751.4652
1694131420.367,777.25275,788.1319,785.7143,786.1172,796.5934
1694131420.416,785.7143,783.2967,786.52014,809.89014,734.5421
1694131420.4169998,784.90845,783.2967,780.4762,795.38464,673.2967
1694131420.418,782.49084,797.8022,786.9231,787.72894,728.49817
1694131420.418,793.36993,799.011,791.3553,797.3993,814.3223
1694131420.4190001,784.90845,794.9817,787.72894,795.38464,807.8755
1694131420.42,781.685,793.36993,786.1172,792.5641,755.4945
1694131420.424,782.8938,789.34064,785.7143,796.99634,873.5531
1694131420.425,776.4469,794.57874,785.31134,797.8022,1246.2638
1694131420.4259999,773.6264,797.8022,786.9231,798.20514,1118.1318
1694131420.427,775.64105,796.5934,785.7143,798.60803,724.0659
1694131420.428,792.96704,794.17584,786.52014,793.36993,723.2601
1694131420.428,802.6374,795.38464,788.93774,794.9817,728.0952
1694131420.459,796.1905,802.23444,793.7729,790.54944,696.26373
1694131420.46,797.3993,804.2491,797.3993,787.72894,755.4945
1694131420.461,799.41394,795.78754,795.78754,791.75824,765.56775
1694131420.4620001,790.9524,790.54944,796.1905,790.9524,695.4579
1694131420.463,782.0879,794.17584,793.36993,807.0696,665.2381
1694131420.464,794.9817,794.57874,788.93774,807.47253,740.989
1694131420.465,795.78754,798.60803,790.14655,797.8022,1036.7399
1694131420.4659998,783.69965,805.4579,792.5641,794.9817,1012.5641
1694131420.467,793.36993,801.02563,790.14655,791.75824,698.68134
1694131420.467,794.9817,797.3993,786.1172,794.17584,675.7143
1694131420.468,780.07324,797.3993,792.5641,788.5348,992.4176
1694131420.4689999,786.1172,799.41394,799.81683,786.1172,981.13556
1694131420.5089998,790.9524,805.8608,796.5934,779.67035,736.55676
1694131420.5110002,796.5934,801.8315,797.8022,786.52014,724.87177
1694131420.512,803.44324,796.5934,797.8022,787.326,836.4835
1694131420.513,807.0696,799.011,792.1612,777.25275,728.49817
1694131420.514,806.6667,799.81683,791.3553,794.9817,666.04395
1694131420.515,808.68134,794.9817,792.1612,794.9817,840.5128
1694131420.516,805.8608,794.57874,791.75824,777.25275,850.989
1694131420.517,796.5934,804.65204,794.57874,788.5348,698.2784
1694131420.5219998,791.3553,805.8608,795.38464,801.4286,621.7216
1694131420.523,781.685,797.3993,797.3993,798.60803,812.3077
1694131420.524,786.1172,796.99634,799.81683,805.8608,1138.2784
1694131420.5249999,796.1905,802.6374,799.41394,816.337,866.7033
1694131420.584,786.52014,803.44324,792.96704,801.4286,621.7216
1694131420.585,774.83514,800.6227,788.93774,790.54944,711.978
1694131420.586,767.1795,793.7729,794.17584,790.54944,703.1135
1694131420.5870001,773.22345,794.57874,794.57874,800.2198,695.8608
1694131420.588,798.20514,798.60803,791.75824,803.0403,712.7839
1694131420.589,803.44324,792.96704,791.75824,794.17584,793.7729
1694131420.589,785.7143,793.7729,791.75824,803.44324,827.619
1694131420.5900002,782.0879,796.99634,794.9817,799.81683,807.47253
1694131420.591,787.326,790.54944,797.8022,791.3553,831.2454
1694131420.592,780.07324,788.5348,800.6227,786.1172,1019.81683
1694131420.593,782.49084,799.011,802.6374,786.9231,944.0659
1694131420.5939999,794.57874,794.57874,800.6227,795.38464,749.0476
1694131420.6230001,785.31134,786.52014,795.78754,786.9231,825.6044
1694131420.624,782.8938,793.7729,793.7729,786.9231,1012.96704
1694131420.625,789.34064,797.8022,792.96704,789.34064,818.7546
1694131420.626,780.07324,790.14655,792.1612,786.1172,598.3516
1694131420.627,777.6557,785.31134,787.72894,803.44324,701.0989
1694131420.628,782.0879,791.3553,786.52014,801.02563,1020.6227
1694131420.629,787.72894,792.5641,789.34064,785.7143,893.69965
1694131420.63,782.8938,794.17584,789.34064,784.10254,696.6667
1694131420.63,774.83514,798.20514,788.93774,788.5348,739.3773
1694131420.631,769.19415,792.96704,787.326,790.14655,746.2271
1694131420.635,778.0586,788.1319,788.5348,787.326,719.6337
1694131420.636,783.2967,795.38464,790.14655,809.4872,713.5897
1694131420.671,790.54944,801.4286,794.17584,822.7839,856.63007
1694131420.672,804.65204,798.20514,798.20514,804.65204,874.7619
1694131420.6729999,800.6227,795.78754,791.75824,788.5348,716.8132
1694131420.6739998,786.52014,798.20514,795.78754,786.1172,734.5421
1694131420.675,786.1172,790.9524,803.0403,796.99634,889.2674
1694131420.676,785.7143,786.1172,796.99634,807.0696,917.47253
1694131420.676,790.14655,789.34064,792.5641,788.1319,783.2967
1694131420.677,794.17584,792.96704,793.36993,780.87915,722.0513
1694131420.6780002,771.2088,796.99634,792.1612,795.38464,968.6447
1694131420.6780002,776.4469,796.99634,789.7436,801.4286,980.7326
1694131420.6790001,799.41394,799.011,789.7436,806.6667,729.707
1694131420.68,798.20514,801.8315,791.75824,803.8461,794.17584
1694131420.681,803.44324,797.8022,792.5641,806.26373,1032.3077
1694131420.682,806.6667,796.1905,792.1612,799.81683,865.09155
1694131420.683,801.8315,793.7729,794.57874,792.5641,689.81683
1694131420.683,801.4286,794.9817,796.5934,813.91943,734.1392
1694131420.684,801.02563,800.6227,801.02563,819.15753,720.84247
1694131420.685,804.65204,799.41394,800.2198,798.60803,732.1245
1694131420.686,798.60803,794.57874,794.9817,791.3553,794.57874
1694131420.686,794.9817,793.7729,791.75824,808.2784,909.81683
1694131420.687,799.81683,795.78754,789.34064,815.5311,845.7509
1694131420.688,799.011,796.5934,783.2967,796.99634,701.9048
1694131420.688,774.0293,796.5934,786.1172,787.326,615.2747
1694131420.689,772.01465,789.7436,790.14655,799.81683,795.78754
1694131420.738,799.81683,792.1612,779.67035,803.44324,1196.7032
1694131420.739,801.8315,797.8022,784.5055,773.22345,910.6227
1694131420.74,793.7729,794.17584,794.9817,779.67035,667.6557
1694131420.74,803.8461,790.54944,792.96704,786.52014,737.76556
1694131420.741,800.6227,792.5641,793.7729,780.4762,721.2454
1694131420.742,795.38464,797.3993,795.78754,792.96704,801.02563
1694131420.743,784.5055,793.36993,796.1905,794.17584,832.0513
1694131420.743,779.2674,793.36993,794.9817,801.4286,1075.0183
1694131420.744,789.34064,800.2198,798.60803,807.8755,1065.751
1694131420.745,794.9817,797.8022,801.8315,792.5641,674.90845
1694131420.745,794.9817,795.78754,797.3993,794.9817,709.15753
1694131420.7459998,797.8022,798.20514,790.9524,806.26373,904.9817
1694131420.789,801.02563,799.81683,790.54944,792.96704,790.9524
1694131420.7900002,783.69965,795.38464,791.75824,789.7436,659.59705
1694131420.7910001,780.4762,789.34064,797.8022,793.7729,647.9121
1694131420.792,792.96704,790.9524,792.96704,781.685,751.06226
1694131420.792,796.5934,797.8022,786.1172,774.0293,751.8681
1694131420.793,789.34064,800.6227,790.54944,778.46155,705.5311
1694131420.794,786.9231,794.17584,795.38464,781.685,819.5604
1694131420.795,780.07324,785.7143,792.5641,789.7436,1025.4579
1694131420.796,782.0879,782.0879,785.7143,795.78754,807.0696
1694131420.796,788.1319,786.9231,788.1319,804.2491,632.6007
1694131420.797,792.1612,789.34064,794.9817,798.20514,738.97437
1694131420.798,781.28204,786.9231,794.9817,784.90845,733.73627
1694131420.85,775.2381,791.75824,792.1612,778.0586,668.86444
1694131420.851,771.2088,796.99634,793.36993,790.54944,731.31866
1694131420.856,772.01465,795.78754,793.7729,802.23444,865.4945
1694131420.8569999,802.23444,794.17584,790.54944,786.52014,790.14655
1694131420.8579998,800.6227,796.99634,794.17584,779.67035,633.00366
1694131420.859,787.326,790.14655,787.326,773.22345,736.1539
1694131420.859,801.02563,790.14655,785.31134,785.31134,1105.238
1694131420.86,798.60803,796.99634,800.6227,799.011,1030.6959
1694131420.8609998,786.52014,795.38464,803.0403,784.90845,745.82416
1694131420.8620002,785.31134,798.20514,803.8461,799.011,703.1135
1694131420.8630002,788.1319,803.44324,804.65204,800.2198,696.26373
1694131420.865,801.4286,802.6374,799.011,800.6227,734.1392
1694131420.891,798.60803,804.65204,794.9817,801.02563,738.1685
1694131420.892,783.69965,800.6227,786.52014,801.8315,803.44324
1694131420.893,797.8022,798.60803,782.8938,807.8755,1013.36993
1694131420.894,802.23444,804.65204,786.1172,792.1612,829.2308
1694131420.894,782.0879,805.05493,792.5641,790.9524,658.3883
1694131420.895,777.25275,802.23444,798.20514,816.337,856.2271
1694131420.896,792.1612,798.60803,796.99634,845.34796,961.79486
1694131420.8969998,802.6374,797.8022,793.7729,816.7399,828.8278
1694131420.8979998,805.4579,798.20514,787.72894,790.14655,664.83514
1694131420.8990002,797.3993,794.9817,786.52014,813.91943,749.85345
1694131420.9,799.41394,793.7729,790.14655,817.1429,913.0403
1694131420.901,815.5311,793.7729,790.9524,807.47253,777.6557
1694131420.952,801.02563,799.41394,794.17584,798.20514,693.8461
1694131420.9529998,796.5934,803.0403,788.5348,801.4286,740.18317
1694131420.9539998,805.4579,799.81683,786.52014,809.0842,720.0366
1694131420.9539998,799.81683,793.7729,796.5934,816.7399,718.4249
1694131420.9580002,789.7436,793.7729,801.4286,819.5604,804.65204
1694131420.959,792.5641,795.38464,796.5934,807.0696,998.46155
1694131420.959,805.4579,799.81683,791.75824,792.5641,836.8865
1694131420.96,809.0842,807.47253,789.7436,784.90845,644.2857
1694131420.96,805.4579,803.8461,788.1319,792.5641,779.67035
1694131420.961,808.68134,794.9817,782.8938,801.4286,940.84247
1694131420.961,807.0696,792.96704,777.6557,792.96704,814.7253
1694131420.962,800.2198,794.17584,776.04395,784.5055,713.1868
1694131420.984,801.4286,791.75824,784.5055,783.2967,747.8388
1694131420.985,792.5641,788.93774,791.3553,792.5641,1023.0403
1694131420.9859998,794.9817,799.81683,792.5641,809.0842,967.03296
1694131420.987,801.4286,794.17584,794.17584,802.23444,691.8315
1694131420.987,807.47253,786.1172,794.9817,794.9817,703.1135
1694131420.988,833.663,793.36993,795.78754,810.696,729.304
1694131420.9889998,809.0842,797.3993,795.38464,826.4103,758.315
1694131420.9889998,771.6117,793.36993,791.3553,805.8608,722.8571
1694131420.99,792.5641,794.17584,789.7436,794.57874,765.56775
1694131420.99,794.9817,796.99634,790.54944,837.6923,1030.6959
1694131420.9910002,788.1319,799.81683,789.34064,846.55676,803.8461
1694131420.992,808.2784,799.41394,794.9817,807.47253,592.3077
1694131421.056,797.8022,792.96704,799.41394,790.9524,760.7326
1694131421.057,787.72894,789.7436,794.17584,789.34064,781.28204
1694131421.0579998,792.96704,793.36993,785.31134,785.31134,665.2381
1694131421.059,805.4579,793.7729,789.34064,794.9817,654.7619
1694131421.06,796.5934,791.3553,795.38464,788.5348,759.92676
1694131421.0609999,792.5641,787.326,790.54944,790.14655,838.49817
1694131421.064,783.69965,781.28204,790.54944,795.78754,791.75824
1694131421.0649998,763.5531,787.72894,791.3553,803.44324,700.696
1694131421.066,772.01465,790.9524,792.5641,815.12823,959.3773
1694131421.066,793.7729,792.5641,796.5934,804.65204,935.2015
1694131421.0670002,788.5348,790.14655,801.02563,789.34064,698.68134
1694131421.0670002,779.2674,785.7143,803.8461,789.7436,787.326
1694131421.105,779.2674,788.1319,799.81683,793.7729,1070.989
1694131421.106,776.8498,792.96704,795.38464,784.5055,975.4945
1694131421.107,792.1612,790.9524,796.1905,786.9231,700.293
1694131421.108,798.20514,789.34064,792.5641,796.5934,738.1685
1694131421.108,801.8315,788.93774,788.1319,790.54944,761.9414
1694131421.109,782.0879,783.2967,783.69965,790.54944,788.93774
1694131421.1100001,774.0293,782.0879,787.72894,790.14655,691.8315
1694131421.1100001,781.685,791.75824,802.23444,793.36993,726.4835
1694131421.111,774.43225,793.36993,800.6227,809.0842,1059.7069
1694131421.112,768.3883,790.9524,791.75824,796.5934,873.5531
1694131421.112,776.8498,788.1319,789.34064,787.326,666.8498
1694131421.113,778.46155,788.1319,783.69965,767.98535,792.5641
1694131421.119,777.25275,793.36993,782.8938,758.315,805.05493
1694131421.12,788.93774,790.14655,782.0879,774.43225,738.97437
1694131421.121,774.83514,784.5055,776.4469,782.49084,774.83514
1694131421.121,763.1502,787.326,780.07324,795.78754,902.5641
1694131421.122,766.3736,795.78754,792.1612,792.96704,789.34064
1694131421.1230001,776.4469,795.78754,797.3993,773.6264,699.0842
1694131421.124,796.99634,797.3993,797.8022,763.5531,807.8755
1694131421.124,795.38464,797.3993,795.78754,770.80585,897.72894
1694131421.129,759.12085,790.14655,794.9817,784.10254,793.36993
1694131421.129,750.65936,786.52014,796.99634,786.9231,625.34796
1694131421.1299999,767.1795,787.72894,790.9524,759.92676,682.5641
1694131421.131,782.8938,789.34064,789.34064,773.6264,903.7729
1694131421.203,798.60803,787.326,788.93774,781.685,832.4542
1694131421.204,791.75824,787.326,784.90845,775.64105,724.0659
1694131421.205,781.685,788.93774,790.9524,782.8938,808.68134
1694131421.205,792.96704,785.31134,796.99634,792.1612,1097.5824
1694131421.206,788.1319,790.14655,796.5934,795.78754,1216.4469
1694131421.207,775.2381,794.17584,794.17584,790.14655,893.69965
1694131421.207,797.8022,794.9817,790.14655,784.90845,884.0293
1694131421.208,811.0989,792.96704,782.49084,795.38464,1053.2601
1694131421.2089999,786.9231,796.5934,786.1172,803.44324,770.80585
1694131421.2099998,788.1319,802.23444,796.1905,781.685,635.0183
1694131421.211,805.4579,795.78754,790.14655,780.87915,736.9597
1694131421.212,792.96704,791.75824,785.7143,777.6557,705.12823
1694131421.219,785.7143,796.5934,787.326,779.2674,657.98535
1694131421.22,797.8022,797.3993,788.5348,784.90845,663.22345
1694131421.221,789.7436,793.7729,792.1612,788.1319,701.50183
1694131421.221,800.6227,792.96704,795.78754,793.36993,765.9707
1694131421.2220001,799.011,792.96704,792.5641,792.96704,800.2198
1694131421.223,786.52014,790.9524,790.9524,785.7143,759.5238
1694131421.224,783.69965,790.9524,792.96704,802.6374,933.5897
1694131421.225,798.60803,792.5641,790.54944,794.57874,896.9231
1694131421.2259998,793.36993,796.5934,792.1612,792.5641,707.5458
1694131421.227,786.9231,799.011,792.5641,820.7692,750.65936
1694131421.231,805.05493,793.36993,789.7436,801.4286,811.0989
1694131421.232,800.2198,799.41394,794.9817,795.38464,769.59705
1694131421.274,785.7143,808.2784,799.81683,786.9231,680.54944
1694131421.275,788.1319,804.2491,799.81683,785.31134,740.989
1694131421.276,788.1319,799.011,795.78754,805.8608,1111.6849
1694131421.277,782.0879,802.23444,795.78754,801.8315,1056.0806
1694131421.278,785.31134,804.2491,791.75824,796.99634,641.06226
1694131421.278,775.64105,796.5934,784.90845,804.2491,753.47986
1694131421.279,774.43225,796.1905,788.93774,802.23444,940.4396
1694131421.28,797.8022,802.6374,787.72894,778.0586,828.4249
1694131421.28,796.5934,801.4286,782.8938,768.7912,648.71796
1694131421.281,796.99634,797.8022,794.57874,780.07324,696.6667
1694131421.2819998,797.8022,801.8315,807.8755,778.46155,870.32965
1694131421.283,782.8938,804.65204,803.8461,785.31134,700.696
1694131421.3379998,786.1172,800.6227,801.8315,785.31134,648.71796
1694131421.339,784.90845,798.60803,801.4286,765.16486,720.84247
1694131421.34,768.3883,798.60803,794.57874,782.8938,699.4872
1694131421.3409998,770.80585,802.23444,794.17584,778.0586,651.9414
1694131421.3409998,795.38464,809.4872,794.17584,763.1502,730.10986
1694131421.3420002,790.9524,808.2784,794.57874,772.4176,965.82416
1694131421.3430002,784.5055,801.02563,801.4286,773.6264,958.5714
1694131421.344,786.9231,795.78754,803.0403,783.69965,783.2967
1694131421.345,778.0586,786.52014,798.60803,780.4762,709.9634
1694131421.346,791.3553,787.326,799.41394,795.38464,968.6447
1694131421.346,796.5934,798.60803,800.6227,798.60803,969.85345
1694131421.3470001,782.8938,800.6227,795.38464,767.1795,709.9634
1694131421.389,784.10254,797.8022,793.36993,770.40295,694.65204
1694131421.391,788.1319,794.17584,799.011,791.3553,913.8461
1694131421.392,786.52014,793.7729,798.60803,803.44324,807.8755
1694131421.392,778.0586,793.7729,795.38464,793.7729,692.23444
1694131421.393,772.01465,789.34064,793.36993,789.7436,750.65936
1694131421.3939998,761.9414,784.5055,794.17584,795.78754,754.2857
1694131421.395,757.1062,783.2967,800.2198,781.685,784.90845
1694131421.396,765.56775,788.93774,794.9817,770.0,665.2381
1694131421.3969998,773.6264,790.54944,792.96704,790.54944,784.5055
1694131421.3969998,788.93774,789.34064,799.81683,801.4286,1064.1392
1694131421.3980002,790.54944,794.57874,804.2491,787.72894,782.0879
1694131421.3990002,780.87915,805.05493,801.02563,785.7143,608.022
1694131421.4060001,788.5348,807.47253,800.6227,799.011,853.4066
1694131421.4060001,785.7143,796.99634,797.8022,792.5641,833.663
1694131421.407,783.2967,797.8022,797.3993,781.685,704.7253
1694131421.408,799.41394,803.44324,803.0403,793.7729,692.6374
1694131421.409,784.5055,807.0696,806.6667,774.0293,742.1978
1694131421.4099998,780.07324,807.8755,805.4579,755.89746,781.28204
1694131421.411,795.38464,802.6374,796.1905,775.64105,766.77655
1694131421.411,782.0879,800.6227,792.1612,775.2381,759.92676
1694131421.412,773.22345,796.99634,796.99634,769.19415,960.989
1694131421.4129999,782.8938,801.02563,796.5934,782.0879,928.3516
1694131421.4129999,793.36993,802.6374,792.96704,791.75824,684.17584
1694131421.414,784.10254,801.02563,792.96704,788.1319,771.6117
1694131421.4529998,776.8498,798.60803,787.72894,807.47253,988.7912
1694131421.4540002,784.10254,797.3993,785.31134,810.293,825.2015
1694131421.459,780.4762,802.23444,787.326,776.8498,650.7326
1694131421.46,784.5055,807.47253,783.2967,779.2674,780.87915
1694131421.46,783.2967,802.23444,784.5055,786.52014,842.52747
1694131421.461,780.07324,799.011,794.57874,775.64105,783.2967
1694131421.4620001,774.43225,797.8022,796.5934,778.86444,702.71063
1694131421.463,783.2967,796.1905,798.20514,793.36993,749.0476
1694131421.464,786.52014,801.02563,796.99634,796.5934,992.01465
1694131421.465,794.57874,803.0403,792.96704,785.31134,817.1429
1694131421.465,808.68134,790.54944,790.54944,783.2967,698.68134
1694131421.4659998,799.011,788.1319,785.7143,805.05493,779.67035
1694131421.493,783.69965,796.1905,789.34064,799.011,722.0513
1694131421.4940002,771.6117,799.81683,790.54944,771.2088,651.53845
1694131421.4950001,775.2381,802.6374,789.34064,776.04395,695.8608
1694131421.496,789.7436,807.47253,793.36993,796.1905,793.7729
1694131421.496,782.8938,801.4286,794.17584,780.07324,747.4359
1694131421.497,786.1172,788.93774,793.7729,766.3736,686.1905
1694131421.498,803.44324,794.57874,798.60803,785.7143,719.6337
1694131421.498,801.4286,797.8022,794.17584,795.78754,1048.4249
1694131421.499,794.57874,796.5934,788.1319,808.68134,1160.0366
1694131421.5,800.2198,802.6374,794.9817,817.1429,803.0403
1694131421.5,792.1612,807.8755,796.99634,806.26373,752.27106
1694131421.501,790.14655,809.89014,792.96704,808.68134,863.0769
1694131421.548,814.3223,811.0989,794.9817,819.5604,783.2967
1694131421.549,809.0842,812.3077,801.8315,815.12823,702.3077
1694131421.5500002,791.3553,805.8608,802.6374,794.17584,789.34064
1694131421.5500002,786.1172,798.60803,796.99634,800.2198,914.65204
1694131421.553,806.26373,793.36993,791.3553,798.20514,766.77655
1694131421.554,806.26373,796.99634,794.17584,792.5641,711.978
1694131421.554,777.25275,800.2198,797.8022,789.34064,887.25275
1694131421.555,770.40295,793.36993,797.3993,782.8938,1078.2417
1694131421.556,777.6557,797.3993,795.78754,777.25275,819.9634
1694131421.556,790.14655,796.5934,794.9817,782.0879,606.0073
1694131421.557,793.7729,794.9817,787.72894,799.41394,713.9927
1694131421.557,801.02563,801.8315,781.685,804.2491,761.9414
1694131421.6,801.02563,803.44324,789.7436,802.6374,683.7729
1694131421.6009998,789.7436,798.60803,796.5934,802.6374,699.89014
1694131421.6019998,789.34064,795.78754,799.81683,802.23444,757.50916
1694131421.6019998,795.78754,800.2198,797.8022,791.3553,755.4945
1694131421.6030002,801.8315,793.36993,797.8022,784.5055,758.71796
1694131421.6030002,816.337,794.57874,801.02563,790.54944,754.68866
1694131421.604,797.8022,799.81683,799.011,812.3077,971.8681
1694131421.604,771.2088,797.8022,799.41394,798.20514,940.0366
1694131421.604,769.59705,796.5934,799.011,782.8938,650.7326
1694131421.605,778.86444,800.2198,792.5641,798.60803,734.5421
1694131421.605,787.72894,802.6374,794.9817,803.44324,840.5128
1694131421.605,804.2491,803.44324,803.0403,800.6227,773.6264
1694131421.647,799.81683,805.8608,800.6227,801.02563,701.0989
1694131421.648,783.69965,805.4579,801.4286,792.1612,710.7692
1694131421.648,788.1319,803.0403,805.05493,792.5641,996.04395
1694131421.648,800.6227,803.8461,802.6374,786.52014,903.36993
1694131421.649,799.81683,799.011,802.6374,784.5055,693.0403
1694131421.649,800.2198,799.011,803.0403,797.3993,777.25275
1694131421.6529999,805.4579,804.2491,800.2198,798.20514,787.72894
1694131421.6529999,791.75824,805.8608,797.8022,804.65204,776.8498
1694131421.654,796.1905,803.8461,796.99634,798.20514,750.65936
1694131421.654,804.65204,803.0403,798.60803,795.78754,812.71063
1694131421.655,796.5934,801.8315,804.65204,798.20514,973.0769
1694131421.655,783.69965,798.20514,806.26373,796.5934,740.18317
1694131421.696,789.7436,802.23444,805.8608,793.36993,649.92676
1694131421.697,797.3993,800.6227,807.0696,800.6227,865.4945
1694131421.697,777.6557,796.99634,803.44324,805.05493,837.6923
1694131421.698,786.9231,802.23444,798.20514,792.1612,604.7985
1694131421.698,789.34064,801.4286,800.2198,798.20514,622.1245
1694131421.6990001,790.9524,799.41394,801.02563,808.2784,1003.2967
1694131421.6990001,806.6667,799.81683,793.36993,794.57874,1008.93774
1694131421.7,799.011,803.44324,792.1612,784.5055,724.87177
1694131421.7,794.57874,808.2784,793.7729,775.2381,674.90845
1694131421.701,790.54944,801.8315,789.7436,786.1172,850.989
1694131421.701,782.49084,802.23444,794.17584,798.60803,815.9341
1694131421.7020001,787.72894,807.47253,796.5934,794.9817,753.0769
1694131421.747,804.2491,803.0403,793.36993,815.12823,775.64105
1694131421.748,784.5055,794.57874,798.20514,820.3663,903.36993
1694131421.7489998,767.1795,792.96704,794.57874,778.86444,784.10254
1694131421.7489998,780.4762,795.38464,790.14655,768.7912,655.56775
1694131421.7500002,779.2674,797.8022,787.72894,787.326,860.65936
1694131421.7510002,786.9231,797.8022,787.72894,790.9524,999.2674
1694131421.752,788.5348,797.3993,789.34064,781.685,838.9011
1694131421.752,782.0879,797.8022,788.5348,799.011,717.619
1694131421.755,772.8205,798.20514,789.34064,798.20514,750.2564
1694131421.756,794.9817,803.0403,790.54944,786.9231,803.8461
1694131421.756,801.4286,801.8315,789.34064,782.0879,788.93774
1694131421.757,776.8498,800.2198,792.96704,783.2967,726.4835
1694131421.797,780.4762,798.60803,798.60803,801.4286,869.92676
1694131421.798,785.31134,803.44324,800.2198,814.3223,1113.6996
1694131421.798,775.64105,805.8608,799.011,792.96704,863.8828
1694131421.799,783.69965,797.3993,795.78754,781.28204,747.4359
1694131421.799,776.8498,792.1612,793.36993,784.90845,805.8608
1694131421.8,781.28204,795.78754,792.5641,790.14655,723.2601
1694131421.8,788.5348,802.23444,793.7729,800.6227,732.9304
1694131421.8009999,781.28204,800.2198,792.5641,793.7729,867.9121
1694131421.8009999,791.3553,794.57874,793.36993,803.8461,1108.0586
1694131421.8019998,792.96704,794.17584,795.38464,811.0989,1083.4799
1694131421.803,801.02563,795.78754,793.7729,797.8022,725.2747
1694131421.803,797.8022,795.38464,797.8022,789.34064,722.4542
1694131421.854,786.9231,795.78754,798.20514,788.93774,922.3077
1694131421.855,786.52014,799.011,792.1612,783.2967,807.0696
1694131421.856,784.5055,796.99634,793.36993,782.8938,678.93774
1694131421.856,790.9524,795.38464,792.1612,798.20514,635.42126
1694131421.856,793.7729,796.99634,785.31134,806.26373,659.19415
1694131421.8569999,794.57874,797.3993,792.5641,794.57874,734.5421
1694131421.8569999,796.5934,795.78754,794.17584,780.07324,697.47253
1694131421.8579998,783.69965,797.3993,789.34064,785.31134,767.5824
1694131421.8579998,784.5055,795.78754,793.7729,801.8315,905.78754
1694131421.859,787.72894,799.81683,795.78754,804.65204,753.0769
1694131421.8620002,783.69965,805.05493,792.1612,798.20514,689.41394
1694131421.8620002,797.3993,802.23444,792.1612,801.8315,803.8461
1694131421.909,788.93774,797.3993,793.7729,807.8755,811.9048
1694131421.911,773.6264,795.78754,790.9524,786.9231,642.674
1694131421.912,786.9231,796.1905,793.7729,785.31134,610.4396
1694131421.9129999,793.7729,799.011,796.5934,794.57874,728.49817
1694131421.9129999,801.8315,798.20514,792.96704,797.8022,747.8388
1694131421.9139998,803.8461,795.38464,793.36993,804.2491,760.32965
1694131421.915,792.96704,795.38464,792.1612,805.05493,814.7253
1694131421.916,792.96704,793.7729,789.7436,791.3553,994.43225
1694131421.9169998,783.2967,790.54944,794.57874,781.685,958.97437
1694131421.9180002,789.34064,787.72894,794.57874,790.54944,755.4945
1694131421.9190001,799.41394,788.1319,792.5641,793.36993,803.0403
1694131421.9190001,789.34064,794.9817,794.17584,801.4286,873.1502
1694131421.92,782.0879,802.23444,792.1612,794.57874,759.12085
1694131421.921,796.5934,803.44324,789.34064,802.23444,669.2674
1694131421.922,803.8461,799.81683,790.9524,821.5751,774.83514
1694131421.923,806.6667,798.60803,790.9524,797.3993,1020.6227
1694131421.924,803.44324,798.60803,793.36993,778.0586,847.76556
1694131421.925,790.9524,801.02563,796.1905,782.49084,686.1905
1694131421.925,797.3993,801.02563,794.9817,794.17584,873.5531
1694131421.926,800.2198,798.60803,794.17584,807.47253,1102.0146
1694131421.926,785.7143,801.4286,789.7436,799.41394,870.32965
1694131421.927,775.2381,802.6374,793.7729,809.89014,679.34064
1694131421.927,769.19415,795.38464,796.1905,813.5165,734.94507
1694131421.928,787.72894,798.20514,792.5641,788.93774,703.5165
1694131421.978,803.0403,799.81683,793.7729,796.5934,716.4103
1694131421.979,786.1172,789.7436,795.78754,794.57874,724.87177
1694131421.98,786.52014,787.72894,796.99634,795.38464,765.9707
1694131421.98,788.93774,788.93774,790.14655,798.20514,726.8865
1694131421.981,782.0879,788.1319,782.8938,794.9817,616.4835
1694131421.981,789.34064,785.7143,791.3553,802.6374,726.8865
1694131421.982,806.6667,788.1319,793.36993,791.75824,1112.8938
1694131421.983,818.3516,794.9817,790.14655,787.326,1149.9634
1694131421.984,792.1612,788.5348,788.93774,794.9817,713.1868
1694131421.984,777.25275,783.2967,790.54944,795.38464,648.315
1694131421.985,780.87915,783.69965,796.5934,803.44324,803.44324
1694131421.985,777.25275,780.87915,798.20514,791.3553,840.9158
1694131422.01,779.67035,786.9231,796.1905,783.69965,735.34796
1694131422.0110002,798.60803,788.5348,795.38464,805.05493,716.8132
1694131422.012,799.011,786.1172,790.54944,796.5934,863.0769
1694131422.012,770.0,785.7143,790.14655,789.7436,755.4945
1694131422.013,764.7619,784.90845,792.5641,807.8755,661.6117
1694131422.013,785.7143,789.34064,792.1612,782.0879,780.87915
1694131422.0140002,792.5641,790.14655,789.34064,771.2088,855.42126
1694131422.0140002,785.7143,788.5348,789.7436,796.5934,778.0586
1694131422.015,800.6227,788.93774,786.9231,803.44324,700.696
1694131422.016,802.23444,787.72894,782.49084,800.6227,827.619
1694131422.016,778.0586,792.96704,788.1319,792.1612,1023.8461
1694131422.017,778.86444,802.6374,797.3993,779.2674,742.1978
1694131422.059,783.69965,803.44324,801.4286,770.80585,619.707
1694131422.0609999,784.10254,794.9817,798.60803,780.4762,729.304
1694131422.066,789.34064,790.9524,794.9817,798.20514,745.42126
1694131422.0670002,787.72894,793.7729,797.3993,795.78754,745.0183
1694131422.068,778.46155,793.36993,795.38464,788.5348,761.53845
1694131422.069,779.2674,794.9817,797.8022,805.8608,936.0073
1694131422.069,804.2491,797.3993,799.011,810.293,907.8022
1694131422.0700002,817.9487,794.17584,792.1612,790.54944,778.0586
1694131422.071,801.02563,792.96704,795.78754,781.28204,814.7253
1694131422.072,778.0586,795.38464,801.02563,785.31134,1024.249
1694131422.073,774.0293,803.0403,802.6374,792.1612,996.04395
1694131422.073,776.04395,805.05493,801.8315,790.14655,749.85345
1694131422.128,780.87915,800.2198,797.3993,794.57874,788.93774
1694131422.129,783.69965,794.9817,790.9524,804.2491,946.08057
1694131422.1299999,778.86444,797.3993,789.7436,798.20514,803.44324
1694131422.131,797.8022,799.011,796.5934,802.6374,653.5531
1694131422.132,799.41394,794.17584,796.1905,799.81683,709.5604
1694131422.133,803.0403,792.1612,794.9817,796.5934,784.5055
1694131422.134,804.65204,795.78754,795.38464,781.28204,788.1319
1694131422.135,796.5934,795.38464,792.1612,756.7033,673.2967
1694131422.136,791.3553,794.9817,793.36993,778.46155,725.6777
1694131422.1369998,784.90845,793.36993,792.96704,816.7399,979.92676
1694131422.1379998,784.10254,794.57874,789.34064,793.7729,808.2784
1694131422.1390002,784.90845,798.60803,788.5348,783.69965,732.1245
1694131422.1859999,802.23444,797.8022,789.34064,803.44324,836.08057
1694131422.187,801.4286,796.99634,790.54944,799.011,788.1319
1694131422.188,780.4762,795.78754,794.17584,787.326,669.67035
1694131422.189,793.36993,791.75824,796.5934,799.81683,684.57874
1694131422.192,790.9524,795.78754,796.99634,808.2784,902.96704
1694131422.1929998,779.2674,799.81683,801.4286,802.23444,918.2784
1694131422.1929998,787.72894,801.02563,798.60803,790.9524,757.9121
1694131422.1939998,772.4176,799.41394,796.99634,786.1172,760.7326
1694131422.1939998,769.59705,794.17584,804.2491,805.8608,1006.1172
1694131422.1950002,784.10254,795.38464,799.81683,808.68134,1034.7252
1694131422.1950002,787.326,796.1905,796.99634,784.5055,732.9304
1694131422.196,781.685,797.3993,800.2198,781.28204,719.2308
1694131422.2419999,783.69965,795.38464,797.3993,789.7436,846.55676
1694131422.243,772.8205,792.1612,796.99634,793.7729,777.25275
1694131422.244,765.9707,796.5934,795.38464,798.60803,686.99634
1694131422.245,786.9231,799.011,800.2198,796.5934,749.45056
1694131422.246,784.5055,796.1905,799.41394,790.9524,893.69965
1694131422.246,774.0293,794.17584,793.36993,798.20514,813.5165
1694131422.247,780.4762,790.9524,792.5641,805.8608,721.2454
1694131422.248,779.67035,786.52014,788.1319,789.7436,811.0989
1694131422.2489998,774.0293,789.34064,788.5348,804.65204,999.67035
1694131422.2489998,781.28204,794.9817,788.5348,788.5348,730.9158
1694131422.2499998,792.5641,793.36993,788.5348,774.43225,602.381
1694131422.2510002,785.31134,787.72894,793.7729,803.8461,734.5421
1694131422.259,771.6117,783.2967,793.7729,789.7436,743.8095
1694131422.26,765.16486,784.90845,794.57874,773.22345,700.293
1694131422.26,786.1172,789.34064,797.8022,779.2674,657.98535
1694131422.261,788.93774,784.10254,798.60803,794.57874,755.09155
1694131422.262,776.4469,782.49084,796.1905,782.0879,765.9707
1694131422.262,792.96704,784.5055,795.38464,770.0,755.4945
1694131422.2659998,794.9817,786.52014,794.57874,775.64105,903.7729
1694131422.2659998,795.38464,791.75824,792.1612,779.2674,936.4103
1694131422.267,799.41394,796.99634,790.54944,791.75824,745.82416
1694131422.268,807.47253,797.8022,788.5348,784.5055,658.7912
1694131422.269,792.1612,788.93774,790.14655,771.6117,715.2015
1694131422.269,773.6264,784.90845,794.9817,782.0879,1134.652
1694131422.315,784.90845,789.34064,794.57874,801.4286,1313.1501
1694131422.317,793.7729,790.14655,791.3553,794.57874,872.3443
1694131422.318,789.7436,789.7436,789.34064,793.36993,633.00366
1694131422.319,788.1319,794.17584,796.1905,806.26373,671.28204
1694131422.3209999,792.96704,796.99634,800.6227,799.41394,736.1539
1694131422.3219998,795.78754,796.1905,798.60803,781.685,740.989
1694131422.323,795.78754,794.57874,795.78754,782.8938,766.3736
1694131422.324,799.011,796.5934,793.36993,812.71063,1093.5531
1694131422.325,801.8315,797.8022,794.57874,828.022,910.6227
1694131422.325,789.7436,793.7729,792.5641,789.7436,701.0989
1694131422.3260002,791.3553,790.54944,791.75824,773.6264,792.96704
1694131422.3270001,796.99634,793.7729,795.78754,782.49084,712.7839
1694131422.373,797.3993,799.81683,797.8022,801.4286,639.45056
1694131422.374,791.75824,797.8022,792.5641,799.011,711.978
1694131422.374,786.52014,796.1905,791.75824,794.57874,793.36993
1694131422.375,801.02563,801.02563,793.36993,791.75824,743.00366
1694131422.376,784.5055,793.36993,790.14655,798.20514,668.0586
1694131422.376,775.64105,786.9231,789.7436,811.50183,705.5311
1694131422.376,792.5641,785.31134,787.326,795.38464,830.0366
1694131422.3769999,804.65204,787.72894,782.49084,800.6227,826.4103
1694131422.3820002,802.23444,790.54944,781.685,795.38464,722.0513
1694131422.3830001,790.54944,785.31134,790.54944,805.05493,744.21246
1694131422.385,779.67035,788.5348,795.38464,792.96704,788.93774
1694131422.386,798.60803,793.7729,795.38464,773.22345,794.9817
1694131422.387,802.6374,789.7436,792.1612,798.20514,825.2015
1694131422.388,799.81683,791.3553,792.96704,805.8608,744.61536
1694131422.389,799.41394,792.5641,795.78754,810.696,1025.8608
1694131422.389,774.0293,791.3553,792.5641,816.337,1218.8645
1694131422.39,788.5348,794.57874,792.5641,810.293,841.31866
1694131422.39,799.41394,788.5348,794.17584,800.2198,800.6227
1694131422.391,781.28204,786.9231,792.96704,798.60803,937.2161
1694131422.391,791.75824,790.9524,796.99634,808.2784,757.9121
1694131422.392,800.2198,790.14655,798.20514,806.6667,656.77655
1694131422.392,786.52014,792.5641,795.38464,801.4286,743.4066
1694131422.393,792.5641,793.36993,794.57874,807.0696,828.022
1694131422.393,795.78754,795.38464,796.99634,792.1612,687.3993
1694131422.447,804.65204,798.20514,801.02563,788.93774,579.41394
1694131422.448,813.1135,800.2198,801.8315,798.60803,704.3223
1694131422.448,793.7729,801.4286,795.78754,803.44324,750.2564
1694131422.449,761.53845,798.20514,790.14655,805.8608,665.2381
1694131422.449,761.13556,794.9817,792.1612,800.2198,727.28937
1694131422.4499998,774.0293,794.57874,796.99634,808.2784,792.96704
1694131422.4499998,778.0586,799.81683,796.1905,792.5641,722.0513
1694131422.451,801.4286,802.6374,797.8022,766.77655,647.50916
1694131422.452,819.15753,797.3993,800.6227,774.43225,696.6667
1694131422.452,799.81683,794.57874,798.20514,791.3553,955.34796
1694131422.456,778.0586,793.7729,793.7729,799.011,886.04395
1694131422.457,781.28204,795.38464,790.54944,782.8938,630.18317
1694131422.4819999,779.67035,801.02563,791.75824,774.83514,660.40295
1694131422.4819999,781.28204,796.1905,792.5641,782.8938,797.3993
1694131422.483,792.96704,790.14655,791.3553,784.90845,882.8205
1694131422.483,788.5348,796.1905,798.60803,796.1905,804.65204
1694131422.485,774.43225,797.3993,804.2491,792.1612,729.707
1694131422.486,781.28204,790.14655,797.8022,796.5934,1135.4579
1694131422.486,802.6374,789.34064,792.1612,823.5897,1150.7693
1694131422.487,790.54944,787.326,792.1612,793.36993,781.685
1694131422.488,769.19415,784.5055,788.1319,791.3553,776.4469
1694131422.4889998,782.8938,784.10254,788.1319,811.50183,798.20514
1694131422.4889998,791.3553,786.52014,799.011,789.34064,678.1319
1694131422.4899998,780.87915,791.75824,801.02563,780.07324,674.5055
1694131422.526,784.90845,788.93774,798.20514,781.685,758.315
1694131422.527,796.1905,787.72894,790.54944,791.3553,766.3736
1694131422.528,789.7436,794.17584,789.7436,792.96704,718.4249
1694131422.529,789.7436,793.36993,796.99634,815.5311,703.1135
1694131422.53,796.99634,791.3553,798.60803,824.3956,824.7985
1694131422.5310001,792.5641,795.38464,794.57874,802.6374,879.19415
1694131422.532,790.9524,791.3553,793.36993,805.8608,796.99634
1694131422.533,789.34064,793.36993,794.17584,803.8461,755.4945
1694131422.533,784.90845,802.23444,788.1319,780.87915,958.1685
1694131422.5340002,781.28204,802.6374,787.326,782.8938,933.9927
1694131422.535,790.54944,802.6374,791.3553,788.93774,708.7546
1694131422.536,796.1905,802.23444,790.54944,792.1612,790.54944
1694131422.592,800.2198,799.81683,791.75824,806.26373,1038.7546
1694131422.593,797.8022,796.1905,792.96704,792.5641,935.2015
1694131422.5939999,804.2491,794.57874,792.5641,782.8938,711.1722
1694131422.595,792.5641,792.96704,792.5641,797.8022,743.00366
1694131422.596,773.6264,789.7436,790.14655,806.6667,764.7619
1694131422.596,785.31134,784.90845,789.34064,809.4872,789.34064
1694131422.597,793.7729,792.5641,792.5641,810.293,796.5934
1694131422.598,784.90845,801.8315,791.3553,804.65204,819.15753
1694131422.598,784.10254,797.3993,793.7729,805.05493,1154.3956
1694131422.599,781.685,798.20514,794.17584,805.4579,1058.4982
1694131422.6,790.14655,804.2491,790.9524,790.9524,683.36993
1694131422.6,793.7729,799.011,797.3993,792.5641,685.38464
1694131422.648,788.5348,796.5934,803.44324,799.81683,700.696
1694131422.649,783.2967,801.8315,805.4579,818.3516,683.36993
1694131422.6499999,787.326,796.5934,805.4579,819.15753,746.63007
1694131422.651,782.49084,790.54944,804.2491,794.9817,777.6557
1694131422.652,789.34064,791.3553,803.0403,786.1172,727.28937
1694131422.652,797.8022,794.57874,800.6227,801.4286,742.1978
1694131422.6529999,784.5055,792.96704,799.011,787.72894,821.1722
1694131422.654,785.7143,791.3553,802.6374,791.75824,1026.2638
1694131422.655,786.52014,792.96704,802.23444,801.4286,915.4579
1694131422.655,784.90845,793.36993,799.41394,797.8022,636.2271
1694131422.656,775.64105,786.52014,800.6227,796.1905,722.8571
1694131422.6569998,791.75824,783.2967,800.6227,780.87915,805.8608
1694131422.705,796.99634,792.1612,802.23444,781.28204,719.2308
1694131422.7059999,784.10254,796.5934,798.60803,780.87915,639.45056
1694131422.711,794.9817,796.1905,791.3553,789.7436,662.01465
1694131422.712,812.3077,793.7729,790.54944,802.23444,949.304
1694131422.712,802.6374,794.9817,789.7436,813.91943,873.95605
1694131422.7129998,786.9231,802.23444,790.9524,823.9927,725.6777
1694131422.714,780.87915,803.44324,797.3993,807.47253,857.8388
1694131422.714,787.326,801.4286,799.41394,793.36993,977.50916
1694131422.7150002,788.5348,801.8315,800.2198,792.1612,728.49817
1694131422.716,788.1319,798.20514,802.6374,797.8022,627.76556
1694131422.717,793.36993,801.02563,801.4286,801.02563,752.27106
1694131422.717,786.52014,803.8461,798.20514,792.96704,734.1392
1694131422.745,796.99634,805.05493,795.78754,779.67035,682.1612
1694131422.7459998,790.54944,803.44324,792.1612,786.9231,669.2674
1694131422.747,767.98535,800.6227,792.1612,810.293,788.1319
1694131422.748,776.04395,800.6227,792.96704,802.23444,848.1685
1694131422.7489998,792.5641,802.6374,788.93774,786.9231,746.63007
1694131422.7500002,789.34064,798.20514,779.67035,784.90845,737.3626
1694131422.7500002,790.14655,793.36993,780.87915,787.326,1009.34064
1694131422.7510002,791.3553,797.3993,790.14655,794.17584,1013.7729
1694131422.752,778.46155,798.60803,794.57874,801.8315,790.14655
1694131422.752,771.6117,797.3993,796.1905,806.26373,782.8938
1694131422.753,774.0293,791.3553,795.78754,799.011,777.25275
1694131422.754,785.31134,790.9524,793.7729,791.75824,788.1319
1694131422.755,791.3553,797.8022,792.96704,779.2674,707.9487
1694131422.756,784.10254,799.011,791.3553,772.4176,717.619
1694131422.756,784.90845,797.8022,787.326,786.9231,892.8938
1694131422.757,796.1905,798.60803,788.1319,786.52014,804.2491
1694131422.761,776.04395,801.02563,789.34064,784.90845,619.707
1694131422.7619998,771.2088,794.17584,786.52014,805.05493,722.4542
1694131422.763,780.4762,790.9524,788.93774,814.7253,941.6484
1694131422.763,784.90845,802.23444,792.5641,780.4762,834.4689
1694131422.764,794.9817,803.8461,790.54944,770.0,663.22345
1694131422.764,781.28204,801.8315,790.14655,777.25275,713.1868
1694131422.7649999,780.4762,805.05493,796.1905,781.685,1034.3224
1694131422.766,790.9524,801.8315,799.41394,786.1172,902.5641
1694131422.815,790.14655,793.36993,797.3993,796.99634,697.8755
1694131422.816,792.1612,789.34064,798.60803,803.0403,761.13556
1694131422.8179998,798.60803,796.99634,797.3993,792.96704,700.696
1694131422.819,803.0403,800.2198,794.9817,781.685,628.1685
1694131422.8209999,795.78754,798.20514,793.36993,791.75824,711.1722
1694131422.8209999,798.20514,798.20514,791.75824,813.5165,883.6264
1694131422.822,807.8755,796.1905,791.3553,798.60803,811.50183
1694131422.823,791.3553,794.57874,790.9524,794.17584,709.15753
1694131422.824,787.326,796.99634,789.7436,798.60803,721.6484
1694131422.825,773.22345,791.75824,789.7436,793.7729,960.18317
1694131422.826,783.2967,795.38464,795.78754,794.17584,1021.02563
1694131422.826,797.3993,803.8461,799.41394,794.17584,704.7253
1694131422.879,802.23444,803.0403,793.7729,786.52014,665.2381
1694131422.88,794.57874,807.0696,794.57874,804.2491,865.89746
1694131422.881,790.54944,812.3077,796.5934,796.99634,767.1795
1694131422.882,815.9341,802.6374,794.57874,787.326,650.32965
1694131422.8830001,790.54944,794.17584,794.17584,782.49084,681.75824
1694131422.8830001,783.2967,798.20514,791.75824,795.78754,716.8132
1694131422.889,801.4286,804.2491,786.9231,803.44324,788.5348
1694131422.8899999,782.49084,803.44324,789.7436,801.02563,755.4945
1694131422.891,778.46155,798.60803,793.36993,790.14655,784.5055
1694131422.892,792.96704,794.9817,791.75824,781.685,819.5604
1694131422.893,788.5348,791.75824,789.7436,813.1135,721.2454
1694131422.894,791.75824,797.3993,791.75824,791.3553,641.06226
1694131422.927,807.47253,794.57874,789.34064,756.7033,819.15753
1694131422.928,793.7729,788.1319,786.52014,786.52014,1144.3224
1694131422.928,771.6117,797.3993,789.7436,788.93774,865.89746
1694131422.929,773.22345,797.3993,788.93774,786.52014,657.5824
1694131422.929,782.0879,796.1905,787.326,802.23444,763.5531
1694131422.9299998,799.011,804.65204,786.52014,813.91943,827.619
1694131422.9299998,807.8755,808.68134,792.96704,807.47253,889.2674
1694131422.931,802.6374,802.23444,796.1905,806.6667,818.7546
1694131422.931,782.8938,795.38464,793.36993,804.2491,938.022
1694131422.932,792.1612,795.78754,796.1905,792.5641,894.10254
1694131422.932,798.20514,796.1905,796.5934,796.5934,659.59705
1694131422.9329998,792.96704,792.1612,794.9817,788.1319,796.99634
1694131422.956,795.78754,789.7436,799.81683,791.3553,977.50916
1694131422.957,780.87915,794.17584,795.78754,789.7436,783.2967
1694131422.9580002,791.75824,799.81683,788.93774,802.6374,597.5458
1694131422.959,792.96704,799.011,788.93774,822.7839,653.5531
1694131422.959,784.5055,795.38464,789.7436,794.17584,923.91943
1694131422.96,792.5641,788.5348,788.5348,789.34064,893.2967
1694131422.961,793.7729,782.8938,789.7436,806.26373,714.7985
1694131422.961,791.3553,790.54944,788.93774,789.7436,744.21246
1694131422.965,780.87915,792.1612,785.7143,799.81683,1005.31134
1694131422.966,780.4762,786.9231,791.75824,801.02563,873.1502
1694131422.966,768.7912,790.54944,794.9817,767.98535,692.6374
1694131422.967,776.4469,792.1612,794.9817,768.3883,765.16486
1694131423.0110002,801.4286,791.75824,797.3993,779.67035,737.76556
1694131423.012,808.68134,794.57874,795.78754,788.93774,721.2454
1694131423.0140002,798.20514,792.96704,795.78754,799.81683,820.7692
1694131423.015,776.04395,794.57874,795.78754,790.54944,939.2308
1694131423.015,786.1172,795.38464,793.36993,796.5934,894.10254
1694131423.016,782.8938,789.7436,792.1612,783.2967,790.9524
1694131423.017,763.5531,790.9524,792.5641,775.2381,781.685
1694131423.018,770.0,788.5348,793.36993,790.9524,1066.5568
1694131423.019,777.6557,789.34064,790.9524,784.90845,1060.5128
1694131423.019,785.31134,791.75824,786.9231,782.8938,676.52014
1694131423.02,794.17584,790.9524,788.5348,782.8938,658.3883
1694131423.02,790.54944,799.41394,795.78754,789.7436,774.0293
1694131423.06,772.8205,801.8315,796.99634,798.20514,765.56775
1694131423.0609999,783.2967,796.5934,794.57874,801.4286,751.06226
1694131423.062,800.2198,794.17584,794.9817,794.57874,755.89746
1694131423.063,778.86444,792.5641,793.36993,792.1612,770.0
1694131423.064,773.22345,788.5348,790.14655,793.36993,692.6374
1694131423.064,779.67035,786.9231,789.34064,791.75824,694.2491
1694131423.0649998,788.5348,791.3553,792.5641,777.6557,858.24176
1694131423.066,793.7729,795.38464,792.96704,781.685,1167.6923
1694131423.0670002,796.5934,798.60803,787.72894,789.34064,923.91943
1694131423.068,783.2967,797.8022,786.52014,788.5348,636.2271
1694131423.072,782.0879,797.3993,786.9231,791.3553,704.3223
1694131423.073,787.72894,796.99634,791.75824,803.0403,705.9341
1694131423.1009998,778.46155,796.1905,796.5934,803.0403,687.8022
1694131423.1020002,788.93774,797.8022,790.9524,806.6667,653.1502
1694131423.1030002,794.9817,799.011,786.52014,803.8461,691.02563
1694131423.1030002,790.9524,797.3993,785.7143,785.7143,734.94507
1694131423.104,778.0586,795.38464,784.5055,789.34064,747.8388
1694131423.105,790.14655,794.9817,786.52014,785.31134,808.2784
1694131423.105,794.9817,793.7729,791.75824,797.3993,993.22345
1694131423.106,790.9524,796.5934,791.3553,803.0403,929.9634
1694131423.107,808.2784,798.60803,791.3553,790.9524,702.71063
1694131423.108,784.5055,796.1905,791.3553,802.23444,763.95605
1694131423.108,788.93774,797.3993,790.14655,795.78754,901.3553
1694131423.109,795.78754,795.38464,786.1172,780.07324,838.9011
1694131423.132,788.93774,793.36993,787.72894,789.7436,696.26373
1694131423.133,800.2198,796.5934,794.9817,807.47253,722.4542
1694131423.134,799.41394,792.96704,796.5934,815.9341,801.4286
1694131423.135,795.38464,794.57874,793.36993,805.4579,786.9231
1694131423.135,799.81683,794.17584,790.14655,806.26373,706.7399
1694131423.136,803.8461,789.34064,791.3553,812.71063,820.7692
1694131423.136,787.326,788.93774,790.14655,799.81683,1193.8828
1694131423.1369998,788.5348,785.7143,784.90845,797.3993,1039.5604
1694131423.1369998,798.60803,780.4762,783.69965,805.05493,724.87177
1694131423.1379998,795.78754,784.5055,787.72894,803.0403,753.47986
1694131423.1390002,781.685,791.3553,791.3553,785.31134,746.63007
1694131423.1390002,783.2967,793.7729,790.9524,803.8461,627.76556
1694131423.188,801.4286,797.8022,791.3553,805.4579,643.0769
1694131423.189,804.65204,796.1905,789.7436,783.2967,742.1978
1694131423.189,808.68134,794.9817,790.54944,793.36993,694.2491
1694131423.19,800.2198,790.9524,793.7729,790.9524,595.12823
1694131423.191,785.31134,784.90845,789.7436,791.75824,670.07324
1694131423.192,792.1612,786.52014,789.7436,804.2491,917.0696
1694131423.192,785.31134,787.72894,789.34064,811.50183,877.98535
1694131423.1929998,788.5348,783.69965,786.52014,803.44324,729.707
1694131423.1939998,803.0403,786.1172,788.93774,787.326,701.50183
1694131423.1939998,813.1135,790.14655,788.1319,795.38464,915.8608
1694131423.1950002,796.1905,794.17584,783.2967,799.81683,892.8938
1694131423.1950002,778.86444,794.17584,784.5055,803.0403,754.68866
1694131423.2220001,804.2491,793.7729,793.36993,812.71063,811.9048
1694131423.223,799.011,789.7436,794.57874,819.15753,1019.011
1694131423.224,794.17584,794.57874,794.17584,799.011,908.20514
1694131423.225,800.6227,798.60803,799.011,792.1612,670.87915
1694131423.2259998,779.2674,795.78754,799.81683,799.011,702.71063
1694131423.228,783.2967,796.1905,794.9817,797.8022,821.1722
1694131423.2289999,805.4579,792.5641,792.96704,801.8315,859.85345
1694131423.2289999,789.7436,791.75824,797.8022,803.8461,662.4176
1694131423.23,780.4762,792.1612,798.20514,800.2198,704.7253
1694131423.231,797.8022,790.54944,794.57874,799.011,1010.14655
1694131423.232,798.60803,793.36993,795.38464,789.7436,836.8865
1694131423.232,790.14655,791.3553,795.78754,791.3553,678.93774
1694131423.2819998,783.2967,792.1612,790.54944,815.12823,709.9634
1694131423.283,794.57874,792.5641,784.90845,797.8022,728.9011
1694131423.288,780.4762,793.7729,786.9231,785.31134,765.9707
1694131423.289,774.43225,793.36993,792.96704,801.02563,845.7509
1694131423.289,794.17584,755.4945,795.78754,806.6667,847.76556
1694131423.29,804.65204,726.8865,797.3993,813.5165,738.1685
1694131423.2910001,793.36993,723.663,790.54944,799.81683,723.663
1694131423.292,783.69965,718.022,781.685,782.0879,744.61536
1694131423.293,788.93774,714.7985,790.54944,800.6227,940.0366
1694131423.2940001,787.326,722.8571,799.81683,818.7546,929.9634
1694131423.295,793.36993,731.31866,800.2198,808.68134,686.1905
1694131423.296,794.57874,729.304,795.38464,807.8755,792.5641
1694131423.3420002,788.5348,735.34796,794.57874,821.1722,976.30035
1694131423.3430002,806.26373,742.6007,797.8022,812.3077,786.52014
1694131423.344,812.71063,734.94507,799.41394,800.2198,626.9597
1694131423.345,790.54944,743.00366,801.02563,794.17584,635.82416
1694131423.346,784.90845,755.09155,796.1905,794.9817,671.685
1694131423.346,798.20514,749.45056,794.17584,803.44324,741.79486
1694131423.3470001,792.1612,746.63007,801.8315,812.3077,721.6484
1694131423.348,786.1172,749.85345,802.6374,799.41394,810.696
1694131423.348,789.7436,754.68866,796.99634,797.8022,1058.9011
1694131423.349,786.1172,759.12085,791.75824,807.8755,859.0476
1694131423.3500001,774.0293,755.89746,786.9231,796.1905,655.16486
1694131423.3500001,772.4176,755.4945,786.52014,796.5934,764.7619
1694131423.405,786.1172,761.53845,790.14655,778.0586,728.0952
1694131423.4060001,784.90845,763.5531,790.54944,770.0,584.2491
1694131423.407,787.326,764.7619,792.5641,786.1172,612.0513
1694131423.407,791.75824,761.13556,795.38464,782.49084,742.1978
1694131423.411,799.41394,759.12085,796.1905,786.1172,783.69965
1694131423.412,794.9817,763.95605,791.75824,788.93774,783.69965
1694131423.412,783.2967,767.1795,788.1319,788.93774,786.1172
1694131423.4129999,782.49084,771.6117,788.93774,794.17584,929.5604
1694131423.414,767.98535,776.04395,783.69965,774.0293,956.9597
1694131423.415,777.6557,778.0586,785.7143,778.0586,782.49084
1694131423.416,775.64105,777.25275,790.14655,792.5641,774.83514
1694131423.4169998,761.9414,770.0,792.5641,787.72894,1095.1648
1694131423.4190001,782.0879,776.04395,797.8022,806.6667,1101.2087
1694131423.42,786.1172,782.49084,795.38464,797.8022,767.1795
1694131423.421,770.40295,784.5055,791.3553,769.59705,719.6337
1694131423.4220002,785.31134,786.52014,792.1612,766.77655,773.6264
1694131423.423,792.96704,782.49084,794.9817,792.1612,771.6117
1694131423.424,788.1319,788.1319,793.7729,797.3993,755.4945
1694131423.424,794.57874,786.9231,781.685,786.9231,894.5055
1694131423.425,788.5348,781.28204,773.22345,801.02563,1192.2711
1694131423.4259999,774.83514,782.0879,788.5348,783.2967,912.23444
1694131423.427,783.2967,784.90845,801.8315,767.1795,594.7253
1694131423.428,790.54944,788.93774,801.4286,778.46155,639.0476
1694131423.429,786.9231,787.326,801.8315,799.81683,711.5751
1694131423.4659998,774.0293,780.07324,796.1905,802.23444,699.4872
1694131423.467,784.90845,786.52014,794.57874,796.5934,698.68134
1694131423.468,782.8938,787.72894,794.57874,799.011,815.9341
1694131423.4689999,766.77655,785.31134,787.326,794.57874,795.78754
1694131423.4689999,783.2967,786.1172,785.31134,788.1319,711.978
1694131423.47,774.0293,778.46155,786.52014,782.0879,795.78754
1694131423.474,767.1795,778.0586,788.93774,799.41394,1012.96704
1694131423.4750001,766.3736,784.10254,791.75824,800.6227,950.5128
1694131423.476,772.01465,787.72894,793.7729,769.59705,641.8681
1694131423.476,788.93774,787.72894,799.011,777.25275,664.0293
1694131423.477,793.36993,785.7143,799.41394,790.14655,834.4689
1694131423.4780002,795.78754,788.93774,797.8022,788.93774,863.8828
1694131423.521,789.7436,787.72894,796.5934,793.7729,705.9341
1694131423.5219998,790.54944,780.07324,793.36993,804.2491,697.0696
1694131423.5219998,786.9231,772.8205,793.7729,809.4872,987.98535
1694131423.523,763.5531,778.86444,797.8022,800.6227,867.9121
1694131423.524,787.72894,785.31134,796.5934,780.07324,659.59705
1694131423.524,804.2491,783.2967,790.14655,784.10254,772.01465
1694131423.5249999,777.25275,785.7143,791.75824,799.81683,909.81683
1694131423.526,780.07324,790.54944,788.5348,807.47253,730.5128
1694131423.526,785.31134,788.1319,786.52014,796.1905,642.27106
1694131423.527,778.46155,785.31134,788.1319,786.1172,742.1978
1694131423.528,779.2674,795.78754,788.93774,792.96704,751.4652
1694131423.528,784.10254,797.3993,790.9524,782.0879,666.4469
1694131423.569,790.9524,789.34064,786.9231,762.74725,652.3443
1694131423.57,783.69965,785.31134,784.10254,773.6264,748.6447
1694131423.571,779.67035,782.8938,790.9524,791.3553,785.7143
1694131423.572,787.326,780.4762,787.72894,803.8461,736.9597
1694131423.573,785.7143,780.87915,787.326,806.26373,716.0073
1694131423.5740001,785.31134,781.685,793.7729,799.81683,964.61536
1694131423.575,782.0879,785.7143,790.54944,785.31134,1037.1428
1694131423.576,788.5348,788.5348,791.3553,759.92676,741.39197
1694131423.5809999,802.6374,781.685,796.99634,782.8938,684.17584
1694131423.582,802.23444,782.8938,793.36993,807.8755,806.6667
1694131423.5830002,787.326,790.9524,788.5348,796.1905,729.304
1694131423.584,781.685,788.1319,792.1612,780.07324,714.7985
1694131423.611,792.5641,786.52014,797.8022,790.9524,764.35895
1694131423.612,796.5934,792.96704,799.41394,792.96704,818.7546
1694131423.613,789.7436,799.81683,796.99634,777.25275,770.0
1694131423.613,789.34064,795.78754,794.9817,784.10254,689.011
1694131423.614,780.07324,793.36993,795.38464,795.78754,810.293
1694131423.615,784.90845,797.3993,796.5934,808.2784,1124.1758
1694131423.616,794.9817,795.38464,790.54944,806.26373,961.79486
1694131423.6169999,788.5348,792.5641,787.326,793.36993,744.21246
1694131423.6169999,779.67035,795.38464,786.52014,795.78754,825.6044
1694131423.6179998,766.77655,793.36993,783.69965,818.7546,1041.1721
1694131423.619,769.19415,791.75824,788.1319,792.96704,900.9524
1694131423.62,801.02563,797.8022,795.78754,780.87915,752.674
1694131423.665,799.41394,795.78754,799.011,794.57874,770.40295
1694131423.667,791.3553,787.72894,794.9817,796.5934,712.381
1694131423.668,802.23444,790.9524,790.54944,790.14655,662.8205
1694131423.669,793.36993,794.57874,792.96704,798.60803,682.5641
1694131423.669,784.5055,787.326,795.38464,801.8315,760.32965
1694131423.67,782.0879,786.52014,797.3993,804.65204,783.2967
1694131423.671,782.8938,792.1612,796.1905,811.9048,697.47253
1694131423.672,805.8608,794.57874,790.54944,795.38464,678.93774
1694131423.6729999,791.75824,794.9817,785.31134,790.9524,990.0
1694131423.6729999,771.2088,794.9817,786.52014,788.1319,996.4469
1694131423.6780002,789.7436,793.7729,792.96704,799.011,741.79486
1694131423.6790001,801.4286,788.5348,792.1612,808.68134,800.2198
1694131423.726,803.0403,788.1319,788.93774,797.3993,1048.8279
1694131423.728,792.96704,794.57874,790.9524,797.3993,928.3516
1694131423.728,793.36993,799.81683,798.20514,791.3553,730.10986
1694131423.7289999,794.57874,790.9524,800.2198,784.5055,729.304
1694131423.7299998,784.10254,786.9231,790.54944,782.0879,712.381
1694131423.731,791.3553,799.81683,787.72894,797.8022,731.31866
1694131423.732,792.5641,801.8315,792.5641,804.2491,775.2381
1694131423.732,804.65204,797.3993,790.54944,797.8022,846.1539
1694131423.733,812.3077,803.8461,790.9524,817.1429,1043.5897
1694131423.7340002,779.67035,807.8755,794.9817,796.99634,802.6374
1694131423.7350001,772.8205,803.0403,793.36993,786.1172,606.0073
1694131423.736,798.20514,797.3993,790.9524,783.2967,687.8022
1694131423.767,806.6667,797.8022,790.14655,781.28204,776.4469
1694131423.768,799.011,799.81683,788.93774,799.41394,745.82416
1694131423.769,803.44324,802.23444,786.1172,794.57874,683.36993
1694131423.77,798.20514,806.26373,787.72894,792.5641,807.47253
1694131423.7710001,786.52014,804.65204,789.7436,786.52014,796.99634
1694131423.7710001,796.5934,794.57874,790.54944,787.72894,818.7546
1694131423.772,791.75824,796.1905,789.7436,800.6227,923.91943
1694131423.773,784.90845,799.81683,792.96704,812.71063,1001.28204
1694131423.7740002,796.99634,799.41394,795.38464,798.20514,941.2454
1694131423.7740002,788.93774,802.23444,792.96704,789.7436,749.85345
1694131423.775,778.0586,803.8461,793.7729,815.9341,805.05493
1694131423.776,781.685,796.99634,795.78754,811.9048,877.1795
1694131423.781,778.0586,798.60803,792.96704,793.36993,734.94507
1694131423.782,795.78754,798.20514,795.78754,789.34064,573.7729
1694131423.784,798.20514,788.93774,797.3993,784.10254,647.9121
1694131423.7849998,778.0586,787.72894,793.36993,788.93774,947.28937
1694131423.7859998,775.2381,795.38464,793.36993,786.52014,865.89746
1694131423.7870002,783.69965,796.1905,797.3993,789.7436,700.696
1694131423.7870002,790.9524,794.57874,798.60803,801.4286,773.22345
1694131423.788,785.7143,790.9524,795.78754,807.47253,1043.1868
1694131423.789,787.72894,795.78754,792.5641,803.8461,898.1319
1694131423.7900002,788.1319,803.0403,798.20514,789.7436,701.50183
1694131423.7910001,786.1172,799.41394,805.05493,802.6374,719.2308
1694131423.792,788.93774,796.5934,801.02563,797.3993,649.92676
1694131423.835,790.9524,797.8022,798.20514,778.46155,615.6777
1694131423.836,774.0293,796.5934,793.36993,776.04395,678.1319
1694131423.837,763.95605,797.8022,796.5934,784.10254,788.1319
1694131423.838,774.43225,796.99634,799.41394,798.60803,753.0769
1694131423.839,782.49084,799.81683,794.9817,772.8205,644.2857
1694131423.839,791.3553,804.65204,790.9524,771.6117,692.6374
1694131423.84,787.72894,797.3993,793.7729,792.5641,1017.8022
1694131423.8409998,804.65204,792.1612,790.54944,799.011,1097.5824
1694131423.8419998,804.65204,797.8022,781.28204,796.5934,772.4176
1694131423.8419998,787.326,803.8461,785.31134,784.5055,679.7436
1694131423.8430002,794.17584,797.8022,787.72894,785.7143,885.2381
1694131423.844,792.1612,796.1905,792.5641,796.1905,842.52747
1694131423.894,781.28204,795.38464,797.3993,796.5934,693.44324
1694131423.895,774.0293,790.9524,793.36993,786.52014,776.8498
1694131423.9,773.6264,794.57874,794.17584,794.57874,949.707
1694131423.9,778.46155,799.81683,793.36993,783.2967,784.10254
1694131423.901,776.8498,804.2491,790.9524,781.685,673.69965
1694131423.9020002,772.8205,804.2491,788.93774,796.99634,823.5897
1694131423.903,778.0586,799.011,783.69965,771.2088,915.05493
1694131423.904,796.1905,798.60803,788.1319,763.95605,769.19415
1694131423.905,779.67035,797.3993,791.75824,784.10254,629.7802
1694131423.906,767.5824,799.81683,787.72894,783.2967,756.30035
1694131423.906,781.28204,797.8022,783.69965,802.23444,1055.2748
1694131423.907,792.5641,798.20514,782.8938,792.96704,822.7839
1694131423.94,787.326,796.5934,787.72894,786.52014,613.2601
1694131423.941,784.90845,786.9231,792.96704,788.5348,777.6557
1694131423.9420002,793.7729,792.96704,790.14655,771.6117,810.293
1694131423.943,779.67035,801.02563,788.1319,777.25275,736.9597
1694131423.944,777.25275,799.41394,792.96704,779.2674,763.5531
1694131423.945,785.7143,794.57874,789.7436,780.4762,875.56775
1694131423.9459999,790.14655,795.78754,785.7143,778.0586,881.2088
1694131423.947,801.8315,793.36993,792.5641,782.8938,764.35895
1694131423.947,776.4469,790.14655,797.3993,788.1319,790.54944
1694131423.948,761.13556,794.57874,791.75824,803.8461,995.2381
1694131423.949,782.49084,801.4286,792.5641,805.8608,919.4872
1694131423.95,794.9817,803.0403,795.78754,783.2967,703.1135
1694131423.9740002,809.4872,796.5934,794.57874,796.1905,726.4835
1694131423.9750001,802.23444,791.75824,793.36993,802.6374,957.3626
1694131423.9750001,770.80585,794.9817,791.75824,783.69965,901.3553
1694131423.976,791.3553,795.78754,787.326,799.011,647.1062
1694131423.98,801.8315,796.5934,789.7436,799.011,650.32965
1694131423.98,803.0403,800.2198,793.36993,785.31134,782.49084
1694131423.981,800.6227,800.2198,795.78754,799.011,827.2161
1694131423.982,779.2674,794.57874,798.20514,803.8461,731.7216
1694131423.983,772.8205,792.1612,793.36993,802.23444,704.7253
1694131423.983,786.52014,795.78754,788.93774,813.1135,722.0513
1694131423.984,802.6374,792.96704,794.57874,806.26373,686.1905
1694131423.985,806.6667,792.5641,797.8022,794.57874,649.5238
1694131424.033,792.96704,792.96704,792.96704,792.1612,836.8865
1694131424.034,783.69965,794.57874,790.9524,798.20514,1200.7325
1694131424.036,790.14655,799.011,789.7436,792.1612,892.49084
1694131424.036,795.38464,797.8022,784.90845,803.44324,666.8498
1694131424.037,793.36993,797.3993,786.9231,823.5897,822.381
1694131424.038,799.81683,798.60803,788.1319,803.8461,817.9487
1694131424.039,803.8461,801.8315,790.54944,799.41394,772.01465
1694131424.039,802.6374,799.81683,792.1612,798.20514,689.41394
1694131424.04,789.7436,791.75824,786.52014,782.49084,899.34064
1694131424.041,785.31134,787.72894,783.69965,777.6557,940.0366
1694131424.0419998,788.93774,789.34064,783.69965,789.7436,732.1245
1694131424.043,785.7143,789.7436,784.90845,803.8461,816.7399
1694131424.1,806.26373,788.1319,787.72894,804.2491,978.315
1694131424.1009998,793.36993,790.54944,788.5348,782.49084,821.5751
1694131424.1020002,776.04395,796.99634,785.31134,780.4762,676.52014
1694131424.1030002,788.5348,794.17584,784.5055,790.14655,765.9707
1694131424.104,788.93774,791.3553,784.5055,794.17584,840.9158
1694131424.105,788.5348,799.81683,784.5055,810.696,790.14655
1694131424.1100001,793.36993,799.81683,791.3553,796.99634,691.4286
1694131424.111,803.8461,793.7729,791.75824,777.6557,750.65936
1694131424.112,792.5641,792.5641,788.1319,797.3993,1057.2894
1694131424.112,782.49084,796.5934,788.93774,791.75824,886.04395
1694131424.113,790.54944,799.011,789.34064,787.72894,616.4835
1694131424.1139998,792.1612,795.78754,786.9231,800.6227,697.0696
1694131424.1529999,791.75824,801.8315,789.34064,799.011,727.28937
1694131424.1539998,792.1612,801.02563,789.34064,796.99634,692.6374
1694131424.155,791.3553,796.1905,785.31134,796.1905,718.4249
1694131424.156,788.93774,795.38464,787.326,787.72894,739.3773
1694131424.1569998,782.0879,801.4286,787.326,794.17584,710.3663
1694131424.1580002,783.69965,800.2198,788.5348,802.6374,753.0769
1694131424.1580002,796.1905,795.78754,793.36993,806.26373,792.96704
1694131424.1590002,788.1319,795.38464,791.75824,822.7839,1002.49084
1694131424.16,776.04395,799.41394,789.34064,817.5458,1084.2858
1694131424.161,803.8461,800.2198,792.96704,788.1319,698.2784
1694131424.162,798.60803,791.75824,794.57874,790.9524,673.69965
1694131424.162,790.14655,788.5348,795.78754,799.81683,899.34064
1694131424.164,812.3077,792.96704,796.99634,801.4286,786.1172
1694131424.165,805.8608,794.9817,800.2198,799.011,680.54944
1694131424.165,790.54944,789.34064,794.57874,808.2784,713.1868
1694131424.1660001,782.49084,789.7436,788.93774,799.011,823.1868
1694131424.167,767.98535,786.1172,793.7729,794.9817,806.6667
1694131424.168,768.7912,788.1319,796.1905,793.36993,807.47253
1694131424.1699998,776.4469,791.75824,791.75824,788.93774,911.8315
1694131424.171,768.7912,791.75824,788.1319,807.0696,1015.38464
1694131424.176,778.46155,792.96704,791.75824,807.8755,808.2784
1694131424.177,786.52014,798.60803,797.8022,811.0989,745.82416
1694131424.178,798.60803,802.23444,799.011,806.6667,823.5897
1694131424.1790001,798.20514,800.2198,798.60803,800.2198,794.9817
1694131424.211,786.1172,794.17584,799.011,798.60803,653.5531
1694131424.212,794.57874,791.75824,799.011,780.4762,616.08057
1694131424.2129998,788.93774,798.60803,794.57874,776.04395,807.47253
1694131424.2140002,791.75824,800.2198,784.90845,800.6227,859.45056
1694131424.2150002,800.6227,795.78754,783.69965,794.9817,723.663
1694131424.2150002,785.7143,791.75824,790.9524,782.0879,678.1319
1694131424.216,782.49084,793.7729,793.7729,799.41394,941.2454
1694131424.216,786.1172,799.41394,788.1319,800.6227,998.0586
1694131424.216,798.60803,802.6374,792.1612,794.17584,769.19415
1694131424.217,804.65204,796.1905,798.60803,803.44324,745.42126
1694131424.217,794.57874,795.38464,796.1905,809.4872,770.0
1694131424.218,813.1135,797.8022,790.9524,814.7253,735.7509
1694131424.245,795.38464,797.3993,788.93774,817.9487,720.84247
1694131424.245,770.40295,799.011,790.9524,801.02563,793.7729
1694131424.246,791.75824,801.02563,792.1612,812.71063,1028.6813
1694131424.247,802.23444,804.2491,791.75824,803.0403,880.40295
1694131424.247,798.20514,800.6227,792.1612,796.1905,622.1245
1694131424.248,801.8315,796.5934,792.96704,828.8278,780.87915
1694131424.2489998,809.89014,800.2198,791.75824,813.5165,959.7802
1694131424.2489998,801.4286,799.011,786.9231,794.57874,823.9927
1694131424.2499998,798.60803,794.17584,792.1612,816.7399,627.3626
1694131424.2510002,797.3993,797.8022,799.81683,811.50183,676.52014
1694131424.2540002,784.5055,800.2198,798.20514,792.5641,830.4396
1694131424.255,790.14655,798.60803,794.17584,803.44324,715.6044
1694131424.309,811.50183,797.3993,793.36993,789.34064,668.0586
1694131424.3100002,791.75824,795.78754,793.36993,771.6117,743.00366
1694131424.311,774.83514,795.78754,790.54944,798.60803,767.1795
1694131424.312,800.6227,793.36993,793.7729,804.65204,725.6777
1694131424.313,801.02563,790.9524,795.38464,811.0989,705.12823
1694131424.314,801.4286,787.326,793.36993,822.7839,930.3663
1694131424.314,801.8315,786.9231,793.36993,813.1135,873.95605
1694131424.315,784.5055,798.20514,792.5641,818.7546,699.89014
1694131424.316,782.0879,798.20514,790.54944,809.0842,693.44324
1694131424.317,791.75824,792.96704,790.9524,801.4286,915.8608
1694131424.318,805.05493,795.78754,790.54944,811.0989,1104.4323
1694131424.319,805.05493,796.5934,793.7729,795.38464,798.60803
1694131424.365,790.54944,791.3553,796.5934,788.93774,639.45056
1694131424.3660002,791.75824,789.7436,793.36993,805.4579,864.2857
1694131424.367,790.54944,804.65204,795.78754,807.8755,805.4579
1694131424.368,792.5641,806.26373,791.75824,788.1319,655.16486
1694131424.368,796.99634,790.14655,786.1172,797.8022,713.1868
1694131424.369,774.0293,785.31134,790.54944,807.8755,793.36993
1694131424.37,778.0586,783.69965,794.9817,789.7436,774.43225
1694131424.371,788.93774,787.72894,791.75824,768.7912,750.2564
1694131424.372,796.1905,791.3553,786.1172,782.49084,826.4103
1694131424.372,793.7729,788.1319,782.49084,788.93774,1068.1685
1694131424.373,805.05493,791.3553,779.67035,785.7143,834.0659
1694131424.374,801.8315,795.38464,783.2967,796.1905,662.8205
1694131424.412,776.04395,793.7729,784.90845,790.14655,808.68134
1694131424.412,776.04395,793.36993,788.5348,786.52014,816.337
1694131424.4129999,782.49084,794.57874,792.5641,785.7143,728.0952
1694131424.414,782.8938,795.78754,794.17584,785.7143,680.9524
1694131424.415,784.10254,796.1905,796.5934,793.7729,740.989
1694131424.415,789.34064,797.8022,798.20514,792.96704,786.52014
1694131424.416,783.2967,794.57874,796.1905,775.64105,792.1612
1694131424.416,783.2967,793.36993,791.3553,763.95605,793.7729
1694131424.4169998,793.36993,787.72894,792.1612,764.35895,992.01465
1694131424.4169998,788.93774,788.93774,794.57874,779.67035,1097.5824
1694131424.418,792.96704,792.1612,787.72894,785.7143,753.8828
1694131424.418,792.5641,786.1172,781.28204,789.34064,717.619
1694131424.4620001,788.1319,790.9524,788.1319,799.81683,956.9597
1694131424.463,796.99634,796.5934,790.9524,786.52014,776.04395
1694131424.464,790.9524,793.7729,788.5348,771.2088,616.08057
1694131424.465,782.8938,792.96704,790.54944,769.19415,655.56775
1694131424.4659998,793.7729,796.1905,787.326,776.4469,723.663
1694131424.467,800.2198,796.5934,785.7143,777.6557,813.91943
1694131424.468,783.69965,791.3553,788.5348,770.0,847.3626
1694131424.468,774.0293,790.14655,789.34064,766.77655,802.23444
1694131424.4689999,794.9817,795.38464,790.54944,773.22345,787.72894
1694131424.47,802.23444,796.5934,793.36993,787.72894,771.6117
1694131424.471,769.19415,796.5934,791.75824,774.43225,755.4945
1694131424.471,773.22345,799.011,787.72894,772.4176,832.0513
1694131424.526,804.65204,794.9817,789.34064,788.1319,1100.403
1694131424.527,791.3553,798.60803,790.14655,796.99634,966.2271
1694131424.5310001,777.25275,802.6374,785.7143,794.9817,732.9304
1694131424.532,786.1172,801.8315,786.52014,776.8498,808.68134
1694131424.533,793.7729,800.2198,792.1612,770.0,753.0769
1694131424.5340002,801.8315,798.60803,796.1905,755.4945,732.52747
1694131424.5340002,797.3993,798.60803,794.57874,753.47986,773.6264
1694131424.535,788.93774,794.57874,790.9524,756.30035,928.3516
1694131424.536,805.05493,789.34064,789.7436,758.315,906.5934
1694131424.537,801.02563,799.81683,792.5641,762.3443,675.7143
1694131424.5379999,774.0293,800.2198,794.9817,761.9414,670.07324
1694131424.539,783.2967,791.75824,793.7729,778.0586,1023.44324
1694131424.5619998,797.3993,795.78754,789.7436,784.10254,1066.1538
1694131424.563,799.41394,802.6374,791.75824,780.07324,786.52014
1694131424.564,785.7143,806.6667,792.96704,782.8938,716.8132
1694131424.5649998,779.2674,805.4579,787.72894,769.59705,735.34796
1694131424.5660002,773.22345,806.26373,784.90845,779.2674,679.7436
1694131424.5660002,789.34064,801.8315,788.1319,775.2381,701.0989
1694131424.5670002,809.0842,801.02563,796.5934,765.16486,814.7253
1694131424.568,792.1612,804.2491,800.2198,768.3883,805.8608
1694131424.57,790.9524,802.23444,797.3993,762.3443,699.0842
1694131424.571,794.9817,801.4286,790.14655,744.61536,609.2308
1694131424.572,792.5641,801.02563,790.9524,735.7509,727.28937
1694131424.573,796.5934,806.6667,796.1905,733.3333,1009.7436
1694131424.579,800.2198,805.8608,795.78754,703.1135,799.41394
1694131424.58,809.0842,796.99634,790.9524,677.72894,611.2454
1694131424.5809999,794.9817,798.20514,792.1612,652.3443,687.8022
1694131424.582,787.326,804.65204,797.3993,633.00366,796.5934
1694131424.586,799.81683,805.4579,787.326,610.0366,797.8022
1694131424.5870001,814.3223,807.47253,790.14655,578.60803,731.7216
1694131424.588,814.7253,796.99634,798.60803,575.78754,927.9487
1694131424.592,809.4872,792.96704,794.9817,572.5641,1034.7252
1694131424.5939999,781.28204,801.4286,794.17584,517.76556,751.4652
1694131424.595,759.92676,800.2198,793.7729,506.48352,653.1502
1694131424.597,776.4469,797.8022,786.9231,505.27472,721.2454
1694131424.599,799.41394,795.78754,784.5055,499.6337,766.3736
1694131424.626,809.4872,798.20514,792.5641,518.5714,670.07324
1694131424.627,818.7546,803.0403,796.99634,521.39197,701.50183
1694131424.628,807.47253,801.02563,795.38464,510.91574,973.8828
1694131424.629,794.9817,798.20514,797.3993,487.94873,877.98535
1694131424.629,794.17584,794.57874,794.57874,478.27838,649.5238
1694131424.63,795.38464,793.7729,794.17584,495.20148,788.93774
1694131424.631,802.6374,793.7729,796.5934,505.27472,982.3443
1694131424.632,789.7436,794.17584,798.60803,490.76923,834.87177
1694131424.633,774.83514,798.20514,802.23444,486.337,720.84247
1694131424.6339998,781.685,798.20514,802.6374,500.8425,751.4652
1694131424.635,803.8461,794.9817,805.4579,518.97437,876.77655
1694131424.636,799.41394,797.3993,805.05493,536.7033,742.6007
1694131424.67,782.49084,794.57874,798.60803,535.89746,691.8315
1694131424.671,777.6557,794.17584,793.7729,530.2564,780.07324
1694131424.672,794.9817,794.9817,790.9524,546.3736,738.5714
1694131424.672,815.9341,797.3993,792.5641,552.4176,655.16486
1694131424.6729999,807.0696,802.6374,796.99634,551.6117,716.8132
1694131424.6739998,782.49084,799.011,788.5348,539.12085,851.79486
1694131424.6790001,775.2381,794.57874,792.96704,521.39197,906.5934
1694131424.6790001,793.36993,796.1905,801.8315,517.76556,837.28937
1694131424.68,816.7399,792.96704,799.41394,531.8681,707.5458
1694131424.681,805.8608,794.57874,800.2198,545.16486,942.4542
1694131424.682,792.1612,793.7729,796.5934,542.74725,1091.9414
1694131424.683,794.9817,790.14655,791.75824,531.4652,786.1172
1694131424.708,800.6227,794.17584,790.14655,527.4359,683.36993
1694131424.7089999,799.41394,799.011,794.9817,531.06226,740.18317
1694131424.7089999,808.2784,801.02563,793.7729,549.59705,697.47253
1694131424.71,807.0696,801.02563,792.1612,562.0879,660.0
1694131424.711,791.75824,797.3993,794.57874,555.64105,761.9414
1694131424.711,799.81683,797.8022,792.1612,567.72894,1107.6556
1694131424.712,793.36993,799.011,789.34064,574.17584,953.3333
1694131424.7129998,786.52014,794.17584,792.96704,547.98535,639.45056
1694131424.7129998,794.9817,794.9817,799.011,541.53845,735.34796
1694131424.714,782.8938,795.38464,796.1905,547.98535,937.2161
1694131424.714,781.28204,793.7729,794.17584,544.35895,767.98535
1694131424.7150002,767.98535,798.20514,799.41394,519.3773,671.28204
1694131424.782,757.1062,795.78754,800.2198,511.3187,741.79486
1694131424.783,774.0293,794.57874,800.2198,514.5421,760.7326
1694131424.784,784.10254,799.41394,799.011,500.43958,709.15753
1694131424.7849998,799.41394,797.3993,796.99634,492.78387,680.9524
