timestamp,RAW_TP9,RAW_AF7,RAW_AF8,RAW_TP10,AUX_RIGHT
1694132756.8609998,803.8461,790.9524,808.2784,798.60803,734.94507
1694132756.8609998,805.8608,807.8755,810.293,797.3993,670.87915
1694132756.8620002,799.81683,777.25275,807.8755,803.44324,707.1429
1694132756.8630002,794.17584,778.46155,805.8608,805.05493,857.8388
1694132756.8630002,792.5641,803.44324,802.23444,800.2198,820.3663
1694132756.864,796.1905,781.28204,802.23444,792.1612,772.4176
1694132756.866,799.81683,761.13556,802.6374,788.5348,865.89746
1694132756.867,796.5934,761.9414,799.81683,796.5934,1080.6593
1694132756.867,795.38464,826.4103,801.02563,799.81683,870.7326
1694132756.868,800.6227,811.9048,806.6667,795.38464,700.696
1694132756.869,805.4579,770.0,806.6667,797.8022,744.21246
1694132756.869,804.2491,787.72894,801.8315,798.60803,699.89014
1694132756.896,799.81683,794.57874,797.8022,788.1319,626.1539
1694132756.8969998,800.2198,763.5531,795.78754,785.7143,662.4176
1694132756.8979998,801.8315,733.3333,794.9817,790.9524,912.6374
1694132756.8990002,794.57874,777.25275,797.8022,782.8938,901.75824
1694132756.8990002,797.3993,808.2784,801.02563,775.2381,668.46155
1694132756.9,803.44324,763.95605,801.8315,787.326,691.02563
1694132756.9,796.5934,749.45056,804.65204,808.68134,934.7985
1694132756.901,796.99634,798.20514,804.2491,805.05493,848.5714
1694132756.9020002,799.41394,805.4579,802.23444,792.5641,675.7143
1694132756.9020002,796.5934,776.04395,799.41394,787.326,636.63007
1694132756.903,804.65204,711.5751,794.57874,798.60803,901.3553
1694132756.903,804.2491,737.76556,794.17584,813.1135,1205.1648
1694132756.908,789.7436,836.8865,800.6227,802.23444,913.8461
1694132756.909,787.72894,812.3077,802.6374,792.96704,718.4249
1694132756.909,799.011,792.96704,799.81683,786.1172,741.39197
1694132756.91,806.26373,807.8755,797.3993,784.10254,670.07324
1694132756.911,802.23444,782.49084,795.78754,797.3993,649.12085
1694132756.911,796.1905,757.1062,795.38464,804.65204,767.1795
1694132756.912,797.3993,767.98535,794.9817,803.44324,928.7546
1694132756.912,799.81683,787.72894,796.5934,796.5934,846.9597
1694132756.915,799.81683,805.4579,802.23444,798.20514,657.5824
1694132756.915,798.20514,770.40295,801.4286,801.8315,737.3626
1694132756.916,790.9524,744.21246,799.81683,815.12823,1099.597
1694132756.9169998,797.3993,823.9927,801.02563,811.50183,892.8938
1694132756.9529998,811.9048,814.3223,803.8461,801.8315,637.8388
1694132756.9539998,811.9048,755.89746,803.8461,800.6227,750.65936
1694132756.9539998,805.4579,770.80585,801.02563,805.4579,743.4066
1694132756.9539998,806.6667,813.5165,804.65204,812.3077,707.1429
1694132756.9550002,815.9341,808.2784,811.0989,816.337,711.978
1694132756.9550002,815.5311,736.1539,805.8608,814.7253,994.83514
1694132756.9550002,809.4872,768.7912,797.3993,808.2784,1144.3224
1694132756.956,806.26373,836.4835,796.1905,793.7729,746.2271
1694132756.956,802.6374,788.1319,796.5934,791.75824,718.022
1694132756.956,800.2198,743.4066,801.8315,803.8461,972.674
1694132756.957,796.99634,808.2784,802.6374,799.81683,850.989
1694132756.957,796.5934,822.7839,800.6227,787.72894,623.73627
1694132756.988,795.38464,776.4469,803.8461,789.34064,651.53845
1694132756.9889998,798.60803,790.54944,806.6667,795.78754,753.0769
1694132756.99,803.0403,808.2784,808.68134,800.2198,726.08057
1694132756.9910002,798.20514,793.36993,805.8608,796.99634,661.2088
1694132756.992,804.2491,763.95605,802.23444,791.75824,687.8022
1694132756.992,806.26373,759.5238,801.4286,799.011,782.0879
1694132756.993,799.41394,773.22345,801.02563,808.68134,808.2784
1694132756.993,796.5934,794.17584,797.8022,806.26373,708.7546
1694132756.994,801.4286,750.65936,798.60803,803.8461,780.07324
1694132756.9950001,809.0842,721.2454,801.4286,810.696,995.2381
1694132756.997,807.8755,783.2967,800.2198,801.02563,768.3883
1694132756.9980001,799.011,784.90845,800.6227,801.8315,657.98535
1694132757.036,799.011,736.1539,804.2491,810.293,806.26373
1694132757.037,800.2198,742.1978,806.26373,807.0696,872.74725
1694132757.037,802.6374,757.1062,803.0403,804.65204,801.8315
1694132757.037,800.2198,751.4652,795.78754,797.3993,705.9341
1694132757.038,793.36993,702.71063,790.14655,800.2198,856.2271
1694132757.038,796.5934,716.0073,792.1612,808.2784,961.39197
1694132757.039,803.44324,756.30035,793.7729,803.8461,851.79486
1694132757.039,803.8461,733.3333,794.17584,798.20514,720.0366
1694132757.039,809.4872,685.78754,800.2198,809.4872,875.9707
1694132757.04,811.0989,745.42126,800.2198,810.293,893.69965
1694132757.04,803.8461,772.01465,796.99634,799.41394,705.9341
1694132757.04,798.60803,720.4396,794.17584,787.72894,728.49817
1694132757.1030002,797.3993,710.3663,792.96704,775.2381,755.09155
1694132757.1030002,799.41394,707.1429,791.75824,779.2674,737.76556
1694132757.104,796.1905,719.6337,794.57874,794.57874,670.4762
1694132757.104,794.17584,698.68134,793.36993,801.02563,709.9634
1694132757.104,795.38464,697.47253,790.54944,795.78754,871.53845
1694132757.105,797.3993,719.6337,795.38464,788.93774,864.68866
1694132757.105,796.1905,728.49817,796.1905,785.31134,706.337
1694132757.105,797.8022,711.1722,793.7729,790.54944,752.27106
1694132757.106,801.8315,699.4872,797.8022,809.89014,1053.2601
1694132757.106,798.20514,769.59705,799.81683,807.47253,862.674
1694132757.106,803.0403,758.71796,800.2198,793.36993,633.8095
1694132757.107,806.6667,715.6044,795.78754,790.9524,740.58606
1694132757.1569998,798.20514,753.0769,790.54944,791.3553,747.4359
1694132757.1580002,785.7143,762.3443,792.5641,784.5055,708.7546
1694132757.1590002,792.1612,743.00366,793.36993,792.5641,737.76556
1694132757.1590002,803.0403,725.6777,795.38464,808.2784,922.71063
1694132757.16,801.8315,773.22345,798.60803,804.65204,948.0952
1694132757.16,799.81683,795.38464,796.1905,792.96704,719.6337
1694132757.161,796.1905,766.77655,794.9817,791.75824,739.7802
1694132757.161,803.8461,755.09155,797.3993,799.011,903.36993
1694132757.161,805.05493,804.2491,796.5934,801.02563,795.38464
1694132757.162,804.65204,831.2454,798.20514,794.17584,615.2747
1694132757.162,810.293,793.7729,799.011,801.8315,629.7802
1694132757.163,803.0403,748.6447,793.7729,817.9487,945.2747
1694132757.208,798.20514,815.5311,796.1905,813.5165,919.89014
1694132757.2099998,799.81683,846.1539,799.81683,798.20514,699.4872
1694132757.211,788.93774,801.8315,797.3993,785.7143,684.57874
1694132757.212,788.1319,818.3516,799.011,785.31134,671.685
1694132757.2129998,791.3553,825.2015,803.0403,792.5641,707.1429
1694132757.2129998,790.9524,804.65204,797.8022,795.78754,741.39197
1694132757.2140002,796.5934,796.99634,794.57874,796.5934,832.0513
1694132757.2150002,799.81683,780.4762,796.1905,802.6374,1130.2197
1694132757.2150002,796.1905,861.06226,796.1905,791.3553,959.3773
1694132757.216,792.1612,871.53845,793.7729,788.5348,666.8498
1694132757.216,792.96704,810.696,790.54944,799.81683,689.41394
1694132757.217,798.20514,838.0952,788.5348,791.3553,713.1868
1694132757.256,805.05493,857.8388,788.5348,787.72894,667.25275
1694132757.256,805.4579,836.8865,790.14655,793.36993,644.68866
1694132757.259,801.8315,807.0696,790.54944,803.0403,900.14655
1694132757.26,803.0403,854.61536,789.7436,803.0403,956.1539
1694132757.26,803.0403,881.6117,790.14655,794.57874,717.619
1694132757.261,799.011,824.7985,789.34064,787.326,713.9927
1694132757.261,804.65204,784.10254,787.72894,784.90845,981.53845
1694132757.262,812.71063,843.3333,789.7436,789.7436,946.08057
1694132757.262,803.44324,865.89746,793.36993,787.72894,703.5165
1694132757.262,801.02563,809.89014,797.3993,792.96704,749.85345
1694132757.263,805.8608,819.5604,796.1905,799.011,798.20514
1694132757.263,803.44324,859.45056,797.8022,791.75824,706.7399
1694132757.3049998,801.02563,861.8681,798.20514,796.1905,656.3736
1694132757.3049998,801.8315,832.0513,798.20514,803.44324,704.3223
1694132757.3059998,794.57874,828.4249,797.8022,801.8315,831.2454
1694132757.3059998,787.326,860.2564,792.5641,788.5348,760.7326
1694132757.3070002,794.57874,855.0183,792.96704,778.86444,614.0659
1694132757.3070002,792.5641,816.337,798.20514,794.57874,780.07324
1694132757.3070002,783.69965,818.7546,799.81683,802.23444,1017.3993
1694132757.308,785.7143,871.9414,798.60803,790.54944,827.619
1694132757.308,791.3553,851.79486,796.99634,784.5055,682.1612
1694132757.309,795.78754,810.293,801.02563,782.8938,725.2747
1694132757.3100002,793.7729,824.7985,806.6667,792.5641,753.8828
1694132757.3100002,798.60803,830.0366,807.8755,804.2491,736.55676
1694132757.36,796.5934,835.6777,803.8461,799.41394,707.9487
1694132757.3609998,796.99634,796.99634,801.02563,795.38464,845.7509
1694132757.362,798.60803,808.2784,800.2198,796.1905,960.989
1694132757.362,790.9524,862.674,796.99634,791.75824,709.5604
1694132757.3660002,793.36993,834.4689,796.99634,794.17584,628.1685
1694132757.3660002,796.5934,765.16486,796.99634,805.05493,975.09155
1694132757.367,794.17584,789.7436,796.99634,806.6667,1060.1099
1694132757.368,794.9817,854.21246,798.20514,792.1612,754.2857
1694132757.369,796.1905,816.337,803.8461,796.5934,660.40295
1694132757.37,793.36993,761.13556,803.0403,811.9048,900.14655
1694132757.371,789.7436,806.6667,801.02563,805.8608,861.4652
1694132757.371,793.36993,807.0696,805.05493,796.99634,686.5934
1694132757.428,800.2198,770.0,805.4579,794.9817,683.36993
1694132757.429,801.4286,771.6117,807.8755,796.99634,722.8571
1694132757.43,800.2198,772.8205,810.696,802.6374,823.9927
1694132757.43,795.38464,782.49084,807.0696,805.4579,771.6117
1694132757.431,798.60803,752.27106,802.6374,802.23444,770.80585
1694132757.431,799.81683,731.31866,799.81683,798.60803,975.09155
1694132757.432,795.78754,770.0,794.57874,789.7436,889.67035
1694132757.432,787.72894,792.5641,796.5934,788.93774,733.3333
1694132757.4329998,785.7143,736.55676,798.20514,800.2198,804.65204
1694132757.4329998,793.36993,736.55676,793.36993,798.60803,984.35895
1694132757.4339998,798.20514,799.81683,793.7729,788.1319,805.8608
1694132757.4339998,799.41394,774.83514,797.3993,794.57874,654.35895
1694132757.4350002,795.38464,753.47986,800.2198,803.44324,742.6007
1694132757.436,797.8022,761.9414,798.60803,802.23444,751.8681
1694132757.436,796.1905,770.0,791.75824,798.60803,749.85345
1694132757.437,792.1612,787.72894,789.34064,795.78754,678.1319
1694132757.437,801.8315,750.2564,790.9524,800.6227,836.08057
1694132757.4380002,796.5934,784.90845,791.75824,804.65204,968.24176
1694132757.441,791.75824,830.4396,794.57874,805.8608,782.49084
1694132757.442,795.78754,801.8315,791.75824,807.47253,740.989
1694132757.443,794.17584,787.72894,789.7436,801.8315,866.30035
1694132757.444,793.7729,844.5421,792.96704,797.3993,759.12085
1694132757.444,794.17584,868.71796,795.78754,796.5934,623.3333
1694132757.445,792.5641,825.2015,797.8022,803.44324,737.76556
1694132757.493,792.5641,791.3553,799.41394,811.0989,991.6117
1694132757.4940002,792.5641,867.50916,800.2198,807.8755,859.85345
1694132757.4950001,794.9817,895.7143,800.2198,796.5934,641.06226
1694132757.496,794.9817,865.4945,803.44324,794.17584,672.49084
1694132757.496,794.17584,882.01465,801.4286,797.8022,712.7839
1694132757.497,798.20514,879.19415,799.41394,793.36993,763.1502
1694132757.497,799.41394,879.59705,801.02563,787.326,751.06226
1694132757.498,804.65204,872.74725,798.60803,781.685,845.7509
1694132757.499,803.0403,845.7509,798.60803,788.93774,1141.9048
1694132757.499,797.3993,918.2784,799.81683,792.96704,939.2308
1694132757.5,794.57874,920.293,799.81683,790.54944,688.20514
1694132757.501,800.6227,859.0476,801.02563,790.14655,754.68866
1694132757.554,803.0403,886.4469,797.8022,780.4762,733.3333
1694132757.555,792.96704,896.1172,795.38464,781.685,721.2454
1694132757.556,794.9817,862.674,797.3993,796.5934,743.00366
1694132757.557,798.20514,841.31866,797.8022,806.6667,871.53845
1694132757.557,794.9817,877.1795,797.8022,801.02563,879.19415
1694132757.558,797.3993,885.2381,795.78754,801.02563,716.8132
1694132757.558,798.20514,860.2564,795.78754,808.68134,753.0769
1694132757.559,794.9817,828.022,796.5934,813.1135,957.3626
1694132757.563,793.7729,873.5531,799.81683,813.1135,930.7692
1694132757.564,795.78754,895.31134,804.2491,800.6227,642.674
1694132757.564,803.8461,832.4542,808.2784,792.96704,634.61536
1694132757.5649998,803.0403,810.293,808.2784,796.1905,899.7436
1694132757.591,792.5641,868.315,804.65204,796.1905,809.0842
1694132757.592,798.20514,867.1062,805.8608,803.44324,690.6227
1694132757.593,807.47253,828.022,807.47253,805.05493,717.2161
1694132757.593,801.02563,846.55676,806.6667,796.99634,688.60803
1694132757.5939999,799.011,844.94507,807.0696,795.38464,674.10254
1694132757.5939999,799.41394,815.5311,806.26373,799.011,672.8938
1694132757.595,801.02563,786.52014,807.8755,802.6374,875.56775
1694132757.596,799.011,762.74725,805.4579,803.8461,1111.6849
1694132757.596,790.9524,825.6044,799.011,788.5348,840.9158
1694132757.597,793.36993,823.5897,797.8022,783.69965,672.8938
1694132757.597,796.1905,777.6557,803.44324,794.9817,747.8388
1694132757.598,790.54944,792.96704,805.05493,801.8315,769.19415
1694132757.599,788.5348,776.8498,800.6227,802.23444,754.2857
1694132757.599,794.9817,759.12085,799.011,794.57874,783.69965
1694132757.6,796.99634,733.73627,798.60803,790.54944,919.0842
1694132757.6009998,791.75824,760.32965,795.38464,801.02563,963.4066
1694132757.6009998,789.7436,805.4579,792.5641,800.6227,752.674
1694132757.6019998,789.34064,751.06226,794.9817,797.3993,690.2198
1694132757.6019998,784.5055,705.5311,792.5641,803.8461,929.5604
1694132757.6030002,789.34064,771.6117,792.5641,799.81683,912.6374
1694132757.604,792.1612,811.9048,797.3993,800.6227,619.304
1694132757.604,791.75824,774.0293,800.2198,810.696,653.5531
1694132757.608,801.4286,774.83514,801.4286,807.47253,757.9121
1694132757.608,807.47253,794.57874,801.4286,799.011,723.2601
1694132757.656,803.8461,783.69965,802.6374,800.2198,667.6557
1694132757.6569998,802.6374,760.32965,801.8315,804.2491,666.8498
1694132757.6579998,796.1905,756.30035,799.81683,801.02563,737.3626
1694132757.6579998,790.54944,761.13556,800.6227,803.0403,806.6667
1694132757.6590002,789.34064,777.6557,799.011,797.3993,732.52747
1694132757.66,791.75824,747.03296,802.6374,793.7729,805.05493
1694132757.66,792.5641,723.2601,803.0403,807.0696,1129.8169
1694132757.661,790.9524,813.1135,799.81683,806.26373,940.84247
1694132757.661,794.17584,826.8132,803.8461,801.02563,683.7729
1694132757.6620002,799.011,777.6557,802.6374,803.0403,726.8865
1694132757.663,798.20514,806.6667,801.4286,800.6227,751.06226
1694132757.664,794.9817,824.3956,799.41394,796.5934,678.1319
1694132757.7489998,785.31134,796.5934,794.9817,798.60803,645.4945
1694132757.7500002,780.87915,768.3883,796.99634,801.02563,806.6667
1694132757.7510002,784.90845,788.1319,799.41394,796.1905,859.0476
1694132757.752,791.75824,826.0073,801.02563,798.60803,705.12823
1694132757.753,793.36993,816.337,801.4286,796.99634,648.71796
1694132757.753,793.7729,753.8828,797.3993,798.60803,936.8132
1694132757.754,793.36993,787.72894,793.36993,803.0403,1121.3553
1694132757.755,796.1905,864.2857,795.78754,797.8022,861.4652
1694132757.755,799.41394,842.52747,799.011,794.57874,704.3223
1694132757.756,805.4579,784.10254,799.41394,796.1905,859.45056
1694132757.757,803.8461,844.5421,803.44324,800.2198,850.58606
1694132757.7580001,795.78754,869.12085,801.8315,801.02563,699.0842
1694132757.766,796.99634,819.5604,800.6227,797.8022,691.02563
1694132757.766,804.2491,830.84247,803.44324,784.10254,702.3077
1694132757.767,807.8755,848.5714,801.02563,777.6557,682.96704
1694132757.767,803.0403,838.0952,798.20514,789.34064,696.6667
1694132757.768,799.011,806.26373,801.4286,796.5934,752.27106
1694132757.768,800.6227,787.326,805.05493,794.57874,775.2381
1694132757.768,799.81683,803.0403,802.6374,788.5348,830.0366
1694132757.769,796.99634,813.5165,800.6227,790.9524,759.92676
1694132757.769,795.38464,794.17584,801.02563,796.99634,732.1245
1694132757.769,794.57874,807.47253,798.60803,802.23444,836.8865
1694132757.77,792.5641,815.5311,793.36993,804.65204,821.1722
1694132757.77,790.54944,796.99634,790.54944,788.93774,661.2088
1694132757.817,794.9817,755.09155,794.57874,785.31134,736.9597
1694132757.8179998,798.20514,738.5714,798.20514,803.0403,1168.9011
1694132757.8179998,789.7436,809.89014,797.3993,800.6227,1029.4872
1694132757.819,787.72894,821.5751,796.5934,794.17584,769.19415
1694132757.82,795.38464,738.1685,800.6227,796.1905,917.8755
1694132757.82,787.326,710.3663,802.23444,803.44324,1188.6447
1694132757.8209999,780.87915,808.68134,796.99634,800.6227,990.40295
1694132757.822,781.685,815.9341,794.57874,792.1612,776.4469
1694132757.823,776.8498,741.79486,792.96704,788.5348,919.0842
1694132757.823,774.43225,772.4176,788.5348,771.2088,817.9487
1694132757.824,783.69965,774.0293,792.5641,769.19415,657.5824
1694132757.824,791.3553,734.94507,796.5934,785.31134,708.3516
1694132757.856,786.52014,744.21246,796.5934,790.9524,839.707
1694132757.8569999,790.9524,783.2967,798.20514,790.54944,761.53845
1694132757.8620002,789.7436,761.9414,801.02563,789.34064,670.07324
1694132757.8630002,783.69965,731.7216,799.81683,780.87915,644.2857
1694132757.864,786.1172,749.45056,795.78754,780.4762,671.28204
1694132757.864,786.52014,742.1978,797.3993,791.75824,795.78754
1694132757.865,783.69965,744.61536,802.23444,798.60803,775.64105
1694132757.866,786.1172,734.5421,798.20514,795.78754,776.8498
1694132757.867,791.75824,709.9634,799.011,795.38464,1006.9231
1694132757.868,792.5641,786.1172,802.6374,786.9231,815.5311
1694132757.868,788.1319,786.9231,800.6227,785.31134,678.1319
1694132757.869,784.5055,728.0952,799.41394,792.96704,794.17584
1694132757.894,786.52014,760.7326,797.3993,790.14655,791.75824
1694132757.895,792.5641,765.9707,797.8022,787.72894,708.3516
1694132757.896,798.20514,738.5714,796.1905,788.5348,746.63007
1694132757.896,796.99634,711.1722,789.7436,797.3993,988.7912
1694132757.8969998,793.7729,743.8095,787.326,799.81683,1020.6227
1694132757.8969998,791.75824,777.25275,790.54944,786.52014,776.4469
1694132757.8979998,796.99634,742.6007,790.54944,784.5055,748.24176
1694132757.8979998,802.23444,703.91943,789.34064,792.96704,941.6484
1694132757.8979998,795.78754,747.8388,789.34064,796.1905,922.3077
1694132757.8990002,790.14655,774.83514,792.96704,798.60803,708.7546
1694132757.8990002,794.57874,718.022,793.36993,804.2491,682.96704
1694132757.9,798.20514,715.6044,793.36993,801.4286,720.0366
1694132757.937,799.41394,738.97437,797.8022,796.5934,694.2491
1694132757.938,795.78754,741.39197,795.38464,801.4286,672.49084
1694132757.9390001,794.57874,730.9158,792.5641,811.0989,721.6484
1694132757.9390001,802.6374,730.9158,791.3553,805.05493,725.2747
1694132757.9420002,805.8608,736.9597,791.75824,796.5934,722.0513
1694132757.943,808.68134,740.989,797.8022,790.54944,734.1392
1694132757.943,803.0403,746.2271,794.9817,786.52014,816.7399
1694132757.943,793.7729,763.95605,786.1172,796.1905,871.53845
1694132757.944,798.60803,771.2088,788.5348,804.65204,756.30035
1694132757.944,797.8022,765.16486,793.36993,792.5641,628.1685
1694132757.945,803.0403,725.6777,796.1905,784.90845,724.0659
1694132757.945,805.05493,692.6374,799.011,800.2198,1105.238
1694132757.984,794.57874,782.49084,796.99634,801.8315,935.2015
1694132757.985,795.78754,779.67035,792.1612,793.36993,672.0879
1694132757.9859998,797.3993,719.2308,790.54944,788.93774,896.52014
1694132757.987,804.2491,770.0,795.38464,788.5348,840.9158
1694132757.988,810.696,795.78754,793.36993,800.2198,617.6923
1694132757.988,803.8461,753.8828,790.9524,805.8608,740.58606
1694132757.9889998,802.6374,742.6007,790.14655,806.6667,919.89014
1694132757.9889998,805.8608,783.2967,788.5348,807.47253,848.5714
1694132757.99,809.89014,821.5751,793.36993,799.41394,713.5897
1694132757.99,817.1429,807.47253,797.8022,793.7729,677.326
1694132757.9910002,815.5311,735.34796,797.3993,811.0989,1003.69965
1694132757.9910002,811.50183,799.011,800.6227,813.5165,1089.5238
1694132758.033,812.71063,872.3443,800.2198,801.8315,727.28937
1694132758.034,812.3077,825.2015,798.60803,810.293,643.8828
1694132758.035,811.9048,822.7839,802.23444,813.91943,700.293
1694132758.035,810.696,835.2747,804.65204,813.5165,673.2967
1694132758.036,806.6667,831.2454,802.6374,810.696,634.21246
1694132758.036,804.65204,813.5165,799.011,806.26373,864.2857
1694132758.04,809.0842,816.7399,797.8022,805.8608,1000.4762
1694132758.04,805.05493,869.5238,797.8022,796.5934,740.58606
1694132758.041,802.6374,869.12085,795.78754,796.99634,611.6484
1694132758.0419998,807.47253,819.9634,796.1905,804.65204,784.90845
1694132758.043,804.2491,832.8571,798.60803,797.3993,1011.3553
1694132758.044,804.65204,886.8498,796.99634,778.46155,765.9707
1694132758.085,811.9048,867.9121,798.20514,784.10254,631.79486
1694132758.0860002,802.23444,830.84247,799.011,791.3553,765.9707
1694132758.0870001,787.72894,842.9304,796.99634,785.31134,825.6044
1694132758.088,785.31134,874.35895,799.41394,786.1172,756.7033
1694132758.089,792.1612,873.1502,801.02563,778.86444,631.39197
1694132758.09,801.02563,813.91943,802.23444,782.8938,902.1612
1694132758.091,807.0696,836.8865,803.0403,794.57874,1160.0366
1694132758.091,800.2198,920.293,802.6374,786.52014,786.52014
1694132758.092,798.60803,884.0293,801.02563,781.685,699.4872
1694132758.092,804.2491,830.0366,801.4286,783.2967,883.6264
1694132758.093,795.38464,873.1502,799.41394,778.46155,767.1795
1694132758.094,794.9817,873.95605,801.4286,783.69965,668.46155
1694132758.136,796.99634,822.7839,807.0696,799.81683,764.35895
1694132758.1369998,795.38464,822.7839,803.44324,799.011,879.59705
1694132758.1369998,800.6227,854.21246,803.44324,787.72894,749.85345
1694132758.1379998,802.6374,837.6923,808.68134,784.10254,656.3736
1694132758.1390002,798.60803,807.0696,809.4872,794.17584,705.5311
1694132758.1390002,790.14655,807.8755,808.68134,803.44324,852.1978
1694132758.14,786.9231,813.1135,807.8755,794.17584,915.4579
1694132758.14,787.326,823.9927,807.0696,780.4762,718.8278
1694132758.144,787.326,782.0879,804.65204,780.07324,761.53845
1694132758.145,786.9231,753.8828,803.44324,795.38464,1057.6923
1694132758.145,781.685,830.4396,803.0403,797.3993,839.707
1694132758.146,777.6557,817.5458,801.4286,791.75824,693.44324
1694132758.1929998,786.1172,770.80585,797.8022,792.5641,765.16486
1694132758.1950002,794.57874,774.43225,796.99634,792.96704,705.9341
1694132758.196,786.1172,761.9414,801.02563,787.326,695.05493
1694132758.196,785.31134,759.12085,801.8315,791.75824,743.8095
1694132758.197,789.7436,732.1245,802.23444,804.65204,936.0073
1694132758.1980002,789.7436,751.06226,800.2198,805.4579,1088.7179
1694132758.1980002,784.10254,789.7436,796.1905,788.93774,859.0476
1694132758.1990001,779.67035,766.77655,796.99634,790.9524,713.9927
1694132758.2,782.49084,720.4396,799.41394,801.8315,946.4835
1694132758.2,780.87915,767.1795,803.8461,804.2491,1044.7986
1694132758.201,790.9524,809.4872,804.2491,798.20514,789.34064
1694132758.202,796.5934,761.13556,801.02563,791.3553,721.2454
1694132758.2540002,791.75824,762.3443,800.6227,790.54944,753.0769
1694132758.255,788.5348,780.87915,800.6227,792.96704,735.34796
1694132758.256,784.90845,763.95605,801.02563,801.02563,695.05493
1694132758.256,785.7143,745.0183,801.02563,801.8315,701.50183
1694132758.257,786.1172,755.09155,799.41394,786.1172,734.5421
1694132758.257,795.38464,759.5238,798.60803,785.7143,755.4945
1694132758.258,800.6227,767.98535,795.38464,792.5641,778.0586
1694132758.258,792.5641,765.16486,796.99634,799.011,878.7912
1694132758.259,790.9524,746.2271,796.99634,809.4872,1127.3993
1694132758.259,792.96704,823.5897,795.38464,790.9524,901.75824
1694132758.264,794.9817,838.9011,797.8022,782.0879,609.6337
1694132758.264,794.17584,796.99634,800.2198,797.3993,703.91943
1694132758.2659998,794.57874,820.3663,801.4286,801.8315,749.85345
1694132758.267,804.2491,815.9341,801.8315,798.60803,704.3223
1694132758.267,803.44324,794.17584,800.6227,801.02563,747.4359
1694132758.268,799.41394,788.1319,798.20514,799.41394,845.7509
1694132758.269,797.3993,833.663,801.02563,796.1905,821.978
1694132758.269,791.75824,849.7802,802.6374,796.1905,773.6264
1694132758.2700002,791.75824,824.3956,801.4286,796.99634,823.5897
1694132758.2700002,788.93774,796.5934,800.6227,799.41394,936.0073
1694132758.2710001,785.7143,841.31866,799.41394,792.1612,868.315
1694132758.272,792.5641,901.3553,802.6374,789.34064,678.1319
1694132758.272,797.3993,864.68866,803.8461,806.26373,716.0073
1694132758.273,798.60803,814.7253,801.8315,813.5165,993.6264
1694132758.3070002,803.44324,885.64105,804.2491,806.6667,894.90845
1694132758.308,805.05493,915.05493,804.2491,799.011,614.0659
1694132758.308,803.8461,865.89746,799.41394,800.2198,691.8315
1694132758.309,805.8608,872.74725,800.2198,813.5165,843.3333
1694132758.309,803.8461,894.90845,801.8315,812.3077,796.5934
1694132758.3100002,809.0842,873.5531,804.65204,797.8022,724.87177
1694132758.3100002,811.0989,848.97437,809.0842,790.54944,780.07324
1694132758.311,805.4579,834.87177,809.89014,797.8022,999.2674
1694132758.312,802.23444,906.99634,810.293,800.6227,833.663
1694132758.312,799.011,896.52014,810.293,798.20514,680.14655
1694132758.313,799.41394,836.8865,804.2491,792.1612,772.01465
1694132758.313,807.0696,859.85345,801.8315,786.9231,740.58606
1694132758.362,807.47253,880.40295,803.8461,789.7436,640.2564
1694132758.3630002,804.65204,859.0476,807.0696,802.6374,642.27106
1694132758.364,808.68134,805.4579,807.0696,814.3223,903.36993
1694132758.365,802.23444,834.87177,803.8461,814.7253,996.4469
1694132758.365,794.17584,887.6557,803.0403,803.8461,711.5751
1694132758.3660002,798.60803,835.6777,800.6227,799.81683,677.72894
1694132758.367,801.02563,788.93774,797.3993,807.0696,951.7216
1694132758.368,791.75824,837.6923,795.78754,809.4872,972.27106
1694132758.368,786.52014,863.8828,797.3993,799.81683,714.3956
1694132758.369,790.9524,804.2491,800.6227,803.0403,699.4872
1694132758.37,795.78754,773.22345,801.02563,802.23444,801.8315
1694132758.37,792.96704,799.011,793.7729,794.57874,770.0
1694132758.432,792.1612,800.2198,792.96704,798.60803,685.78754
1694132758.4329998,788.5348,754.68866,796.1905,795.38464,801.8315
1694132758.4339998,786.9231,736.9597,795.38464,797.8022,980.32965
1694132758.4339998,793.36993,792.5641,792.5641,794.57874,797.8022
1694132758.4350002,793.36993,787.326,789.34064,785.7143,672.49084
1694132758.436,787.72894,724.4689,788.1319,796.5934,800.6227
1694132758.436,787.72894,729.304,790.54944,803.8461,1000.07324
1694132758.437,785.31134,787.326,788.5348,790.54944,835.2747
1694132758.44,784.10254,772.8205,784.90845,786.9231,622.1245
1694132758.441,790.54944,726.08057,788.93774,798.60803,647.1062
1694132758.442,787.72894,737.76556,790.9524,808.2784,754.2857
1694132758.443,790.14655,758.315,791.75824,802.23444,702.3077
1694132758.472,801.02563,745.0183,790.9524,794.17584,671.685
1694132758.473,797.8022,716.8132,788.5348,788.93774,734.5421
1694132758.479,793.36993,734.94507,788.93774,789.7436,753.8828
1694132758.48,794.9817,770.40295,790.9524,793.7729,716.8132
1694132758.481,798.60803,759.12085,788.1319,785.7143,780.07324
1694132758.4819999,804.2491,706.7399,788.1319,793.36993,1045.2014
1694132758.483,796.99634,703.5165,790.9524,801.8315,1269.2307
1694132758.484,789.34064,809.4872,792.5641,791.3553,967.03296
1694132758.485,791.75824,809.0842,793.7729,792.96704,660.80585
1694132758.485,789.34064,774.0293,790.9524,790.9524,718.022
1694132758.486,780.4762,794.9817,787.72894,780.4762,700.696
1694132758.487,786.52014,799.011,790.54944,782.8938,601.1722
1694132758.52,790.54944,779.67035,792.96704,792.5641,655.56775
1694132758.521,784.10254,784.90845,793.7729,803.8461,808.68134
1694132758.523,785.7143,822.7839,796.99634,802.23444,774.83514
1694132758.524,793.36993,815.12823,801.8315,794.17584,703.1135
1694132758.5249999,790.9524,800.2198,801.4286,793.7729,718.022
1694132758.526,788.93774,807.0696,802.23444,799.81683,816.337
1694132758.527,788.1319,817.5458,806.6667,804.2491,841.31866
1694132758.528,788.93774,827.2161,805.8608,805.4579,763.1502
1694132758.528,789.7436,811.0989,803.0403,803.8461,811.0989
1694132758.529,799.011,780.4762,799.41394,801.4286,1083.8828
1694132758.529,802.6374,855.42126,799.81683,791.75824,863.8828
1694132758.53,798.20514,869.92676,804.65204,795.38464,621.7216
1694132758.557,796.1905,820.7692,801.8315,801.4286,719.2308
1694132758.559,794.17584,817.1429,798.20514,802.6374,727.6923
1694132758.559,795.38464,823.9927,799.41394,794.9817,717.619
1694132758.56,790.54944,830.84247,798.20514,784.10254,620.5128
1694132758.5649998,796.1905,788.5348,796.99634,800.6227,760.32965
1694132758.5649998,803.44324,814.3223,798.60803,810.696,947.28937
1694132758.5660002,805.05493,856.63007,799.011,806.6667,828.4249
1694132758.5660002,807.47253,845.7509,798.20514,797.3993,717.2161
1694132758.5670002,810.696,813.91943,800.6227,798.20514,789.7436
1694132758.568,801.02563,830.84247,796.99634,803.8461,804.2491
1694132758.568,792.96704,857.8388,792.1612,807.0696,738.1685
1694132758.569,794.57874,817.5458,788.93774,810.696,703.5165
1694132758.6009998,801.02563,747.4359,785.31134,811.50183,988.7912
1694132758.6019998,800.2198,811.0989,786.9231,799.81683,1017.8022
1694132758.6030002,793.7729,862.27106,790.9524,791.75824,697.47253
1694132758.6030002,794.9817,809.4872,792.5641,793.36993,694.65204
1694132758.604,801.4286,805.4579,795.38464,795.78754,731.31866
1694132758.604,811.0989,802.6374,797.3993,800.6227,693.0403
1694132758.605,807.0696,790.54944,793.36993,793.7729,689.011
1694132758.605,801.02563,801.02563,789.7436,795.38464,773.22345
1694132758.6060002,798.60803,825.2015,792.96704,807.8755,808.2784
1694132758.6060002,796.5934,821.978,792.5641,806.6667,774.43225
1694132758.607,795.78754,806.26373,787.326,794.9817,701.50183
1694132758.607,794.17584,757.1062,790.14655,795.38464,786.52014
1694132758.6339998,798.60803,738.5714,793.7729,806.26373,1141.5018
1694132758.635,797.3993,826.4103,794.57874,808.68134,971.06226
1694132758.636,790.9524,823.5897,797.3993,814.7253,769.59705
1694132758.6369998,795.38464,776.04395,797.8022,811.9048,854.61536
1694132758.638,799.011,811.50183,797.3993,802.23444,755.4945
1694132758.6390002,794.9817,817.5458,796.1905,805.4579,680.54944
1694132758.6430001,795.78754,794.57874,796.1905,807.8755,743.4066
1694132758.644,794.17584,767.1795,794.9817,805.8608,931.1722
1694132758.645,793.36993,807.8755,794.17584,801.4286,927.5458
1694132758.6460001,799.011,842.52747,793.36993,786.52014,636.63007
1694132758.648,798.60803,800.2198,796.5934,785.7143,619.707
1694132758.649,793.36993,790.54944,796.99634,792.5641,730.5128
1694132758.703,796.1905,808.68134,795.78754,796.99634,709.5604
1694132758.704,801.4286,804.65204,797.8022,803.44324,618.9011
1694132758.705,801.8315,787.326,792.5641,799.011,691.02563
1694132758.7059999,802.6374,803.8461,788.5348,793.7729,767.1795
1694132758.7059999,807.47253,813.91943,795.78754,797.3993,705.12823
1694132758.707,800.2198,794.17584,799.41394,801.8315,718.8278
1694132758.707,795.38464,771.2088,798.20514,804.65204,823.1868
1694132758.708,796.5934,751.8681,800.2198,804.2491,1045.6044
1694132758.7089999,794.57874,836.08057,796.99634,787.326,827.619
1694132758.7089999,794.9817,846.1539,793.36993,780.87915,607.2161
1694132758.71,794.9817,791.3553,797.3993,792.96704,709.5604
1694132758.71,798.60803,807.8755,794.9817,793.36993,762.3443
1694132758.7649999,804.65204,822.7839,790.9524,788.93774,703.91943
1694132758.766,807.0696,793.36993,790.9524,786.52014,702.71063
1694132758.767,803.8461,774.43225,790.54944,791.75824,855.42126
1694132758.768,798.20514,820.7692,788.5348,795.78754,811.0989
1694132758.768,796.5934,819.9634,790.54944,797.8022,703.91943
1694132758.769,792.1612,794.17584,790.54944,792.1612,719.6337
1694132758.769,788.5348,755.4945,790.9524,789.34064,979.92676
1694132758.77,791.75824,761.9414,792.5641,802.23444,1284.1392
1694132758.775,790.54944,865.09155,795.38464,805.05493,992.4176
1694132758.776,791.3553,841.31866,796.5934,801.02563,701.50183
1694132758.777,791.75824,797.8022,791.75824,788.93774,724.4689
1694132758.777,792.5641,813.91943,789.7436,778.86444,674.5055
1694132758.808,790.54944,799.81683,789.7436,779.67035,653.1502
1694132758.809,788.1319,776.8498,787.72894,782.8938,709.9634
1694132758.81,788.1319,784.5055,792.5641,788.93774,787.72894
1694132758.812,792.96704,806.26373,793.7729,785.31134,759.92676
1694132758.813,799.41394,790.9524,790.9524,779.67035,670.07324
1694132758.813,796.5934,755.4945,790.54944,784.10254,783.69965
1694132758.8140001,794.9817,770.0,796.99634,795.38464,914.65204
1694132758.815,794.9817,814.7253,800.6227,794.57874,868.71796
1694132758.816,796.5934,815.12823,797.8022,786.52014,835.2747
1694132758.817,801.02563,778.86444,795.78754,780.4762,817.9487
1694132758.8179998,801.02563,768.7912,795.78754,790.14655,1041.978
1694132758.819,794.9817,834.0659,792.96704,790.9524,896.9231
1694132758.844,793.36993,827.619,792.5641,791.3553,709.9634
1694132758.844,794.57874,775.64105,799.011,796.5934,802.6374
1694132758.845,796.99634,784.90845,803.0403,786.9231,807.0696
1694132758.8460002,794.9817,819.15753,800.6227,789.34064,713.1868
1694132758.8460002,784.5055,803.0403,793.7729,797.3993,684.57874
1694132758.8470001,779.67035,732.52747,793.36993,803.8461,933.1868
1694132758.8470001,782.0879,757.1062,793.36993,801.02563,1008.1319
1694132758.848,783.69965,833.663,792.96704,785.7143,683.36993
1694132758.849,788.93774,800.2198,794.9817,788.5348,640.2564
1694132758.849,787.326,732.9304,797.3993,797.8022,896.1172
1694132758.854,794.17584,770.80585,799.81683,799.011,942.8571
1694132758.854,797.8022,810.293,796.5934,790.14655,767.1795
1694132758.8620002,788.93774,765.9707,790.9524,783.69965,731.31866
1694132758.8630002,785.31134,746.2271,790.9524,786.1172,825.6044
1694132758.8630002,788.1319,782.49084,790.9524,788.5348,767.1795
1694132758.864,794.17584,780.4762,791.75824,791.3553,726.4835
1694132758.865,790.9524,745.0183,790.9524,792.96704,777.6557
1694132758.866,789.34064,725.2747,786.9231,781.28204,832.4542
1694132758.867,793.36993,735.7509,786.52014,780.87915,804.2491
1694132758.867,783.69965,749.85345,784.90845,779.67035,689.81683
1694132758.868,778.0586,710.3663,786.1172,780.87915,784.90845
1694132758.869,782.49084,695.4579,787.72894,791.75824,1046.8132
1694132758.8700001,785.31134,765.56775,784.90845,782.8938,838.9011
1694132758.871,779.67035,755.89746,786.52014,772.8205,642.674
1694132758.915,776.4469,703.91943,788.1319,780.07324,783.2967
1694132758.916,782.8938,712.381,788.5348,796.1905,910.2198
1694132758.916,786.52014,741.79486,790.14655,797.8022,823.9927
1694132758.916,787.72894,759.92676,787.72894,783.2967,705.9341
1694132758.9169998,792.96704,701.50183,783.2967,783.69965,853.00366
1694132758.9169998,795.78754,707.5458,784.10254,792.1612,1023.8461
1694132758.9180002,787.326,776.4469,783.69965,782.0879,794.17584
1694132758.9180002,784.5055,758.315,778.86444,779.2674,705.9341
1694132758.9190001,792.96704,704.7253,778.0586,784.90845,890.4762
1694132758.9190001,797.3993,758.71796,782.8938,786.52014,815.9341
1694132758.9190001,796.5934,796.5934,784.5055,790.54944,617.6923
1694132758.92,801.8315,757.50916,784.90845,801.4286,662.01465
1694132758.9550002,798.20514,756.30035,787.326,805.8608,726.4835
1694132758.956,796.99634,768.7912,785.7143,792.96704,686.99634
1694132758.957,799.011,768.7912,786.52014,782.8938,623.3333
1694132758.957,792.96704,759.12085,790.54944,784.10254,658.3883
1694132758.9580002,792.5641,768.3883,793.36993,788.5348,780.87915
1694132758.9580002,797.3993,767.98535,789.7436,790.9524,823.9927
1694132758.959,801.8315,772.4176,788.5348,798.60803,739.3773
1694132758.959,800.6227,770.40295,791.3553,794.57874,733.3333
1694132758.96,795.78754,748.6447,789.34064,797.8022,1016.99634
1694132758.96,794.9817,826.8132,785.7143,795.38464,924.7253
1694132758.96,794.9817,833.663,788.1319,783.2967,724.4689
1694132758.961,794.57874,775.2381,789.7436,782.0879,778.0586
1694132759.012,797.3993,810.696,792.1612,783.2967,772.4176
1694132759.013,798.20514,833.2601,792.96704,786.9231,699.0842
1694132759.0140002,794.57874,817.9487,790.14655,792.5641,713.5897
1694132759.0140002,790.54944,819.5604,790.9524,802.23444,848.1685
1694132759.015,788.1319,859.85345,794.9817,803.8461,870.7326
1694132759.015,792.5641,862.674,794.9817,794.17584,759.12085
1694132759.016,796.1905,856.2271,795.78754,788.93774,683.36993
1694132759.016,798.60803,829.2308,799.41394,806.6667,1008.1319
1694132759.017,798.60803,844.94507,800.6227,823.1868,1262.381
1694132759.017,795.78754,927.5458,801.4286,802.6374,820.3663
1694132759.018,800.2198,890.87915,797.8022,782.0879,608.4249
1694132759.018,802.6374,875.56775,798.60803,778.46155,668.0586
1694132759.0819998,803.0403,902.96704,803.0403,787.72894,653.1502
1694132759.084,803.0403,894.5055,800.6227,794.57874,695.8608
1694132759.088,798.60803,869.92676,801.02563,792.1612,685.38464
1694132759.089,803.44324,877.5824,801.4286,788.93774,658.3883
1694132759.09,807.47253,891.685,803.0403,793.7729,662.4176
1694132759.09,798.20514,867.9121,799.81683,794.17584,669.2674
1694132759.091,797.8022,842.52747,796.5934,798.20514,841.31866
1694132759.092,797.3993,826.4103,798.60803,809.4872,1085.8975
1694132759.092,796.99634,865.4945,796.5934,797.8022,853.4066
1694132759.093,797.8022,853.4066,797.3993,786.9231,672.0879
1694132759.093,794.57874,823.1868,799.81683,789.7436,749.45056
1694132759.094,793.7729,836.08057,798.60803,800.6227,819.9634
1694132759.1230001,796.1905,836.4835,797.3993,799.81683,759.12085
1694132759.124,804.65204,797.8022,798.20514,791.75824,680.14655
1694132759.124,807.0696,754.68866,795.78754,787.72894,851.39197
1694132759.125,807.47253,789.7436,798.60803,789.7436,848.97437
1694132759.125,805.8608,811.9048,799.81683,795.38464,692.6374
1694132759.1260002,799.011,754.2857,796.1905,803.44324,806.26373
1694132759.1260002,797.8022,739.3773,794.9817,812.3077,938.4249
1694132759.127,796.5934,776.8498,793.7729,795.78754,800.6227
1694132759.127,790.9524,774.43225,791.75824,789.34064,657.1795
1694132759.128,786.9231,732.52747,793.7729,799.41394,694.2491
1694132759.129,780.07324,678.1319,796.1905,799.011,967.4359
1694132759.129,781.28204,722.4542,795.38464,787.72894,942.8571
1694132759.16,789.7436,772.8205,794.57874,776.8498,713.5897
1694132759.161,790.9524,722.4542,797.8022,782.0879,711.978
1694132759.162,782.8938,701.9048,799.011,790.9524,837.6923
1694132759.163,778.0586,736.9597,795.78754,785.7143,817.9487
1694132759.167,776.8498,728.9011,793.36993,776.4469,708.7546
1694132759.167,778.46155,684.17584,790.54944,772.4176,818.3516
1694132759.168,778.46155,683.36993,789.7436,779.2674,1000.4762
1694132759.168,779.2674,743.4066,792.1612,785.31134,822.7839
1694132759.169,780.87915,733.3333,792.5641,792.1612,658.3883
1694132759.169,785.7143,704.3223,792.5641,790.9524,728.0952
1694132759.1699998,793.36993,738.1685,797.8022,783.69965,806.26373
1694132759.171,794.9817,765.56775,799.41394,782.0879,698.68134
1694132759.217,789.7436,754.2857,799.011,790.14655,700.696
1694132759.217,791.75824,725.6777,798.60803,795.78754,779.67035
1694132759.218,795.38464,734.94507,796.5934,793.36993,753.0769
1694132759.219,796.99634,768.3883,793.7729,787.72894,750.2564
1694132759.219,799.41394,795.78754,794.9817,780.4762,681.3553
1694132759.22,794.9817,747.4359,796.5934,794.57874,919.89014
1694132759.22,794.17584,742.6007,799.011,818.7546,1278.9011
1694132759.221,790.14655,861.4652,803.44324,810.696,938.4249
1694132759.2220001,798.60803,861.8681,803.0403,794.17584,645.4945
1694132759.2220001,806.6667,830.4396,801.02563,789.7436,708.3516
1694132759.223,801.02563,863.0769,799.011,794.9817,680.54944
1694132759.224,794.9817,867.50916,798.60803,799.41394,676.1172
1694132759.2540002,795.78754,858.24176,803.44324,793.7729,698.68134
1694132759.255,800.6227,857.4359,799.011,791.3553,721.6484
1694132759.256,804.65204,879.19415,796.1905,784.90845,668.46155
1694132759.257,803.8461,877.98535,799.41394,786.1172,658.7912
1694132759.257,797.3993,856.63007,799.41394,796.99634,779.2674
1694132759.258,801.8315,858.24176,800.6227,801.8315,879.19415
1694132759.262,805.4579,867.50916,795.78754,790.54944,874.35895
1694132759.263,798.60803,882.01465,792.1612,784.5055,713.5897
1694132759.263,796.1905,858.24176,796.1905,790.9524,695.05493
1694132759.264,794.57874,816.7399,801.8315,803.8461,1055.2748
1694132759.2649999,792.96704,894.90845,804.65204,805.05493,883.6264
1694132759.2649999,800.2198,896.9231,804.65204,796.1905,637.8388
1694132759.3049998,809.0842,850.989,806.6667,795.38464,670.07324
1694132759.3059998,807.47253,853.4066,809.4872,801.02563,684.57874
1694132759.3070002,805.8608,854.61536,809.0842,807.0696,763.95605
1694132759.308,800.6227,864.2857,807.8755,803.0403,724.0659
1694132759.309,795.38464,815.9341,805.4579,795.78754,833.663
1694132759.309,801.4286,830.4396,805.4579,792.96704,929.15753
1694132759.3100002,801.4286,853.4066,803.44324,792.1612,773.6264
1694132759.3100002,794.9817,832.0513,798.60803,795.38464,705.12823
1694132759.311,790.9524,786.1172,799.011,803.44324,965.0183
1694132759.312,793.36993,806.6667,800.6227,804.65204,1097.5824
1694132759.312,797.3993,871.13556,801.02563,791.3553,729.304
1694132759.313,801.8315,826.4103,803.0403,793.7729,614.87177
1694132759.373,797.8022,805.4579,799.81683,799.41394,701.0989
1694132759.375,795.78754,817.1429,796.99634,795.78754,734.94507
1694132759.376,805.8608,798.60803,799.41394,806.26373,726.4835
1694132759.376,807.47253,770.40295,802.23444,799.81683,682.96704
1694132759.3769999,799.011,773.22345,799.011,787.72894,674.5055
1694132759.3779998,798.20514,772.01465,800.6227,801.8315,766.3736
1694132759.379,795.78754,758.315,801.02563,805.4579,790.14655
1694132759.379,799.011,757.50916,796.5934,803.44324,789.34064
1694132759.386,804.2491,813.5165,796.99634,807.47253,989.19415
1694132759.387,799.81683,925.9341,798.60803,801.8315,793.36993
1694132759.387,796.1905,927.9487,800.2198,803.8461,697.8755
1694132759.388,794.17584,898.5348,799.81683,809.89014,836.4835
1694132759.421,792.1612,927.5458,796.99634,807.8755,831.6484
1694132759.4220002,794.9817,926.337,795.78754,797.3993,729.304
1694132759.423,794.17584,891.28204,795.38464,784.90845,692.23444
1694132759.423,794.17584,883.22345,801.02563,796.99634,821.978
1694132759.424,799.011,915.05493,804.2491,812.3077,860.65936
1694132759.425,803.0403,911.4286,803.44324,793.36993,796.1905
1694132759.425,803.44324,890.87915,803.0403,786.1172,736.9597
1694132759.4259999,797.8022,863.8828,800.2198,801.02563,863.8828
1694132759.427,796.5934,915.05493,800.6227,796.99634,937.2161
1694132759.427,798.20514,951.7216,801.8315,795.78754,754.2857
1694132759.428,796.5934,895.7143,796.99634,796.99634,727.6923
1694132759.428,798.60803,882.8205,790.54944,794.17584,719.6337
1694132759.437,805.4579,892.8938,789.7436,785.7143,688.60803
1694132759.4380002,800.2198,898.1319,792.5641,781.28204,672.0879
1694132759.4390001,795.78754,882.4176,795.38464,794.9817,725.6777
1694132759.4390001,800.2198,878.3883,797.3993,805.8608,869.92676
1694132759.44,796.5934,900.9524,796.5934,801.02563,789.34064
1694132759.441,799.011,887.25275,796.5934,796.1905,665.64105
1694132759.441,800.6227,869.12085,797.3993,802.23444,804.65204
1694132759.442,796.1905,839.304,798.60803,822.381,1178.9744
1694132759.443,794.9817,907.8022,800.6227,818.3516,1014.9817
1694132759.443,802.23444,906.99634,798.60803,805.8608,708.7546
1694132759.447,806.26373,852.1978,796.1905,801.8315,678.1319
1694132759.448,796.5934,874.35895,799.011,798.60803,684.9817
1694132759.473,799.011,880.40295,799.81683,808.2784,686.5934
1694132759.474,797.8022,841.31866,796.99634,812.3077,738.97437
1694132759.4750001,792.1612,819.9634,793.7729,806.26373,827.2161
1694132759.4750001,796.99634,846.55676,792.1612,798.20514,818.3516
1694132759.476,800.6227,862.674,792.5641,793.7729,737.3626
1694132759.476,797.3993,842.52747,792.96704,790.54944,757.1062
1694132759.477,793.36993,795.38464,795.38464,802.23444,994.43225
1694132759.477,795.78754,792.5641,798.60803,814.3223,1197.1062
1694132759.4780002,796.99634,892.0879,797.8022,794.9817,915.05493
1694132759.4780002,794.17584,886.8498,791.75824,778.86444,662.4176
1694132759.479,789.34064,836.08057,787.72894,788.93774,710.3663
1694132759.479,784.10254,849.7802,787.326,794.9817,710.7692
1694132759.5049999,787.72894,841.31866,789.7436,792.5641,671.685
1694132759.5059998,789.7436,823.5897,791.75824,787.326,671.28204
1694132759.507,783.2967,824.7985,792.5641,781.685,695.4579
1694132759.508,778.0586,839.304,795.78754,785.7143,699.4872
1694132759.508,781.28204,828.022,794.9817,799.41394,724.4689
1694132759.508,790.54944,796.99634,792.5641,798.60803,859.0476
1694132759.5089998,793.7729,797.8022,789.34064,788.5348,909.81683
1694132759.5089998,794.57874,820.7692,786.52014,781.28204,804.2491
1694132759.5100002,800.2198,842.1245,789.7436,787.326,712.7839
1694132759.5100002,796.99634,803.0403,795.78754,795.38464,772.8205
1694132759.5110002,784.10254,779.2674,793.36993,797.8022,1010.9524
1694132759.5110002,786.9231,854.21246,789.34064,790.14655,772.01465
1694132759.612,793.7729,843.73627,793.7729,785.7143,575.38464
1694132759.613,792.96704,788.5348,795.38464,795.78754,808.68134
1694132759.614,792.1612,801.8315,794.57874,803.8461,860.65936
1694132759.615,792.1612,836.4835,798.20514,794.17584,756.7033
1694132759.616,795.38464,825.2015,799.81683,782.0879,726.8865
1694132759.6169999,799.41394,763.5531,800.2198,791.75824,981.53845
1694132759.6179998,802.23444,797.3993,797.3993,805.8608,1092.7472
1694132759.619,803.44324,863.8828,798.60803,803.0403,755.09155
1694132759.619,803.0403,813.91943,803.44324,806.26373,740.58606
1694132759.62,807.0696,770.0,805.4579,808.2784,1014.57874
1694132759.621,809.89014,831.6484,803.8461,802.23444,873.1502
1694132759.621,805.4579,850.989,800.6227,801.02563,630.989
1694132759.649,801.4286,799.41394,801.4286,808.68134,723.2601
1694132759.649,799.011,797.3993,800.2198,817.1429,852.1978
1694132759.6499999,798.60803,827.619,796.1905,809.4872,761.13556
1694132759.651,796.1905,817.5458,791.75824,794.17584,649.92676
1694132759.651,800.2198,796.99634,796.5934,788.93774,649.12085
1694132759.652,807.8755,797.3993,799.41394,796.99634,759.5238
1694132759.6529999,806.26373,814.3223,798.20514,803.44324,803.44324
1694132759.654,803.8461,836.08057,796.99634,790.54944,685.78754
1694132759.655,812.3077,793.7729,794.9817,789.34064,720.0366
1694132759.656,815.9341,761.53845,790.9524,804.65204,993.22345
1694132759.656,803.44324,832.0513,792.5641,802.23444,856.63007
1694132759.6569998,791.75824,817.5458,795.78754,796.5934,737.3626
1694132759.6579998,794.9817,783.69965,794.9817,791.75824,826.4103
1694132759.6590002,799.41394,802.23444,796.99634,788.5348,826.8132
1694132759.663,799.011,816.337,800.6227,796.5934,704.3223
1694132759.664,797.3993,813.5165,797.8022,801.8315,678.1319
1694132759.664,796.5934,762.3443,800.2198,811.0989,864.68866
1694132759.665,794.9817,768.7912,805.05493,813.5165,992.8205
1694132759.666,794.17584,811.50183,805.8608,796.5934,833.2601
1694132759.666,796.1905,798.20514,803.0403,784.5055,664.83514
1694132759.667,793.36993,740.989,796.99634,797.3993,898.5348
1694132759.668,786.1172,792.96704,792.5641,796.99634,1000.87915
1694132759.668,780.4762,833.663,794.9817,785.31134,726.4835
1694132759.669,790.9524,787.72894,794.9817,782.0879,693.44324
1694132759.711,796.1905,790.14655,798.60803,778.86444,747.03296
1694132759.712,785.7143,788.1319,800.2198,785.31134,735.7509
1694132759.7129998,785.7143,786.1172,796.99634,796.5934,732.52747
1694132759.7129998,789.7436,770.80585,794.9817,791.75824,740.18317
1694132759.714,792.1612,748.24176,793.36993,786.9231,851.79486
1694132759.714,791.75824,778.46155,791.75824,786.9231,807.0696
1694132759.7150002,787.72894,794.17584,788.93774,783.69965,752.27106
1694132759.7150002,794.9817,774.83514,790.54944,796.1905,803.44324
1694132759.716,803.8461,753.0769,791.75824,813.5165,1027.4725
1694132759.717,795.38464,821.1722,796.99634,802.6374,842.9304
1694132759.717,794.57874,818.7546,799.41394,790.9524,642.27106
1694132759.7180002,797.8022,775.2381,793.36993,790.14655,681.3553
1694132759.7489998,786.52014,797.3993,792.5641,798.20514,686.1905
1694132759.7500002,786.9231,793.36993,795.78754,803.8461,726.8865
1694132759.7510002,801.4286,777.6557,794.57874,804.2491,717.619
1694132759.7510002,805.4579,771.6117,793.7729,805.4579,753.0769
1694132759.755,804.65204,799.81683,795.38464,813.5165,834.0659
1694132759.756,804.2491,826.4103,795.78754,820.3663,850.989
1694132759.756,798.20514,813.1135,799.41394,810.696,804.65204
1694132759.757,797.3993,765.16486,802.6374,809.89014,977.1062
1694132759.757,809.0842,781.685,794.17584,803.0403,1091.5385
1694132759.7580001,818.3516,871.53845,791.75824,789.7436,742.1978
1694132759.7580001,808.68134,840.9158,801.4286,795.78754,679.7436
1694132759.759,794.57874,816.7399,802.6374,792.1612,776.04395
1694132759.789,798.60803,840.10986,797.3993,791.75824,722.8571
1694132759.7900002,805.8608,830.4396,798.60803,792.1612,666.8498
1694132759.7910001,801.8315,819.5604,799.011,793.7729,710.3663
1694132759.792,793.7729,826.4103,796.99634,796.1905,794.17584
1694132759.792,789.7436,820.3663,797.3993,794.57874,774.43225
1694132759.793,794.9817,800.6227,793.7729,787.72894,724.4689
1694132759.793,799.011,792.1612,793.36993,788.93774,779.2674
1694132759.794,793.7729,772.4176,803.44324,800.2198,1086.7032
1694132759.794,793.7729,850.989,806.6667,800.2198,975.4945
1694132759.795,795.78754,864.68866,803.0403,801.8315,705.5311
1694132759.795,792.5641,796.1905,798.60803,803.0403,725.2747
1694132759.796,790.54944,801.8315,796.5934,799.41394,685.38464
1694132759.893,792.5641,818.7546,795.78754,801.4286,646.30035
1694132759.894,794.9817,791.3553,795.78754,799.81683,661.6117
1694132759.895,795.78754,759.12085,795.78754,802.6374,876.77655
1694132759.896,790.9524,799.81683,794.57874,801.8315,892.8938
1694132759.8969998,795.38464,820.3663,793.36993,792.1612,652.74725
1694132759.8979998,805.05493,783.69965,796.99634,793.36993,654.35895
1694132759.904,801.4286,744.21246,801.4286,801.8315,952.1245
1694132759.905,794.9817,790.14655,796.1905,803.8461,1061.7216
1694132759.905,796.99634,826.4103,795.78754,792.1612,711.5751
1694132759.906,798.60803,757.50916,796.99634,780.07324,610.84247
1694132759.907,799.011,714.3956,792.5641,791.3553,821.978
1694132759.908,793.36993,774.43225,792.1612,801.4286,758.71796
1694132759.948,788.93774,786.9231,794.17584,801.02563,653.5531
1694132759.949,789.7436,745.42126,796.1905,804.2491,719.6337
1694132759.95,793.7729,748.24176,800.6227,798.20514,746.63007
1694132759.951,796.99634,761.53845,799.41394,789.7436,731.7216
1694132759.951,795.78754,755.4945,796.1905,786.1172,685.78754
1694132759.952,800.6227,721.6484,796.5934,796.99634,822.381
1694132759.9529998,797.3993,713.1868,797.8022,801.8315,1015.38464
1694132759.9529998,792.96704,777.25275,797.8022,786.52014,813.91943
1694132759.9539998,800.2198,781.685,797.8022,787.72894,639.0476
1694132759.9550002,795.78754,734.1392,801.4286,794.9817,670.4762
1694132759.9550002,786.9231,753.0769,801.4286,795.78754,738.5714
1694132759.956,786.52014,772.4176,795.38464,801.8315,707.1429
1694132759.957,783.69965,752.27106,790.14655,794.9817,724.0659
1694132759.9580002,787.72894,745.82416,789.7436,780.87915,805.8608
1694132759.959,792.1612,778.46155,789.7436,783.69965,867.9121
1694132759.959,787.326,827.2161,786.1172,787.72894,734.94507
1694132759.96,776.8498,802.6374,782.0879,782.0879,665.2381
1694132759.96,785.31134,747.03296,784.90845,788.1319,880.0
1694132759.961,790.9524,788.93774,786.52014,791.3553,1009.7436
1694132759.963,787.72894,847.3626,789.34064,784.90845,754.68866
1694132759.967,792.96704,812.71063,791.3553,786.52014,696.26373
1694132759.968,788.5348,763.95605,787.72894,790.54944,938.8278
1694132759.968,778.86444,826.0073,783.69965,790.14655,877.5824
1694132759.9689999,782.0879,849.7802,782.49084,782.0879,660.40295
1694132759.9980001,791.75824,817.9487,785.7143,785.7143,668.86444
1694132759.999,795.38464,835.6777,790.14655,804.2491,739.3773
1694132759.999,795.78754,844.5421,790.9524,805.05493,798.20514
1694132760.0,800.6227,847.76556,794.17584,794.57874,830.4396
1694132760.0,809.4872,849.3773,798.20514,787.72894,809.0842
1694132760.001,810.293,831.2454,799.011,792.5641,965.0183
1694132760.0019999,804.65204,867.1062,800.2198,800.2198,913.44324
1694132760.003,797.8022,890.07324,801.4286,798.20514,694.2491
1694132760.003,798.60803,845.34796,800.6227,796.99634,746.2271
1694132760.004,803.0403,830.4396,799.81683,800.2198,939.2308
1694132760.004,800.6227,892.8938,796.1905,798.60803,746.63007
1694132760.0049999,802.6374,875.56775,796.1905,798.60803,675.7143
1694132760.0300002,804.2491,840.5128,799.41394,800.6227,823.1868
1694132760.0310001,798.60803,849.3773,795.78754,796.99634,840.5128
1694132760.0310001,802.23444,853.8095,796.99634,792.96704,789.34064
1694132760.032,805.8608,855.42126,801.4286,787.326,688.20514
1694132760.032,801.8315,808.68134,796.99634,786.9231,784.10254
1694132760.033,795.38464,827.619,793.36993,791.3553,867.9121
1694132760.033,790.54944,855.42126,794.9817,789.34064,804.2491
1694132760.034,794.17584,831.6484,798.20514,784.90845,731.7216
1694132760.035,797.3993,783.2967,795.38464,784.10254,889.67035
1694132760.037,791.3553,801.8315,788.93774,788.5348,1040.7693
1694132760.041,788.5348,871.9414,793.7729,788.93774,759.5238
1694132760.041,782.49084,826.0073,793.7729,788.93774,716.4103
1694132760.0700002,786.52014,813.1135,790.9524,789.7436,815.9341
1694132760.071,791.75824,830.84247,792.5641,789.34064,721.6484
1694132760.071,785.31134,805.8608,790.14655,788.93774,672.8938
1694132760.072,779.67035,784.5055,784.90845,799.81683,761.13556
1694132760.072,781.28204,783.69965,782.49084,800.6227,772.4176
1694132760.073,793.7729,770.80585,788.5348,790.54944,753.47986
1694132760.073,796.5934,772.4176,792.1612,784.90845,721.6484
1694132760.074,794.9817,757.9121,790.54944,786.1172,707.1429
1694132760.075,793.36993,726.4835,789.7436,798.20514,1066.9597
1694132760.076,794.57874,809.89014,793.7729,799.81683,989.19415
1694132760.076,800.6227,816.337,799.41394,796.1905,659.59705
1694132760.077,807.47253,765.16486,800.6227,800.2198,675.31134
1694132760.131,798.20514,792.1612,794.17584,794.9817,661.6117
1694132760.132,792.96704,793.36993,793.7729,795.38464,661.6117
1694132760.132,794.57874,763.95605,798.60803,795.38464,715.6044
1694132760.133,790.9524,754.68866,797.8022,791.3553,805.05493
1694132760.133,793.36993,786.52014,795.78754,790.9524,819.9634
1694132760.133,793.7729,787.326,794.17584,788.5348,710.7692
1694132760.134,792.96704,767.1795,797.3993,798.20514,724.4689
1694132760.134,797.3993,733.3333,798.60803,811.50183,967.03296
1694132760.135,795.78754,772.01465,797.8022,812.71063,993.6264
1694132760.135,791.3553,810.696,797.8022,801.8315,685.78754
1694132760.136,796.5934,756.7033,796.1905,799.011,670.4762
1694132760.136,792.96704,753.8828,793.36993,799.81683,853.00366
1694132760.189,792.1612,784.10254,794.9817,793.36993,794.9817
1694132760.19,794.17584,773.22345,792.5641,794.17584,716.4103
1694132760.19,793.7729,750.65936,789.7436,792.5641,719.2308
1694132760.191,792.5641,765.9707,791.3553,788.93774,736.1539
1694132760.192,787.326,791.75824,793.36993,795.38464,730.10986
1694132760.192,786.1172,763.5531,792.5641,799.011,805.4579
1694132760.192,797.3993,763.5531,788.93774,801.8315,882.8205
1694132760.1929998,806.6667,801.4286,792.96704,805.4579,855.82416
1694132760.1929998,798.60803,807.0696,795.78754,797.8022,717.2161
1694132760.1939998,798.20514,803.44324,794.57874,799.011,615.6777
1694132760.1939998,800.6227,760.7326,795.38464,812.71063,747.03296
1694132760.1950002,793.7729,743.8095,793.36993,819.15753,1054.0659
1694132760.217,791.3553,809.0842,790.9524,810.696,834.87177
1694132760.218,802.23444,789.34064,789.7436,805.4579,689.011
1694132760.218,803.44324,759.92676,789.34064,805.8608,859.0476
1694132760.219,798.60803,809.89014,790.14655,807.8755,831.6484
1694132760.22,803.0403,815.12823,793.7729,809.89014,745.0183
1694132760.22,804.2491,782.0879,797.3993,807.0696,802.6374
1694132760.221,806.6667,748.6447,796.99634,804.2491,951.7216
1694132760.2220001,807.8755,748.6447,795.38464,819.15753,1157.619
1694132760.223,803.8461,849.7802,793.36993,826.0073,958.1685
1694132760.223,800.2198,850.58606,792.5641,816.337,738.5714
1694132760.224,801.02563,802.6374,792.1612,811.9048,768.7912
1694132760.225,804.2491,822.381,795.78754,813.91943,691.8315
1694132760.2540002,804.2491,822.381,796.5934,816.337,655.9707
1694132760.255,809.4872,800.2198,795.78754,815.5311,716.8132
1694132760.259,810.293,802.6374,796.5934,813.1135,774.0293
1694132760.259,803.8461,811.0989,791.3553,803.8461,783.69965
1694132760.26,810.293,794.17584,786.52014,794.57874,695.05493
1694132760.26,814.7253,778.46155,785.7143,795.38464,731.31866
1694132760.261,808.68134,747.03296,791.3553,812.71063,1146.7399
1694132760.261,803.8461,818.3516,799.41394,811.50183,1076.227
1694132760.262,804.2491,841.7216,795.38464,799.41394,700.293
1694132760.263,809.0842,780.07324,789.7436,796.99634,667.25275
1694132760.263,812.71063,788.5348,790.14655,790.54944,676.1172
1694132760.264,800.2198,807.0696,791.75824,792.96704,674.5055
1694132760.359,792.5641,792.1612,791.75824,797.3993,695.8608
1694132760.36,796.1905,765.9707,788.5348,795.78754,752.674
1694132760.3609998,796.5934,780.4762,788.5348,792.96704,825.2015
1694132760.362,802.23444,808.2784,791.3553,792.1612,750.2564
1694132760.3630002,805.8608,802.23444,787.326,794.9817,645.89746
1694132760.364,805.4579,734.94507,784.90845,803.0403,915.05493
1694132760.364,798.60803,732.52747,781.28204,805.05493,1207.5824
1694132760.365,800.2198,822.7839,780.4762,790.9524,860.2564
1694132760.3660002,802.23444,824.3956,781.685,784.10254,618.9011
1694132760.367,796.1905,765.56775,786.1172,799.011,826.4103
1694132760.368,792.5641,811.0989,784.5055,801.8315,829.6337
1694132760.368,792.96704,835.6777,777.25275,800.6227,674.5055
1694132760.402,798.20514,802.23444,773.6264,798.20514,667.25275
1694132760.404,796.99634,810.293,775.2381,787.72894,679.34064
1694132760.405,798.60803,836.4835,780.4762,803.8461,688.20514
1694132760.4060001,790.54944,831.6484,778.86444,809.4872,688.60803
1694132760.411,788.1319,815.5311,774.0293,805.05493,732.9304
1694132760.4129999,794.57874,810.293,774.83514,805.8608,835.2747
1694132760.414,792.1612,821.5751,772.4176,799.011,780.4762
1694132760.415,792.96704,850.58606,770.40295,799.011,664.83514
1694132760.416,796.99634,821.5751,769.59705,805.8608,786.52014
1694132760.4169998,793.7729,783.69965,768.3883,812.71063,1199.9268
1694132760.418,787.326,874.35895,770.80585,805.05493,1011.3553
1694132760.4190001,790.14655,889.2674,767.98535,791.3553,694.65204
1694132760.421,790.54944,842.1245,763.1502,791.75824,765.9707
1694132760.4220002,788.1319,847.76556,762.74725,796.99634,767.5824
1694132760.4220002,790.54944,853.00366,763.95605,795.78754,736.1539
1694132760.423,793.36993,867.1062,763.1502,783.2967,696.26373
1694132760.424,796.1905,830.84247,759.5238,786.1172,778.0586
1694132760.425,791.75824,831.6484,757.50916,794.9817,876.3736
1694132760.4259999,788.1319,864.68866,763.1502,801.02563,840.5128
1694132760.427,794.9817,858.6447,770.0,795.78754,763.5531
1694132760.427,795.38464,803.8461,765.9707,792.5641,904.17584
1694132760.428,790.14655,850.989,764.35895,791.3553,939.2308
1694132760.429,795.78754,892.8938,766.77655,780.4762,691.02563
1694132760.429,796.1905,837.6923,765.9707,788.93774,738.1685
1694132760.46,794.9817,821.978,763.95605,806.6667,898.1319
1694132760.461,795.38464,842.1245,761.13556,797.3993,805.05493
1694132760.4620001,798.20514,837.28937,765.9707,788.5348,704.3223
1694132760.4620001,801.02563,823.9927,768.3883,795.78754,734.94507
1694132760.463,791.75824,831.2454,768.3883,807.0696,838.0952
1694132760.464,789.7436,829.6337,766.77655,811.50183,873.95605
1694132760.468,791.3553,827.619,768.7912,812.3077,803.0403
1694132760.468,794.57874,806.6667,775.64105,812.3077,753.0769
1694132760.4689999,799.011,769.19415,775.64105,804.2491,965.0183
1694132760.47,794.17584,836.08057,770.80585,791.3553,817.9487
1694132760.471,792.5641,842.9304,774.0293,796.99634,687.3993
1694132760.472,790.9524,801.4286,775.64105,794.9817,812.71063
1694132760.517,790.54944,828.022,772.4176,784.10254,788.93774
1694132760.5180001,799.41394,816.337,772.01465,788.1319,681.75824
1694132760.519,796.99634,800.6227,767.1795,796.5934,670.07324
1694132760.52,790.9524,775.64105,765.56775,810.696,902.5641
1694132760.52,794.57874,787.326,767.98535,809.89014,1029.0842
1694132760.521,796.1905,812.3077,765.9707,790.14655,855.42126
1694132760.521,795.38464,780.87915,767.98535,786.9231,760.32965
1694132760.5219998,800.6227,749.85345,772.01465,795.78754,899.34064
1694132760.523,796.5934,793.36993,773.22345,802.6374,935.6044
1694132760.523,785.7143,830.4396,775.64105,797.3993,703.91943
1694132760.524,794.17584,783.2967,772.01465,795.78754,670.87915
1694132760.524,797.3993,764.35895,769.59705,799.81683,701.0989
1694132760.563,787.326,782.0879,769.19415,800.2198,676.1172
1694132760.564,785.7143,773.22345,768.3883,803.44324,659.59705
1694132760.564,784.5055,755.09155,768.7912,800.6227,707.9487
1694132760.5649998,782.8938,770.40295,768.7912,792.5641,767.98535
1694132760.5660002,790.9524,779.2674,767.5824,790.54944,751.4652
1694132760.5660002,795.38464,768.3883,768.7912,791.3553,733.73627
1694132760.5670002,791.75824,754.68866,773.22345,798.20514,831.6484
1694132760.5670002,785.7143,731.7216,773.6264,805.8608,1208.3883
1694132760.572,787.72894,808.68134,773.6264,801.8315,1000.87915
1694132760.572,792.96704,824.3956,773.6264,792.96704,629.7802
1694132760.573,794.9817,769.59705,774.83514,791.3553,621.31866
1694132760.5740001,797.8022,792.96704,777.25275,793.36993,676.9231
1694132760.598,794.17584,807.0696,777.25275,795.78754,712.7839
1694132760.599,789.7436,772.8205,776.04395,795.38464,659.19415
1694132760.6,794.9817,751.4652,777.25275,796.1905,793.7729
1694132760.6,800.2198,806.26373,784.10254,802.23444,839.304
1694132760.6009998,794.9817,824.3956,784.5055,804.65204,692.6374
1694132760.6019998,792.96704,789.7436,783.2967,809.89014,764.7619
1694132760.6030002,800.2198,764.7619,784.90845,815.5311,951.7216
1694132760.6030002,801.8315,806.6667,784.10254,805.8608,950.5128
1694132760.604,802.23444,877.1795,784.10254,794.17584,684.9817
1694132760.604,805.05493,848.5714,784.90845,799.41394,680.9524
1694132760.605,794.57874,796.99634,784.10254,799.41394,903.36993
1694132760.6060002,789.34064,835.6777,784.90845,792.96704,818.3516
1694132760.675,800.2198,846.9597,786.52014,791.75824,649.5238
1694132760.676,797.8022,826.8132,784.10254,788.93774,676.52014
1694132760.677,794.17584,841.31866,784.90845,795.38464,781.28204
1694132760.6780002,788.5348,845.7509,784.10254,802.23444,803.44324
1694132760.6780002,786.1172,828.8278,781.28204,793.36993,732.1245
1694132760.6790001,800.2198,815.9341,781.28204,792.1612,747.8388
1694132760.6790001,810.696,830.84247,784.5055,803.0403,879.59705
1694132760.68,807.47253,871.13556,783.2967,800.2198,809.0842
1694132760.681,810.696,872.74725,784.5055,803.8461,686.5934
1694132760.681,807.8755,826.4103,785.31134,809.4872,780.07324
1694132760.686,802.23444,823.5897,784.10254,802.6374,966.63007
1694132760.687,802.6374,868.71796,782.49084,796.1905,781.685
1694132760.7489998,805.8608,859.85345,785.31134,799.41394,606.8132
1694132760.7500002,800.6227,803.44324,789.7436,804.2491,818.3516
1694132760.7510002,786.9231,816.337,792.1612,803.8461,1038.7546
1694132760.752,794.17584,872.74725,789.7436,798.60803,786.1172
1694132760.752,806.26373,840.10986,788.93774,792.1612,638.6447
1694132760.753,803.44324,775.64105,788.93774,796.5934,836.08057
1694132760.754,798.60803,799.81683,786.9231,807.0696,942.8571
1694132760.755,801.4286,841.7216,781.685,804.65204,821.1722
1694132760.755,799.41394,813.5165,779.2674,794.17584,732.9304
1694132760.756,797.3993,779.2674,782.49084,791.3553,771.2088
1694132760.756,793.7729,812.71063,786.1172,792.96704,730.10986
1694132760.757,792.5641,819.5604,792.1612,801.02563,669.2674
1694132760.7849998,795.78754,774.0293,793.7729,800.6227,747.8388
1694132760.7859998,798.60803,747.03296,788.93774,796.1905,946.4835
1694132760.7870002,794.57874,793.36993,784.10254,794.57874,797.3993
1694132760.788,794.57874,801.8315,784.90845,796.5934,648.315
1694132760.789,796.5934,762.3443,783.69965,801.02563,740.989
1694132760.789,796.99634,697.8755,780.07324,810.293,1132.2344
1694132760.7900002,791.75824,754.68866,772.4176,809.89014,1176.9597
1694132760.7910001,785.7143,812.3077,770.40295,793.36993,720.84247
1694132760.7910001,783.2967,758.71796,776.04395,792.1612,668.46155
1694132760.792,784.10254,755.89746,778.0586,800.6227,777.25275
1694132760.793,784.10254,778.86444,781.28204,796.5934,698.68134
1694132760.793,786.52014,759.12085,784.90845,794.57874,662.4176
1694132760.797,788.5348,734.94507,781.685,795.38464,660.80585
1694132760.798,788.1319,740.18317,778.46155,789.7436,710.3663
1694132760.799,787.72894,741.39197,776.8498,795.38464,790.14655
1694132760.799,786.52014,747.03296,776.4469,798.60803,740.58606
1694132760.8,792.1612,709.9634,777.6557,799.011,943.2601
1694132760.8009999,796.5934,713.5897,776.4469,796.99634,1135.4579
1694132760.8019998,799.011,788.93774,776.8498,784.90845,799.81683
1694132760.803,801.02563,787.326,780.07324,798.20514,679.7436
1694132760.804,795.38464,729.707,781.685,816.7399,934.7985
1694132760.804,790.54944,779.2674,781.28204,812.71063,915.4579
1694132760.8049998,798.20514,807.47253,779.2674,805.05493,686.1905
1694132760.8049998,799.41394,767.98535,781.685,805.4579,692.6374
1694132760.8470001,793.7729,770.80585,786.1172,798.60803,763.1502
1694132760.848,798.60803,791.75824,789.34064,794.57874,755.89746
1694132760.848,791.3553,790.9524,790.14655,797.8022,751.4652
1694132760.849,791.3553,767.1795,792.5641,795.78754,733.73627
1694132760.85,803.44324,776.8498,792.1612,789.7436,779.2674
1694132760.85,804.65204,786.1172,789.34064,794.17584,787.326
1694132760.851,801.8315,785.7143,788.93774,803.0403,739.7802
1694132760.852,795.38464,774.83514,785.31134,802.6374,875.56775
1694132760.852,797.8022,747.4359,783.69965,801.8315,1146.7399
1694132760.853,794.57874,825.6044,787.72894,797.3993,915.05493
1694132760.854,788.93774,837.6923,791.3553,794.9817,640.65936
1694132760.854,793.36993,790.14655,796.1905,802.6374,741.39197
1694132760.904,797.3993,809.4872,800.2198,811.50183,772.01465
1694132760.906,797.3993,794.9817,799.011,808.68134,736.1539
1694132760.911,801.4286,773.6264,801.4286,801.02563,763.5531
1694132760.912,807.8755,772.01465,803.0403,805.4579,838.49817
1694132760.912,796.99634,802.6374,799.81683,808.68134,822.381
1694132760.9129999,789.7436,810.293,801.8315,806.26373,708.7546
1694132760.9139998,804.2491,792.1612,804.2491,795.38464,793.7729
1694132760.915,808.68134,766.3736,801.8315,790.9524,967.03296
1694132760.915,805.4579,797.8022,796.99634,802.6374,977.1062
1694132760.916,796.99634,855.82416,799.41394,810.293,754.2857
1694132760.9169998,790.9524,826.8132,799.81683,817.5458,738.5714
1694132760.9180002,795.38464,765.56775,797.3993,816.337,938.4249
1694132760.951,794.17584,813.1135,795.38464,799.011,778.46155
1694132760.9529998,798.60803,829.2308,799.41394,792.5641,607.619
1694132760.9539998,802.6374,795.78754,796.99634,801.4286,678.93774
1694132760.9539998,795.78754,803.0403,792.1612,806.6667,735.34796
1694132760.9550002,794.17584,807.47253,793.36993,803.0403,745.82416
1694132760.956,795.38464,794.17584,790.14655,790.54944,729.707
1694132760.956,798.60803,776.4469,786.52014,795.38464,790.14655
1694132760.957,805.05493,760.32965,783.2967,817.5458,1029.4872
1694132760.957,793.7729,823.5897,782.49084,811.0989,851.79486
1694132760.9580002,792.1612,825.6044,786.9231,801.8315,639.45056
1694132760.959,809.4872,781.28204,791.75824,801.4286,697.47253
1694132760.959,812.3077,788.1319,792.96704,796.1905,770.80585
1694132760.961,807.47253,808.2784,793.36993,797.8022,764.35895
1694132760.961,803.0403,794.57874,789.7436,806.6667,672.0879
1694132760.962,795.38464,740.58606,786.52014,801.8315,852.1978
1694132760.963,792.5641,761.13556,788.93774,796.99634,1003.2967
1694132760.967,792.1612,827.619,790.9524,791.3553,729.707
1694132760.967,792.1612,791.3553,793.7729,795.78754,639.0476
1694132760.968,791.75824,738.5714,792.96704,811.9048,956.1539
1694132760.968,794.17584,783.2967,791.75824,814.3223,1059.7069
1694132760.9689999,793.36993,822.7839,792.1612,799.81683,748.6447
1694132760.9689999,794.57874,785.7143,791.3553,792.5641,672.0879
1694132760.9699998,793.36993,768.7912,790.9524,797.8022,753.47986
1694132760.971,791.3553,786.9231,794.17584,800.2198,751.8681
1694132761.0449998,797.3993,784.5055,793.7729,802.23444,684.17584
1694132761.0470002,804.65204,755.4945,790.14655,799.011,664.83514
1694132761.048,803.0403,759.12085,788.93774,796.1905,801.8315
1694132761.049,801.8315,794.9817,788.1319,794.17584,807.8755
1694132761.049,799.41394,799.41394,787.72894,795.78754,759.92676
1694132761.05,795.78754,755.4945,788.5348,800.2198,875.16486
1694132761.05,799.81683,719.2308,788.5348,804.65204,1212.4176
1694132761.051,800.6227,809.4872,791.3553,795.38464,1013.36993
1694132761.052,796.99634,832.0513,792.5641,792.5641,679.7436
1694132761.052,795.78754,777.6557,791.3553,803.44324,724.0659
1694132761.053,792.1612,790.54944,792.5641,809.89014,779.2674
1694132761.0540001,794.9817,797.3993,790.54944,801.4286,736.1539
1694132761.1139998,800.6227,784.10254,789.34064,790.54944,676.52014
1694132761.115,792.96704,757.1062,789.7436,792.96704,713.1868
1694132761.116,789.7436,776.4469,789.34064,792.96704,805.4579
1694132761.1169999,796.5934,809.4872,788.5348,798.60803,791.75824
1694132761.1169999,802.6374,796.5934,787.72894,796.1905,713.5897
1694132761.118,797.3993,745.42126,783.2967,792.96704,900.9524
1694132761.1230001,794.9817,745.0183,783.2967,803.44324,1255.1282
1694132761.124,788.1319,843.73627,785.31134,791.3553,992.01465
1694132761.125,783.69965,831.2454,783.69965,784.90845,705.12823
1694132761.1260002,789.7436,757.9121,784.10254,796.99634,909.41394
1694132761.127,798.60803,812.3077,788.93774,797.8022,823.5897
1694132761.127,803.0403,839.707,788.93774,794.57874,619.707
1694132761.162,801.02563,806.6667,789.34064,802.23444,675.7143
1694132761.163,796.99634,806.26373,791.3553,805.4579,730.5128
1694132761.164,794.17584,829.2308,793.36993,807.0696,697.8755
1694132761.164,800.6227,827.2161,798.20514,808.68134,635.82416
1694132761.165,801.8315,802.6374,798.60803,806.26373,616.4835
1694132761.165,802.6374,795.78754,795.38464,810.293,701.50183
1694132761.1660001,797.8022,807.8755,789.7436,812.71063,779.67035
1694132761.1660001,790.54944,818.7546,787.72894,805.4579,728.49817
1694132761.167,792.96704,801.4286,786.52014,799.011,720.84247
1694132761.168,799.011,770.40295,784.5055,805.8608,1014.57874
1694132761.168,796.99634,846.9597,788.93774,807.47253,906.99634
1694132761.169,796.99634,859.0476,795.38464,802.6374,677.72894
1694132761.1699998,804.2491,803.44324,798.60803,802.23444,772.8205
1694132761.1699998,810.696,819.15753,799.41394,798.20514,837.28937
1694132761.171,806.26373,831.6484,797.8022,789.34064,749.0476
1694132761.171,799.81683,836.08057,798.20514,787.72894,652.3443
1694132761.172,796.5934,788.1319,795.78754,793.7729,810.293
1694132761.172,794.57874,796.99634,795.38464,797.8022,924.3223
1694132761.1729999,793.7729,844.94507,797.8022,790.14655,755.89746
1694132761.1729999,798.60803,835.2747,801.4286,789.34064,658.3883
1694132761.177,804.65204,781.28204,803.8461,808.2784,836.8865
1694132761.177,801.02563,817.9487,800.6227,818.3516,956.55676
1694132761.178,796.1905,862.27106,798.20514,802.6374,757.1062
1694132761.1790001,796.5934,824.3956,799.011,796.5934,683.7729
1694132761.231,797.3993,802.23444,796.5934,803.0403,807.0696
1694132761.232,798.60803,838.9011,794.9817,801.02563,691.8315
1694132761.232,800.6227,834.0659,797.3993,805.4579,602.381
1694132761.233,800.2198,814.7253,796.99634,805.8608,732.9304
1694132761.234,794.9817,815.9341,796.99634,799.011,787.326
1694132761.234,798.20514,799.011,799.41394,799.81683,789.7436
1694132761.2350001,799.41394,805.05493,801.8315,806.26373,767.98535
1694132761.2350001,792.1612,794.17584,802.6374,806.6667,830.84247
1694132761.236,787.72894,759.92676,795.78754,806.26373,1061.3187
1694132761.237,788.5348,819.15753,791.75824,795.78754,846.55676
1694132761.237,797.8022,817.9487,792.96704,786.1172,607.619
1694132761.2380002,796.1905,777.25275,791.75824,788.93774,660.80585
1694132761.288,782.8938,786.9231,792.96704,794.57874,747.8388
1694132761.289,784.90845,791.3553,790.9524,798.60803,795.38464
1694132761.29,791.3553,779.2674,788.5348,798.60803,751.06226
1694132761.2910001,788.93774,755.89746,792.96704,788.1319,820.3663
1694132761.2910001,788.1319,781.685,792.5641,786.9231,943.663
1694132761.292,790.54944,827.619,793.36993,790.9524,788.1319
1694132761.293,790.14655,803.0403,795.78754,798.20514,806.26373
1694132761.293,795.78754,755.89746,792.5641,808.2784,1000.87915
1694132761.2940001,799.41394,795.78754,791.3553,800.2198,971.4652
1694132761.295,794.57874,835.2747,793.36993,790.54944,740.58606
1694132761.299,790.54944,792.1612,794.17584,799.41394,727.6923
1694132761.3,787.72894,779.2674,791.75824,806.26373,781.685
1694132761.328,786.9231,793.7729,788.93774,804.2491,755.09155
1694132761.329,789.7436,790.54944,790.9524,806.26373,666.8498
1694132761.33,790.54944,773.22345,795.38464,809.4872,658.7912
1694132761.331,789.7436,779.67035,791.3553,811.50183,764.35895
1694132761.332,791.3553,806.26373,781.28204,807.8755,819.15753
1694132761.333,794.9817,790.54944,782.8938,801.4286,848.97437
1694132761.334,796.99634,770.0,786.1172,789.7436,850.989
1694132761.335,797.3993,746.2271,786.1172,791.75824,1048.4249
1694132761.336,797.3993,823.1868,786.9231,796.1905,952.52747
1694132761.337,794.17584,845.34796,785.7143,792.96704,693.8461
1694132761.337,794.57874,784.10254,788.5348,801.4286,718.4249
1694132761.3379998,798.60803,791.3553,791.75824,803.44324,738.1685
1694132761.375,801.8315,813.91943,795.78754,794.17584,669.2674
1694132761.376,799.011,792.96704,793.7729,796.1905,670.87915
1694132761.3769999,790.9524,759.12085,790.9524,803.44324,835.2747
1694132761.3769999,789.34064,801.8315,788.5348,805.05493,832.0513
1694132761.3779998,799.41394,813.91943,790.9524,805.8608,749.0476
1694132761.379,805.05493,789.34064,793.36993,798.60803,740.58606
1694132761.379,804.65204,770.0,791.75824,802.23444,902.96704
1694132761.38,801.8315,764.7619,791.75824,827.619,1331.2821
1694132761.38,800.6227,857.4359,792.5641,826.8132,1145.1282
1694132761.381,809.0842,872.74725,797.8022,811.9048,716.8132
1694132761.3820002,811.9048,824.3956,800.2198,805.4579,704.3223
1694132761.3830001,807.47253,840.10986,797.8022,803.8461,650.32965
1694132761.444,803.8461,844.5421,797.3993,800.2198,625.7509
1694132761.445,803.44324,826.8132,801.02563,804.65204,686.5934
1694132761.446,800.2198,825.6044,796.5934,812.3077,723.663
1694132761.447,796.99634,843.73627,793.36993,802.23444,654.7619
1694132761.448,796.1905,851.79486,796.5934,784.10254,631.79486
1694132761.449,798.20514,821.5751,799.41394,792.5641,803.8461
1694132761.4499998,802.6374,815.12823,802.23444,805.05493,1018.60803
1694132761.451,801.02563,866.7033,803.0403,801.4286,840.9158
1694132761.452,800.6227,861.4652,803.8461,798.60803,645.09155
1694132761.4529998,803.8461,833.663,808.2784,803.44324,703.5165
1694132761.4540002,804.2491,839.304,807.47253,815.9341,923.5165
1694132761.4550002,805.05493,883.6264,805.05493,817.5458,817.1429
1694132761.483,802.23444,863.0769,806.6667,807.47253,678.93774
1694132761.485,799.011,813.5165,804.65204,798.20514,752.27106
1694132761.485,799.41394,834.4689,800.6227,791.3553,819.9634
1694132761.486,803.8461,870.32965,798.60803,790.9524,755.4945
1694132761.487,803.8461,844.94507,799.81683,800.6227,718.022
1694132761.487,805.8608,778.86444,796.99634,806.26373,992.8205
1694132761.488,806.26373,808.2784,793.36993,805.4579,1122.1611
1694132761.488,805.8608,878.7912,799.011,796.5934,731.7216
1694132761.4889998,805.8608,837.28937,804.2491,793.7729,612.8571
1694132761.4899998,799.81683,787.326,804.65204,804.2491,827.619
1694132761.4899998,800.2198,817.5458,801.4286,804.65204,782.0879
1694132761.4910002,806.6667,830.0366,797.8022,791.3553,675.31134
1694132761.498,800.6227,811.50183,796.99634,787.326,732.9304
1694132761.499,799.41394,794.17584,799.011,801.02563,831.6484
1694132761.504,791.75824,824.3956,797.8022,803.44324,768.7912
1694132761.504,784.90845,819.5604,797.3993,799.41394,698.2784
1694132761.5049999,790.54944,797.3993,799.41394,795.38464,711.978
1694132761.5059998,796.99634,782.49084,802.23444,797.3993,707.1429
1694132761.5059998,799.011,793.7729,804.65204,806.26373,727.28937
1694132761.507,790.14655,824.3956,801.02563,810.293,707.9487
1694132761.507,788.93774,779.2674,800.6227,808.2784,762.3443
1694132761.508,798.60803,743.4066,801.8315,810.696,1051.2454
1694132761.508,799.41394,826.0073,804.2491,807.0696,863.47986
1694132761.5089998,803.0403,831.2454,809.89014,805.05493,663.6264
1694132761.532,809.0842,782.8938,811.50183,813.91943,729.707
1694132761.532,800.6227,792.96704,807.47253,814.7253,753.0769
1694132761.533,804.2491,802.23444,800.6227,811.50183,796.1905
1694132761.533,820.3663,811.50183,800.6227,802.6374,707.5458
1694132761.5340002,815.5311,778.0586,804.65204,805.4579,784.90845
1694132761.535,805.8608,762.3443,804.2491,821.978,1161.6483
1694132761.536,803.0403,832.0513,805.05493,817.9487,1012.1612
1694132761.537,800.2198,817.1429,806.26373,808.68134,743.00366
1694132761.5379999,806.26373,765.16486,800.6227,811.9048,869.12085
1694132761.539,806.6667,820.3663,796.1905,808.2784,878.3883
1694132761.54,796.99634,845.34796,794.57874,803.44324,694.65204
1694132761.54,796.99634,809.0842,792.96704,803.0403,723.663
1694132761.5900002,802.23444,808.68134,797.3993,791.3553,776.4469
1694132761.591,801.02563,820.3663,795.78754,783.69965,688.60803
1694132761.592,804.65204,816.7399,792.1612,791.3553,639.85345
1694132761.593,803.8461,801.02563,791.3553,799.011,695.05493
1694132761.596,799.41394,792.5641,792.96704,801.02563,840.9158
1694132761.597,799.41394,804.2491,793.36993,801.4286,859.85345
1694132761.598,802.23444,815.12823,792.1612,792.5641,709.9634
1694132761.598,805.8608,805.8608,793.36993,791.75824,701.0989
1694132761.599,803.8461,774.0293,796.99634,811.50183,1083.8828
1694132761.599,798.60803,856.63007,799.011,815.9341,1040.3663
1694132761.6,800.2198,879.19415,800.6227,810.696,747.4359
1694132761.6,802.6374,832.4542,801.02563,809.4872,757.50916
1694132761.6430001,806.26373,857.4359,801.4286,806.26373,742.6007
1694132761.644,803.8461,854.61536,801.4286,809.89014,732.9304
1694132761.645,796.5934,838.0952,804.2491,813.1135,798.20514
1694132761.645,788.93774,830.0366,801.4286,812.71063,889.67035
1694132761.6460001,790.14655,857.4359,796.99634,805.4579,888.0586
1694132761.647,801.02563,862.27106,800.2198,797.8022,766.3736
1694132761.648,800.6227,842.1245,799.011,795.38464,672.0879
1694132761.648,796.1905,799.011,795.38464,800.2198,994.83514
1694132761.649,793.7729,809.0842,792.1612,807.47253,1233.773
1694132761.649,785.7143,887.25275,788.5348,788.93774,796.1905
1694132761.6499999,788.1319,855.0183,791.3553,775.64105,654.7619
1694132761.651,792.1612,823.5897,792.1612,790.9524,740.989
1694132761.6929998,787.326,842.9304,790.9524,802.23444,706.7399
1694132761.6950002,793.7729,828.8278,795.38464,803.44324,724.87177
1694132761.6950002,806.6667,800.2198,798.20514,796.1905,752.674
1694132761.696,801.4286,804.65204,793.36993,788.1319,752.674
1694132761.697,797.3993,813.91943,792.1612,793.36993,738.1685
1694132761.697,792.96704,802.6374,791.3553,795.38464,759.5238
1694132761.701,795.38464,782.49084,787.326,792.96704,841.31866
1694132761.7020001,803.0403,757.50916,789.7436,803.0403,1075.8242
1694132761.703,797.3993,819.5604,791.3553,797.8022,846.55676
1694132761.704,795.38464,809.4872,790.14655,792.96704,612.8571
1694132761.704,794.17584,764.7619,791.3553,803.0403,758.71796
1694132761.705,789.7436,788.5348,791.3553,806.6667,832.4542
1694132761.745,794.17584,796.99634,791.3553,799.011,716.4103
1694132761.747,802.23444,762.3443,798.20514,792.1612,648.315
1694132761.747,800.6227,731.7216,798.60803,795.78754,800.2198
1694132761.748,804.2491,775.2381,795.38464,806.6667,836.4835
1694132761.7489998,802.23444,796.5934,794.9817,809.0842,735.7509
1694132761.7500002,798.60803,755.89746,797.8022,807.0696,757.50916
1694132761.7500002,801.8315,709.5604,794.17584,807.47253,962.6007
1694132761.7510002,801.8315,749.45056,789.34064,807.8755,941.2454
1694132761.752,800.2198,799.011,793.36993,816.7399,672.49084
1694132761.752,805.05493,760.7326,794.9817,823.5897,688.20514
1694132761.753,798.60803,742.1978,788.93774,812.71063,771.2088
1694132761.754,795.78754,746.63007,791.3553,805.4579,737.76556
1694132761.8270001,805.05493,757.9121,794.17584,806.6667,705.5311
1694132761.828,801.8315,752.674,792.5641,805.05493,753.8828
1694132761.829,797.8022,725.6777,792.1612,807.0696,930.3663
1694132761.8300002,798.20514,782.49084,787.72894,796.5934,852.6007
1694132761.831,804.2491,792.1612,789.7436,785.31134,680.54944
1694132761.831,811.50183,742.1978,792.5641,793.7729,775.2381
1694132761.832,797.3993,734.1392,794.17584,801.02563,1006.52014
1694132761.833,782.8938,790.54944,796.99634,792.5641,846.9597
1694132761.84,784.10254,788.5348,796.1905,788.5348,674.10254
1694132761.8409998,784.5055,744.61536,795.38464,782.8938,711.978
1694132761.8419998,788.93774,769.19415,795.38464,784.10254,765.16486
1694132761.8430002,792.96704,803.0403,796.99634,794.57874,746.2271
1694132761.8700001,790.14655,785.31134,798.60803,802.6374,713.9927
1694132761.871,793.7729,757.9121,801.8315,799.81683,772.8205
1694132761.872,801.02563,777.25275,800.6227,794.9817,787.72894
1694132761.872,803.0403,812.3077,800.2198,800.6227,736.9597
1694132761.873,798.60803,821.5751,805.4579,805.05493,686.5934
1694132761.873,790.9524,765.16486,804.65204,807.0696,902.5641
1694132761.8739998,787.326,742.1978,801.8315,819.9634,1329.6703
1694132761.875,790.14655,849.7802,806.6667,817.5458,1029.0842
1694132761.875,794.9817,867.9121,803.8461,799.81683,627.76556
1694132761.876,793.7729,823.5897,794.9817,793.36993,691.8315
1694132761.876,789.34064,835.6777,794.57874,799.011,696.6667
1694132761.8769999,792.1612,830.4396,795.78754,802.23444,682.5641
1694132761.884,794.9817,809.0842,795.38464,799.011,686.99634
1694132761.8860002,799.011,806.26373,794.17584,793.7729,686.5934
1694132761.8860002,801.4286,827.619,792.1612,790.54944,660.40295
1694132761.887,794.9817,824.3956,794.9817,790.54944,652.3443
1694132761.888,792.1612,799.81683,796.1905,793.7729,726.8865
1694132761.888,792.1612,801.02563,794.57874,788.93774,843.73627
1694132761.889,799.41394,821.5751,799.011,786.9231,833.663
1694132761.889,804.65204,832.0513,801.8315,792.96704,718.8278
1694132761.8899999,800.2198,816.7399,801.02563,805.4579,720.84247
1694132761.8899999,802.23444,775.2381,802.6374,816.7399,1082.674
1694132761.894,804.65204,845.7509,805.4579,799.41394,974.2857
1694132761.894,800.2198,860.2564,804.2491,782.0879,665.2381
1694132761.928,798.60803,811.50183,806.26373,794.57874,697.0696
1694132761.9299998,799.81683,811.9048,806.26373,803.8461,730.9158
1694132761.931,801.4286,807.47253,805.05493,802.6374,730.5128
1694132761.932,802.6374,816.337,803.0403,797.3993,691.02563
1694132761.932,804.2491,775.64105,799.41394,794.9817,775.64105
1694132761.9329998,805.4579,779.67035,796.5934,795.38464,866.30035
1694132761.9329998,798.60803,813.1135,799.011,796.99634,788.93774
1694132761.934,797.3993,817.5458,804.65204,811.9048,734.1392
1694132761.934,803.8461,753.0769,806.26373,816.337,997.25275
1694132761.9350002,810.696,759.12085,807.8755,806.6667,1161.2454
1694132761.9350002,808.68134,841.31866,802.6374,796.1905,757.50916
1694132761.936,799.41394,809.89014,794.57874,799.81683,654.7619
1694132761.9910002,798.20514,789.34064,792.1612,805.8608,743.4066
1694132761.992,802.23444,819.5604,795.78754,803.0403,697.8755
1694132761.993,805.05493,817.1429,794.17584,800.6227,652.74725
1694132761.994,799.011,790.14655,796.1905,798.60803,639.45056
1694132761.994,796.1905,790.9524,794.9817,790.54944,765.16486
1694132761.9950001,796.1905,801.8315,794.57874,792.5641,811.0989
1694132761.996,789.7436,803.0403,797.3993,792.96704,746.63007
1694132761.996,791.75824,796.99634,797.8022,783.2967,803.8461
1694132761.997,800.2198,771.6117,799.011,790.9524,1058.9011
1694132761.997,799.011,835.6777,796.1905,798.60803,891.685
1694132761.9980001,795.38464,832.8571,797.8022,801.4286,719.2308
1694132761.999,800.2198,784.10254,805.4579,804.2491,859.45056
1694132762.035,807.47253,817.5458,806.26373,798.20514,798.60803
1694132762.036,812.71063,820.3663,805.05493,795.38464,707.1429
1694132762.037,812.71063,792.5641,807.8755,803.0403,776.4469
1694132762.037,803.0403,788.93774,810.293,811.9048,879.59705
1694132762.038,801.8315,821.5751,812.3077,809.89014,919.0842
1694132762.038,807.47253,818.3516,809.89014,799.011,822.381
1694132762.039,807.0696,793.7729,810.696,796.5934,678.93774
1694132762.04,806.6667,773.22345,809.89014,800.2198,870.7326
1694132762.04,804.65204,813.91943,807.0696,804.2491,1027.8755
1694132762.041,798.60803,849.7802,809.4872,796.1905,753.47986
1694132762.0419998,801.02563,807.0696,810.293,790.9524,691.8315
1694132762.0419998,801.4286,802.6374,801.8315,783.2967,721.2454
1694132762.076,797.8022,812.71063,799.41394,786.1172,680.14655
1694132762.077,794.17584,797.8022,799.81683,794.57874,737.3626
1694132762.078,794.17584,775.2381,795.78754,788.1319,788.1319
1694132762.079,793.36993,779.67035,796.99634,786.1172,854.21246
1694132762.08,792.1612,815.5311,800.6227,783.2967,748.24176
1694132762.08,790.54944,805.4579,802.6374,778.86444,648.315
1694132762.0809999,784.10254,787.72894,803.8461,789.7436,831.2454
1694132762.0819998,785.7143,764.7619,807.0696,806.6667,1077.033
1694132762.0819998,780.07324,823.1868,803.0403,802.6374,867.1062
1694132762.0830002,784.10254,828.022,798.20514,794.9817,649.5238
1694132762.084,800.2198,782.8938,796.5934,793.36993,657.1795
1694132762.084,799.011,805.4579,795.78754,793.7729,695.8608
1694132762.12,795.78754,816.7399,798.60803,800.2198,717.2161
1694132762.121,799.011,788.5348,799.41394,794.9817,688.60803
1694132762.125,805.8608,759.92676,801.02563,793.36993,850.58606
1694132762.1260002,811.50183,795.78754,799.41394,802.6374,884.83514
1694132762.127,811.0989,826.0073,797.8022,803.8461,763.1502
1694132762.127,802.6374,815.12823,797.8022,800.6227,801.4286
1694132762.128,799.41394,767.5824,791.75824,799.011,1064.9451
1694132762.128,806.6667,770.80585,789.7436,796.1905,1215.641
1694132762.129,809.4872,854.61536,789.7436,788.1319,808.68134
1694132762.129,805.05493,829.6337,790.14655,782.49084,636.63007
1694132762.1299999,800.2198,796.1905,794.57874,791.3553,768.3883
1694132762.131,805.4579,818.7546,793.36993,800.6227,743.00366
1694132762.16,815.9341,811.0989,792.1612,795.38464,674.90845
1694132762.161,811.0989,786.1172,795.38464,788.93774,670.87915
1694132762.162,798.60803,784.5055,795.78754,790.9524,705.5311
1694132762.163,799.011,809.0842,797.3993,804.2491,737.3626
1694132762.163,801.8315,806.26373,802.23444,814.7253,721.2454
1694132762.164,807.47253,770.0,804.65204,811.0989,840.9158
1694132762.1660001,818.3516,751.8681,801.8315,807.47253,1106.8499
1694132762.167,813.1135,808.68134,799.41394,809.0842,895.7143
1694132762.168,801.8315,832.4542,800.6227,807.8755,669.67035
1694132762.169,798.60803,779.2674,799.81683,809.0842,759.92676
1694132762.169,797.3993,776.04395,801.4286,813.5165,871.9414
1694132762.1699998,791.75824,818.7546,800.6227,799.41394,733.73627
1694132762.211,790.54944,806.6667,794.9817,793.36993,577.8022
1694132762.212,796.99634,769.19415,799.011,810.696,693.8461
1694132762.2129998,789.34064,776.4469,802.23444,817.9487,834.87177
1694132762.2140002,791.3553,804.65204,798.60803,804.65204,742.1978
1694132762.219,807.0696,804.65204,795.78754,790.54944,645.09155
1694132762.22,806.26373,747.03296,792.1612,788.93774,922.3077
1694132762.221,802.23444,736.9597,790.54944,800.6227,1282.1245
1694132762.221,798.20514,822.381,785.31134,799.011,910.6227
1694132762.2220001,798.60803,791.75824,780.4762,790.9524,679.7436
1694132762.223,800.6227,732.52747,783.2967,793.7729,906.5934
1694132762.224,799.011,792.1612,786.9231,795.38464,800.6227
1694132762.224,793.36993,814.3223,786.9231,793.7729,667.6557
1694132762.288,791.75824,774.43225,786.9231,799.81683,699.4872
1694132762.289,794.57874,774.83514,791.3553,805.05493,713.1868
1694132762.29,796.99634,810.293,793.7729,799.41394,656.77655
1694132762.2910001,799.41394,812.3077,791.3553,796.99634,607.619
1694132762.292,800.2198,800.2198,792.1612,798.20514,640.2564
1694132762.292,800.6227,797.8022,792.5641,805.8608,788.5348
1694132762.293,801.8315,816.337,793.36993,807.47253,914.2491
1694132762.2940001,805.8608,838.49817,796.5934,797.3993,731.31866
1694132762.2940001,812.71063,808.68134,801.8315,801.4286,663.22345
1694132762.295,817.5458,783.69965,807.0696,821.1722,973.47986
1694132762.296,809.0842,855.42126,805.8608,814.7253,880.0
1694132762.296,802.6374,843.73627,804.65204,803.44324,721.6484
1694132762.3270001,803.44324,810.696,803.0403,800.2198,794.17584
1694132762.328,801.8315,822.7839,803.0403,799.011,777.6557
1694132762.329,805.05493,825.6044,805.8608,805.8608,761.9414
1694132762.329,798.60803,838.9011,805.05493,808.2784,724.0659
1694132762.33,791.75824,800.6227,805.05493,805.8608,819.5604
1694132762.331,797.8022,811.0989,806.6667,798.60803,893.2967
1694132762.335,799.81683,853.8095,807.8755,792.5641,749.85345
1694132762.336,796.99634,850.18317,807.0696,797.8022,688.20514
1694132762.337,796.99634,795.38464,805.4579,809.4872,921.0989
1694132762.337,790.14655,836.08057,803.8461,809.0842,1035.1282
1694132762.3379998,787.326,888.46155,803.44324,792.1612,760.32965
1694132762.339,805.8608,848.1685,806.26373,792.1612,662.01465
1694132762.346,810.293,842.9304,808.2784,801.8315,715.2015
1694132762.3470001,795.78754,848.5714,805.05493,808.68134,724.4689
1694132762.348,793.36993,824.7985,803.0403,804.65204,749.85345
1694132762.349,804.2491,810.293,801.8315,802.23444,780.4762
1694132762.349,803.44324,829.6337,799.41394,800.2198,837.6923
1694132762.3500001,795.78754,848.1685,801.02563,798.60803,785.31134
1694132762.351,799.011,841.31866,803.0403,803.44324,760.7326
1694132762.351,800.2198,828.4249,803.8461,803.0403,799.81683
1694132762.352,801.8315,803.0403,806.6667,803.8461,1005.31134
1694132762.353,798.20514,865.4945,805.05493,792.5641,853.00366
1694132762.353,795.38464,865.09155,804.2491,786.52014,631.79486
1694132762.3539999,796.99634,819.5604,800.6227,788.93774,711.978
1694132762.388,793.36993,839.304,794.9817,783.2967,733.73627
1694132762.389,793.36993,829.2308,794.9817,782.49084,706.7399
1694132762.39,793.36993,813.1135,796.5934,790.14655,693.8461
1694132762.391,797.3993,811.0989,798.20514,796.5934,778.46155
1694132762.392,797.8022,834.0659,801.02563,802.23444,901.75824
1694132762.392,792.5641,846.55676,800.6227,800.2198,775.2381
1694132762.393,796.1905,821.1722,802.6374,799.41394,767.5824
1694132762.3939998,800.2198,797.3993,802.6374,807.8755,965.42126
1694132762.3980002,801.8315,838.0952,800.2198,804.65204,886.4469
1694132762.3990002,796.1905,861.06226,803.44324,797.8022,671.685
1694132762.3990002,790.9524,819.9634,802.23444,793.7729,691.4286
1694132762.4,789.34064,750.65936,797.8022,794.57874,967.4359
1694132762.428,794.17584,802.6374,798.60803,797.8022,979.12085
1694132762.429,799.81683,859.45056,797.8022,793.36993,694.2491
1694132762.429,793.7729,811.50183,799.41394,795.78754,682.1612
1694132762.43,792.96704,809.4872,799.41394,796.5934,738.5714
1694132762.431,794.57874,809.0842,801.4286,795.78754,755.09155
1694132762.431,790.9524,781.28204,802.6374,790.54944,719.6337
1694132762.432,796.99634,764.7619,803.0403,788.93774,826.0073
1694132762.432,800.6227,738.5714,805.8608,803.44324,1153.1868
1694132762.4329998,793.7729,805.8608,806.26373,805.4579,974.68866
1694132762.4329998,788.5348,819.9634,802.23444,792.1612,722.8571
1694132762.4339998,790.9524,755.09155,796.5934,784.90845,730.10986
1694132762.4339998,788.5348,765.9707,797.8022,780.87915,672.0879
1694132762.4910002,786.9231,787.326,801.8315,782.8938,659.59705
1694132762.492,785.7143,770.0,806.26373,794.9817,692.6374
1694132762.493,786.52014,749.45056,804.65204,802.6374,823.9927
1694132762.493,795.78754,790.9524,802.6374,797.8022,855.82416
1694132762.4940002,794.9817,805.8608,805.4579,788.93774,696.6667
1694132762.4950001,791.3553,776.4469,804.2491,784.5055,676.1172
1694132762.4950001,792.96704,747.03296,803.8461,790.14655,1027.0696
1694132762.496,797.8022,759.92676,804.2491,801.02563,1253.9194
1694132762.497,800.6227,840.5128,799.81683,796.5934,846.1539
1694132762.499,806.26373,815.5311,796.5934,788.93774,667.25275
1694132762.5049999,805.8608,771.2088,797.8022,792.96704,866.30035
1694132762.5059998,792.5641,813.1135,796.5934,796.99634,812.71063
1694132762.542,793.7729,831.2454,794.17584,799.81683,738.5714
1694132762.543,800.6227,805.05493,791.75824,799.011,816.7399
1694132762.544,796.99634,801.8315,788.5348,791.3553,840.5128
1694132762.5449998,794.17584,837.28937,792.1612,794.17584,755.09155
1694132762.5459998,792.1612,839.707,792.96704,790.14655,697.47253
1694132762.5470002,796.1905,799.41394,791.3553,793.7729,828.022
1694132762.5470002,804.2491,776.4469,790.9524,811.9048,1120.9524
1694132762.548,805.8608,848.5714,793.36993,802.23444,892.8938
1694132762.548,807.0696,859.45056,799.011,790.9524,631.39197
1694132762.549,799.41394,821.1722,799.41394,790.9524,682.1612
1694132762.5500002,795.38464,848.97437,798.20514,793.7729,797.8022
1694132762.5500002,794.9817,861.4652,799.011,791.3553,775.2381
1694132762.5779998,793.7729,839.707,795.78754,780.07324,630.58606
1694132762.58,799.011,817.5458,798.60803,788.5348,807.0696
1694132762.5809999,799.011,834.87177,802.6374,802.6374,991.6117
1694132762.582,797.3993,877.5824,803.44324,802.6374,793.36993
1694132762.584,800.2198,860.65936,801.02563,796.99634,722.0513
1694132762.584,799.81683,812.3077,795.78754,790.14655,859.45056
1694132762.585,801.02563,830.4396,792.96704,788.1319,788.93774
1694132762.5870001,803.8461,871.13556,796.1905,798.20514,654.35895
1694132762.588,797.3993,857.03296,802.23444,805.05493,665.64105
1694132762.589,793.7729,781.28204,804.2491,809.0842,886.8498
1694132762.5900002,797.3993,796.5934,803.0403,804.2491,1081.0623
1694132762.591,796.1905,880.0,808.2784,792.5641,788.93774
1694132762.626,795.38464,844.5421,811.9048,798.60803,665.2381
1694132762.627,792.96704,811.9048,808.68134,807.0696,769.19415
1694132762.628,788.5348,834.4689,805.4579,794.9817,764.35895
1694132762.628,797.8022,820.3663,803.44324,782.8938,733.3333
1694132762.629,798.60803,790.54944,801.8315,786.52014,762.74725
1694132762.629,792.5641,771.2088,800.6227,794.57874,983.95605
1694132762.63,803.44324,805.4579,802.6374,801.8315,871.53845
1694132762.631,805.4579,823.9927,802.23444,805.05493,677.326
1694132762.631,804.65204,781.28204,803.44324,799.41394,739.3773
1694132762.632,809.0842,751.8681,803.44324,802.6374,922.3077
1694132762.633,797.8022,810.293,803.0403,798.20514,757.1062
1694132762.6339998,787.72894,805.4579,800.6227,795.38464,653.1502
1694132762.6569998,790.9524,765.16486,796.5934,799.41394,743.4066
1694132762.6579998,796.99634,774.0293,797.3993,796.5934,757.9121
1694132762.6590002,799.011,780.87915,798.60803,788.5348,736.55676
1694132762.6590002,799.81683,791.75824,792.96704,782.0879,684.9817
1694132762.66,795.38464,751.8681,788.1319,786.9231,814.7253
1694132762.661,792.1612,750.2564,787.326,796.5934,954.5421
1694132762.661,792.5641,778.46155,787.326,791.3553,886.8498
1694132762.6620002,794.17584,769.59705,787.72894,780.4762,791.3553
1694132762.663,796.5934,725.6777,787.326,785.31134,918.68134
1694132762.663,795.78754,738.1685,788.5348,797.8022,1121.3553
1694132762.664,795.38464,814.3223,791.75824,798.20514,837.6923
1694132762.664,800.6227,782.8938,789.7436,786.9231,698.2784
1694132762.7,800.2198,746.2271,784.90845,781.28204,722.0513
1694132762.701,799.011,772.01465,785.7143,783.69965,678.5348
1694132762.705,800.6227,773.6264,790.9524,788.1319,720.4396
1694132762.7059999,797.3993,749.45056,791.75824,790.14655,784.5055
1694132762.7059999,796.5934,752.27106,788.1319,787.326,798.20514
1694132762.707,802.23444,751.4652,786.1172,785.31134,787.326
1694132762.708,799.011,760.32965,788.93774,786.52014,755.09155
1694132762.708,792.5641,757.50916,790.9524,789.34064,734.5421
1694132762.7089999,790.54944,721.6484,787.72894,801.8315,1084.6886
1694132762.7089999,790.9524,789.7436,790.54944,792.96704,1031.5018
1694132762.7089999,796.5934,808.68134,793.36993,787.326,721.6484
1694132762.71,797.3993,755.4945,793.7729,799.81683,746.63007
1694132762.756,792.5641,778.86444,794.57874,801.8315,793.36993
1694132762.756,793.36993,792.1612,797.3993,811.0989,770.40295
1694132762.757,795.78754,765.16486,793.7729,811.50183,776.4469
1694132762.7580001,797.3993,759.12085,793.36993,794.57874,775.64105
1694132762.7580001,803.0403,801.02563,795.78754,784.10254,811.9048
1694132762.759,801.8315,802.23444,793.7729,778.0586,763.5531
1694132762.759,792.1612,778.86444,794.9817,780.87915,750.65936
1694132762.76,791.3553,757.50916,795.78754,789.7436,926.7399
1694132762.76,793.7729,794.57874,792.96704,790.54944,950.9158
1694132762.761,792.5641,843.73627,792.1612,782.0879,696.26373
1694132762.761,795.78754,804.2491,788.5348,784.10254,678.1319
1694132762.7619998,794.9817,781.28204,785.7143,795.78754,857.03296
1694132762.794,789.34064,799.011,789.34064,792.96704,823.5897
1694132762.795,788.5348,805.4579,791.3553,788.93774,685.78754
1694132762.796,793.36993,774.43225,792.96704,793.7729,724.0659
1694132762.796,799.011,764.35895,796.1905,797.8022,870.32965
1694132762.8,802.23444,810.696,799.81683,806.6667,861.8681
1694132762.8009999,798.60803,797.8022,798.60803,808.2784,793.36993
1694132762.8019998,797.3993,777.25275,793.7729,801.4286,866.30035
1694132762.8019998,807.47253,761.53845,795.78754,802.6374,1108.4615
1694132762.803,800.6227,830.84247,796.99634,802.6374,901.3553
1694132762.803,789.34064,853.4066,797.3993,802.6374,695.4579
1694132762.804,794.9817,802.6374,797.8022,803.44324,785.31134
1694132762.8049998,799.011,810.293,796.5934,798.20514,786.9231
1694132762.8460002,797.3993,814.7253,794.9817,788.93774,696.6667
1694132762.8470001,801.02563,800.2198,795.78754,788.93774,656.77655
1694132762.848,803.8461,784.90845,800.6227,799.41394,864.2857
1694132762.849,795.38464,811.0989,802.23444,809.0842,977.1062
1694132762.849,790.9524,844.1392,798.60803,801.02563,740.58606
1694132762.85,791.3553,817.9487,795.78754,789.7436,668.46155
1694132762.851,794.9817,776.04395,799.41394,801.02563,967.4359
1694132762.851,802.23444,786.9231,796.99634,811.50183,1162.8572
1694132762.852,800.2198,863.47986,794.57874,799.41394,790.54944
1694132762.853,803.0403,833.2601,795.78754,791.75824,643.47986
1694132762.853,804.2491,791.3553,792.96704,780.07324,703.1135
1694132762.854,802.23444,813.5165,788.5348,773.6264,635.82416
1694132762.8990002,795.38464,811.9048,787.72894,780.4762,607.619
1694132762.9,789.34064,792.5641,795.38464,790.9524,669.2674
1694132762.901,793.36993,800.6227,798.60803,799.011,776.4469
1694132762.9020002,788.5348,813.5165,794.9817,792.96704,717.619
1694132762.903,790.9524,801.8315,798.60803,790.54944,639.85345
1694132762.903,794.57874,777.6557,801.8315,792.1612,794.9817
1694132762.909,794.9817,746.2271,802.23444,802.6374,1218.4615
1694132762.91,795.38464,823.5897,798.60803,806.26373,1030.6959
1694132762.91,790.54944,847.3626,796.5934,790.14655,640.65936
1694132762.911,788.93774,792.1612,800.2198,780.87915,644.2857
1694132762.912,789.34064,803.0403,797.8022,789.7436,691.4286
1694132762.912,792.1612,816.337,800.2198,799.41394,695.8608
1694132762.9390001,797.3993,809.89014,802.6374,801.8315,687.3993
1694132762.94,802.23444,780.87915,801.02563,800.2198,732.1245
1694132762.94,803.44324,788.5348,805.05493,799.81683,743.8095
1694132762.941,799.011,826.0073,806.6667,806.6667,720.84247
1694132762.9420002,796.99634,824.3956,807.0696,808.68134,666.4469
1694132762.943,793.7729,755.89746,802.6374,793.7729,838.9011
1694132762.943,792.5641,746.63007,799.81683,784.5055,1102.0146
1694132762.944,798.60803,829.2308,800.2198,787.72894,838.0952
1694132762.945,796.5934,824.3956,796.99634,798.60803,646.30035
1694132762.945,789.7436,765.56775,797.3993,811.50183,838.9011
1694132762.9459999,792.96704,810.293,796.99634,809.0842,849.7802
1694132762.947,799.011,831.6484,796.1905,800.6227,670.87915
1694132762.985,799.81683,792.5641,794.17584,792.1612,662.4176
1694132762.9859998,799.41394,799.011,790.9524,789.7436,707.9487
1694132762.987,794.57874,820.3663,787.326,794.17584,726.8865
1694132762.9889998,798.60803,815.12823,790.14655,800.6227,718.4249
1694132762.99,798.60803,791.75824,795.78754,797.3993,715.2015
1694132762.9910002,794.57874,785.7143,797.8022,785.31134,784.90845
1694132762.993,795.38464,802.23444,796.1905,781.685,835.2747
1694132762.994,791.3553,825.6044,794.17584,780.87915,750.2564
1694132762.999,793.36993,790.54944,797.3993,791.75824,772.8205
1694132763.0,792.5641,745.0183,798.20514,798.20514,1094.762
1694132763.003,792.96704,825.6044,798.60803,792.96704,961.39197
1694132763.004,792.96704,847.3626,799.41394,790.14655,716.4103
1694132763.05,792.96704,803.44324,796.99634,794.9817,755.4945
1694132763.051,792.1612,802.23444,793.7729,800.6227,813.1135
1694132763.053,789.7436,811.0989,793.36993,798.20514,878.7912
1694132763.0540001,796.99634,828.022,796.1905,802.23444,745.82416
1694132763.055,805.8608,782.0879,794.9817,807.47253,747.4359
1694132763.056,807.8755,754.68866,792.96704,811.50183,1189.0476
1694132763.056,801.8315,846.55676,791.75824,805.8608,1078.6447
1694132763.057,796.5934,864.2857,791.3553,796.99634,736.9597
1694132763.0579998,794.57874,802.6374,785.7143,792.1612,833.2601
1694132763.0579998,800.2198,838.49817,783.69965,783.2967,778.86444
1694132763.059,804.2491,854.21246,790.54944,785.7143,639.45056
1694132763.06,805.05493,819.5604,792.5641,796.99634,707.5458
1694132763.129,805.4579,813.5165,790.9524,798.60803,782.49084
1694132763.1299999,803.8461,846.55676,792.1612,790.14655,729.304
1694132763.131,806.26373,857.8388,793.36993,785.31134,661.6117
1694132763.131,803.8461,829.6337,792.1612,789.34064,709.5604
1694132763.132,796.99634,822.381,792.5641,793.7729,834.4689
1694132763.132,794.17584,838.49817,792.5641,785.31134,834.4689
1694132763.133,798.60803,834.0659,792.5641,784.5055,736.1539
1694132763.134,803.44324,823.1868,795.38464,791.75824,712.7839
1694132763.134,803.44324,799.41394,797.3993,802.6374,1012.1612
1694132763.135,797.3993,867.50916,796.5934,804.2491,938.8278
1694132763.14,800.2198,876.77655,794.17584,792.5641,718.4249
1694132763.141,811.50183,825.6044,796.99634,789.7436,724.4689
1694132763.1660001,811.9048,846.9597,797.8022,792.96704,711.978
1694132763.167,809.89014,836.8865,799.011,801.02563,683.36993
1694132763.168,809.89014,816.337,801.4286,806.26373,687.3993
1694132763.168,806.26373,803.44324,796.99634,805.05493,865.09155
1694132763.169,804.2491,813.91943,796.5934,805.8608,1018.20514
1694132763.1699998,802.6374,848.1685,795.78754,791.75824,778.46155
1694132763.1699998,795.78754,831.6484,792.96704,788.5348,665.64105
1694132763.171,792.5641,796.1905,792.96704,806.26373,899.7436
1694132763.171,790.14655,834.87177,790.9524,812.3077,1029.8901
1694132763.172,794.9817,877.98535,788.5348,796.5934,770.40295
1694132763.172,803.44324,837.28937,794.9817,795.38464,713.9927
1694132763.1729999,806.26373,818.7546,801.4286,799.41394,745.82416
1694132763.18,800.6227,839.707,800.2198,801.4286,728.49817
1694132763.181,794.9817,846.9597,797.3993,805.05493,782.49084
1694132763.1820002,802.6374,823.9927,799.81683,803.8461,776.8498
1694132763.1820002,809.4872,823.5897,802.23444,799.41394,735.34796
1694132763.183,805.4579,840.9158,799.011,794.17584,680.14655
1694132763.184,795.38464,818.3516,795.78754,797.3993,707.9487
1694132763.184,790.14655,802.6374,795.78754,801.4286,858.24176
1694132763.185,790.14655,813.1135,799.81683,798.60803,900.9524
1694132763.185,794.57874,836.08057,801.8315,796.5934,772.4176
1694132763.1859999,797.8022,835.2747,805.4579,798.20514,660.0
1694132763.1859999,797.8022,792.96704,805.05493,804.2491,718.8278
1694132763.187,796.99634,761.9414,799.41394,818.3516,1079.8535
1694132763.212,791.3553,845.34796,793.7729,809.4872,957.3626
1694132763.2129998,798.60803,844.1392,790.54944,787.72894,634.61536
1694132763.2140002,802.23444,786.1172,790.14655,786.52014,780.07324
1694132763.2140002,790.54944,825.2015,794.57874,792.5641,853.4066
1694132763.2150002,788.5348,842.1245,796.1905,796.5934,736.9597
1694132763.2150002,791.75824,806.26373,792.5641,793.7729,745.82416
1694132763.2150002,796.99634,767.98535,794.17584,790.9524,931.5751
1694132763.216,799.81683,787.326,796.99634,796.1905,1042.7839
1694132763.216,797.3993,852.1978,799.81683,794.17584,780.87915
1694132763.217,794.17584,829.2308,797.3993,793.7729,711.5751
1694132763.217,791.3553,780.07324,796.1905,788.5348,832.8571
1694132763.218,790.14655,811.50183,801.8315,781.685,738.5714
1694132763.283,796.99634,826.4103,801.8315,780.87915,583.0403
1694132763.2849998,803.0403,807.8755,800.6227,783.69965,629.7802
1694132763.286,797.3993,809.89014,798.20514,793.7729,713.9927
1694132763.286,791.3553,821.1722,793.7729,797.8022,732.9304
1694132763.2870002,792.96704,813.91943,791.75824,792.96704,669.2674
1694132763.288,794.57874,777.25275,791.3553,792.96704,730.9158
1694132763.289,792.5641,772.4176,791.75824,799.81683,997.25275
1694132763.29,794.57874,836.08057,793.36993,796.1905,866.7033
1694132763.2910001,797.3993,832.8571,796.99634,798.20514,710.3663
1694132763.292,800.2198,792.1612,798.20514,796.5934,744.61536
1694132763.293,802.6374,802.6374,796.99634,792.1612,768.3883
1694132763.2940001,801.02563,818.3516,792.1612,793.7729,744.61536
1694132763.32,799.011,828.022,795.78754,798.20514,644.2857
1694132763.3209999,796.1905,789.34064,800.2198,804.65204,793.36993
1694132763.3260002,796.5934,786.9231,799.41394,807.47253,1056.8865
1694132763.3270001,799.81683,836.8865,800.6227,803.8461,776.4469
1694132763.3270001,802.23444,821.1722,801.02563,802.23444,604.3956
1694132763.328,803.44324,765.56775,797.8022,803.8461,859.85345
1694132763.328,799.011,788.5348,795.38464,807.8755,1004.10254
1694132763.329,794.9817,842.52747,796.1905,804.2491,741.79486
1694132763.329,804.2491,811.9048,794.9817,795.38464,624.94507
1694132763.33,811.50183,772.8205,796.99634,794.57874,789.7436
1694132763.33,800.6227,819.15753,797.8022,795.78754,786.9231
1694132763.331,793.7729,837.28937,795.78754,792.1612,689.41394
1694132763.369,796.5934,800.6227,794.17584,796.99634,727.6923
1694132763.37,798.20514,787.326,795.78754,791.3553,745.0183
1694132763.37,796.99634,818.7546,799.011,778.46155,723.663
1694132763.371,792.1612,833.663,801.4286,793.36993,705.5311
1694132763.371,792.5641,803.44324,802.6374,805.4579,757.9121
1694132763.372,791.75824,790.14655,797.8022,805.05493,880.80585
1694132763.373,791.3553,812.71063,792.5641,797.3993,804.65204
1694132763.373,791.3553,836.4835,789.34064,784.5055,653.95605
1694132763.374,796.1905,811.9048,791.75824,791.3553,708.3516
1694132763.374,800.2198,762.74725,798.60803,807.47253,1089.1208
1694132763.375,795.38464,832.8571,799.011,793.7729,1033.5165
1694132763.376,791.3553,848.97437,791.3553,784.10254,720.84247
1694132763.424,794.17584,803.8461,788.93774,790.9524,708.3516
1694132763.425,796.1905,802.23444,790.54944,791.75824,751.8681
1694132763.4259999,788.5348,805.05493,786.52014,798.20514,803.44324
1694132763.4259999,786.52014,823.1868,788.1319,794.57874,725.2747
1694132763.43,797.8022,776.4469,793.7729,786.52014,875.9707
1694132763.431,797.3993,768.7912,795.78754,787.326,1117.7289
1694132763.432,792.1612,857.4359,796.5934,780.87915,918.2784
1694132763.4329998,792.5641,861.06226,792.96704,782.49084,756.7033
1694132763.4329998,795.38464,786.1172,789.7436,793.36993,904.57874
1694132763.4339998,800.6227,827.2161,792.96704,792.5641,885.2381
1694132763.4350002,803.44324,863.0769,794.57874,788.93774,657.1795
1694132763.4350002,807.8755,815.12823,798.20514,800.2198,706.7399
1694132763.465,797.3993,815.12823,801.8315,805.05493,828.022
1694132763.4659998,781.685,836.8865,798.20514,798.20514,783.2967
1694132763.4659998,784.90845,836.8865,797.8022,796.99634,693.8461
1694132763.467,791.75824,820.7692,799.41394,794.9817,683.36993
1694132763.468,794.9817,820.3663,801.8315,798.60803,690.2198
1694132763.468,792.96704,815.5311,801.4286,799.81683,787.326
1694132763.4689999,789.7436,822.381,799.41394,799.011,857.03296
1694132763.47,786.1172,808.68134,797.3993,792.5641,793.36993
1694132763.47,794.57874,772.8205,796.5934,791.75824,1048.4249
1694132763.471,803.44324,850.18317,799.011,793.7729,993.22345
1694132763.472,792.5641,863.0769,800.2198,795.38464,730.9158
1694132763.472,793.36993,807.47253,799.41394,806.26373,758.315
1694132763.514,801.4286,824.3956,796.5934,798.60803,745.42126
1694132763.515,799.011,821.5751,794.9817,781.685,709.9634
1694132763.516,805.05493,805.05493,793.7729,782.49084,678.1319
1694132763.517,807.8755,803.44324,790.9524,784.90845,751.06226
1694132763.519,800.6227,829.6337,792.5641,793.7729,853.4066
1694132763.52,801.02563,830.84247,795.38464,801.02563,775.2381
1694132763.5249999,810.696,808.68134,797.3993,793.7729,687.3993
1694132763.526,811.50183,779.67035,800.2198,796.5934,807.0696
1694132763.527,805.05493,807.0696,799.011,809.4872,929.15753
1694132763.528,794.57874,836.8865,799.41394,804.2491,728.9011
1694132763.528,792.5641,797.3993,794.57874,794.9817,709.5604
1694132763.529,804.65204,776.4469,796.5934,794.17584,821.5751
1694132763.5939999,807.47253,823.5897,801.02563,791.3553,714.7985
1694132763.595,805.8608,828.4249,800.2198,785.31134,624.5421
1694132763.596,802.23444,794.17584,798.20514,786.9231,703.1135
1694132763.597,801.8315,806.26373,794.57874,795.38464,768.3883
1694132763.597,805.4579,809.0842,793.7729,798.20514,757.1062
1694132763.598,807.0696,789.7436,796.99634,798.20514,778.46155
1694132763.599,810.293,772.8205,799.41394,802.23444,897.72894
1694132763.599,807.47253,755.09155,801.8315,813.5165,1090.3297
1694132763.6,808.68134,823.9927,804.2491,807.8755,887.6557
1694132763.6009998,807.47253,825.2015,802.23444,792.1612,674.90845
1694132763.6019998,802.23444,779.67035,801.4286,794.57874,687.8022
1694132763.6030002,803.8461,790.14655,797.8022,801.02563,681.3553
1694132763.649,801.4286,793.36993,794.57874,797.3993,724.0659
1694132763.651,794.9817,791.75824,795.78754,791.3553,686.1905
1694132763.652,797.3993,762.3443,796.99634,783.2967,816.7399
1694132763.654,800.2198,789.7436,801.8315,786.52014,921.50183
1694132763.655,792.96704,814.3223,803.44324,792.5641,718.022
1694132763.656,792.1612,781.28204,801.8315,796.99634,717.2161
1694132763.6579998,792.5641,738.1685,801.02563,802.6374,1064.9451
1694132763.6590002,792.5641,725.6777,801.4286,801.02563,1261.1721
1694132763.664,794.57874,815.9341,805.4579,792.1612,886.4469
1694132763.665,793.7729,804.65204,804.2491,785.31134,667.6557
1694132763.666,791.3553,765.56775,801.8315,791.3553,742.6007
1694132763.667,792.1612,794.57874,802.6374,802.23444,695.8608
1694132763.708,799.41394,799.41394,799.81683,799.81683,642.27106
1694132763.7089999,802.23444,784.90845,796.5934,796.99634,653.95605
1694132763.71,802.23444,768.7912,798.60803,802.6374,753.47986
1694132763.711,793.36993,796.5934,799.011,805.4579,814.3223
1694132763.711,791.3553,813.91943,799.81683,803.0403,742.1978
1694132763.712,799.011,777.6557,799.41394,799.41394,779.67035
1694132763.7129998,802.6374,737.3626,798.20514,801.4286,1121.3553
1694132763.7129998,807.0696,822.381,800.2198,794.9817,1033.5165
1694132763.714,809.0842,868.315,799.011,790.9524,657.98535
1694132763.714,804.2491,813.91943,796.5934,803.0403,686.5934
1694132763.7150002,792.5641,823.5897,793.36993,800.6227,763.1502
1694132763.716,795.38464,833.663,794.17584,787.72894,718.022
1694132763.717,800.2198,822.7839,793.36993,786.1172,661.2088
1694132763.7180002,797.8022,800.2198,793.36993,795.38464,767.1795
1694132763.719,804.65204,809.4872,793.7729,798.60803,861.8681
1694132763.719,809.89014,847.3626,787.72894,791.75824,763.95605
1694132763.72,805.4579,835.2747,787.326,786.9231,703.91943
1694132763.72,802.6374,795.78754,792.1612,789.34064,860.65936
1694132763.721,794.9817,817.9487,794.17584,793.36993,886.04395
1694132763.722,790.9524,842.1245,796.5934,798.20514,794.17584
1694132763.722,796.99634,837.28937,801.02563,795.78754,755.09155
1694132763.723,801.4286,787.326,801.4286,797.3993,870.32965
1694132763.727,795.38464,783.69965,796.99634,799.011,1128.2051
1694132763.728,789.34064,876.77655,790.9524,786.1172,864.2857
1694132763.784,794.57874,855.82416,792.96704,786.1172,699.4872
1694132763.7849998,796.99634,811.9048,798.60803,790.54944,768.3883
1694132763.7859998,800.2198,827.2161,802.23444,786.52014,699.89014
1694132763.7870002,805.05493,828.022,803.44324,784.5055,643.47986
1694132763.788,805.4579,805.8608,804.65204,791.75824,647.9121
1694132763.789,804.2491,790.9524,802.6374,800.6227,809.89014
1694132763.7900002,803.0403,810.696,800.2198,786.52014,813.1135
1694132763.7900002,802.23444,823.1868,800.6227,777.6557,698.68134
1694132763.7910001,804.2491,786.1172,800.6227,786.1172,770.40295
1694132763.792,797.8022,750.65936,804.65204,796.5934,1033.5165
1694132763.792,785.7143,830.84247,803.8461,794.57874,911.4286
1694132763.793,787.326,837.6923,804.2491,794.57874,709.5604
1694132763.823,795.38464,782.8938,805.05493,791.75824,698.68134
1694132763.824,796.5934,786.52014,800.2198,781.685,686.99634
1694132763.825,791.75824,785.31134,800.2198,785.31134,722.8571
1694132763.826,784.10254,796.5934,803.44324,794.17584,680.14655
1694132763.826,784.5055,759.5238,802.23444,798.60803,788.93774
1694132763.8270001,793.36993,763.5531,798.20514,793.7729,870.32965
1694132763.828,791.75824,797.8022,800.6227,786.9231,734.5421
1694132763.829,789.34064,777.25275,803.44324,786.9231,676.9231
1694132763.829,791.3553,762.74725,799.41394,792.96704,750.65936
1694132763.8300002,789.7436,794.17584,797.8022,796.1905,761.13556
1694132763.8300002,790.9524,780.07324,796.99634,789.34064,679.7436
1694132763.831,796.5934,761.53845,799.011,788.93774,628.5714
1694132763.845,797.8022,723.2601,801.02563,798.20514,893.69965
1694132763.8460002,787.326,757.50916,800.6227,801.8315,1070.586
1694132763.848,783.2967,823.9927,802.23444,799.41394,766.3736
1694132763.85,787.72894,786.9231,799.011,792.5641,714.7985
1694132763.851,792.96704,782.49084,798.20514,790.9524,744.21246
1694132763.852,795.38464,781.28204,796.99634,796.1905,748.24176
1694132763.853,798.60803,784.10254,795.38464,799.41394,720.84247
1694132763.854,799.41394,775.2381,797.3993,801.02563,739.3773
1694132763.855,799.011,750.65936,803.0403,807.8755,1042.381
1694132763.855,798.20514,823.5897,803.8461,794.9817,884.43225
1694132763.856,805.8608,824.7985,799.81683,778.86444,643.47986
1694132763.8569999,804.65204,782.0879,796.5934,790.14655,728.9011
1694132763.9020002,795.78754,807.8755,792.1612,803.44324,750.65936
1694132763.903,794.17584,806.6667,793.7729,796.99634,808.2784
1694132763.904,795.38464,802.6374,791.75824,782.0879,752.674
1694132763.905,798.60803,794.9817,785.7143,786.1172,736.55676
1694132763.906,801.4286,806.6667,788.1319,803.8461,931.5751
1694132763.907,797.8022,850.18317,792.96704,799.011,861.06226
1694132763.908,792.1612,843.3333,791.75824,784.90845,770.0
1694132763.908,802.23444,808.2784,794.17584,786.1172,867.1062
1694132763.909,804.2491,850.58606,799.81683,790.14655,916.6667
1694132763.909,800.2198,904.17584,797.8022,789.34064,703.91943
1694132763.91,810.293,865.89746,799.011,787.72894,684.17584
1694132763.911,808.68134,848.1685,803.0403,792.96704,765.16486
1694132763.965,803.44324,866.30035,803.8461,796.5934,699.4872
1694132763.966,804.65204,866.7033,803.44324,790.14655,666.04395
1694132763.971,805.4579,840.9158,803.0403,796.5934,701.50183
1694132763.971,804.65204,824.7985,803.8461,809.89014,767.1795
1694132763.972,796.5934,837.6923,805.4579,811.0989,802.23444
1694132763.972,790.14655,837.6923,805.05493,803.44324,758.71796
1694132763.973,801.02563,822.7839,805.05493,799.011,812.3077
1694132763.9740002,805.8608,785.31134,805.8608,812.3077,1067.3627
1694132763.9740002,798.60803,853.8095,802.23444,814.7253,1025.0549
1694132763.9750001,800.6227,883.6264,804.2491,810.696,786.9231
1694132763.9750001,808.2784,825.2015,804.65204,803.8461,751.06226
1694132763.976,815.5311,833.663,803.8461,795.38464,732.52747
1694132764.001,814.7253,846.9597,810.696,801.4286,683.36993
1694132764.003,808.2784,819.5604,813.5165,807.0696,696.26373
1694132764.003,800.2198,784.5055,816.7399,810.293,882.8205
1694132764.004,798.60803,819.15753,815.9341,807.47253,902.96704
1694132764.0049999,802.6374,835.2747,814.7253,801.02563,691.8315
1694132764.0049999,808.2784,793.36993,814.3223,806.6667,692.6374
1694132764.006,808.68134,753.8828,810.696,812.71063,951.31866
1694132764.006,803.8461,770.40295,806.26373,813.91943,1066.1538
1694132764.007,799.81683,824.7985,801.8315,806.26373,772.8205
1694132764.008,794.17584,787.326,798.20514,800.2198,621.7216
1694132764.008,794.9817,731.7216,799.41394,802.23444,745.0183
1694132764.0089998,799.41394,776.8498,802.6374,800.6227,763.95605
1694132764.017,792.1612,790.54944,803.8461,801.4286,694.65204
1694132764.019,790.9524,754.2857,799.011,795.38464,727.6923
1694132764.019,799.81683,754.2857,796.5934,789.7436,763.5531
1694132764.02,797.3993,764.35895,798.60803,792.5641,685.38464
1694132764.024,790.14655,769.59705,794.9817,787.326,643.8828
1694132764.0249999,792.5641,745.42126,792.5641,788.5348,792.5641
1694132764.0249999,793.7729,721.2454,796.5934,793.7729,1042.381
1694132764.0259998,795.38464,796.99634,799.011,786.52014,866.30035
1694132764.0259998,800.2198,813.1135,796.5934,779.2674,652.74725
1694132764.027,800.6227,767.5824,797.3993,782.49084,782.8938
1694132764.028,798.60803,787.326,799.011,804.65204,953.73627
1694132764.028,792.96704,822.381,796.99634,805.05493,788.1319
1694132764.0809999,794.9817,805.4579,797.3993,790.54944,686.5934
1694132764.0830002,802.23444,770.40295,797.3993,788.93774,796.1905
1694132764.0830002,802.6374,783.69965,798.60803,795.38464,828.022
1694132764.084,797.8022,815.9341,800.6227,802.23444,748.24176
1694132764.085,788.1319,806.26373,794.9817,800.2198,698.68134
1694132764.085,793.7729,755.09155,794.17584,799.81683,865.89746
1694132764.0860002,805.4579,767.98535,797.3993,799.81683,1022.6374
1694132764.0870001,797.8022,837.6923,796.5934,789.34064,779.2674
1694132764.088,789.7436,828.4249,794.57874,783.69965,692.6374
1694132764.088,792.1612,770.40295,793.7729,788.93774,887.6557
1694132764.089,793.36993,812.3077,792.5641,788.93774,837.28937
1694132764.09,797.8022,836.08057,795.38464,783.69965,671.685
1694132764.1230001,803.44324,794.57874,797.8022,788.5348,750.2564
1694132764.124,805.8608,799.011,797.8022,801.8315,911.02563
1694132764.125,802.6374,850.989,797.8022,805.8608,873.1502
1694132764.125,798.20514,850.18317,797.3993,801.8315,742.6007
1694132764.1260002,801.8315,815.9341,797.3993,792.96704,719.2308
1694132764.127,805.4579,809.0842,801.8315,790.54944,805.8608
1694132764.131,803.44324,814.7253,805.4579,803.44324,896.1172
1694132764.132,799.011,840.9158,803.0403,798.60803,811.50183
1694132764.132,796.99634,810.293,803.0403,792.96704,796.1905
1694132764.133,800.2198,776.04395,803.44324,793.36993,999.67035
1694132764.133,802.6374,856.2271,801.8315,790.54944,795.38464
1694132764.134,799.81683,857.4359,801.02563,800.2198,630.989
1694132764.1590002,800.6227,813.1135,801.8315,810.293,761.13556
1694132764.16,806.6667,813.5165,803.8461,807.47253,821.1722
1694132764.162,815.12823,817.9487,804.2491,794.9817,739.3773
1694132764.163,816.337,821.978,802.23444,791.75824,713.1868
1694132764.164,810.696,805.4579,796.99634,800.2198,832.0513
1694132764.165,801.8315,809.0842,795.38464,799.81683,957.3626
1694132764.1660001,796.5934,834.0659,799.81683,794.17584,857.8388
1694132764.1660001,804.2491,846.9597,801.02563,791.3553,688.60803
1694132764.167,813.1135,781.28204,801.4286,788.93774,803.0403
1694132764.168,809.0842,765.9707,802.6374,801.4286,1067.7656
1694132764.168,802.23444,868.71796,802.6374,801.8315,843.3333
1694132764.169,795.78754,847.76556,798.60803,790.9524,703.91943
1694132764.1980002,793.7729,812.71063,798.20514,788.5348,740.989
1694132764.1990001,796.5934,837.28937,799.81683,790.14655,667.6557
1694132764.2,797.8022,836.8865,803.0403,795.78754,648.315
1694132764.2,801.8315,821.1722,802.23444,808.68134,684.17584
1694132764.201,804.2491,815.9341,802.6374,821.1722,732.1245
1694132764.202,801.8315,817.9487,803.0403,814.3223,743.8095
1694132764.202,798.20514,825.2015,799.41394,799.81683,720.0366
1694132764.203,790.54944,817.5458,801.02563,796.5934,737.76556
1694132764.207,783.69965,782.49084,801.8315,808.2784,1048.022
1694132764.208,788.93774,847.3626,799.011,807.47253,999.67035
