timestamp,RAW_TP9,RAW_AF7,RAW_AF8,RAW_TP10,AUX_RIGHT
1694305068.2259998,772.01465,791.3553,790.9524,765.16486,701.50183
1694305068.227,787.72894,792.96704,790.14655,781.685,749.0476
1694305068.23,799.41394,798.20514,792.1612,796.5934,807.8755
1694305068.231,795.78754,799.41394,790.9524,791.3553,755.89746
1694305068.232,778.46155,797.3993,788.5348,774.43225,647.1062
1694305068.233,774.0293,798.60803,786.1172,775.2381,825.2015
1694305068.234,786.1172,801.4286,783.69965,786.9231,982.3443
1694305068.2350001,792.1612,802.6374,786.52014,795.38464,808.68134
1694305068.236,795.38464,803.0403,790.54944,790.9524,709.15753
1694305068.236,787.326,801.8315,792.96704,783.2967,896.1172
1694305068.237,774.43225,796.99634,792.5641,784.10254,938.8278
1694305068.2380002,784.10254,796.5934,786.52014,784.90845,683.7729
1694305068.276,796.99634,798.60803,783.69965,793.36993,698.2784
1694305068.276,790.14655,796.1905,784.90845,798.20514,777.6557
1694305068.278,775.2381,788.1319,786.9231,786.52014,745.42126
1694305068.278,772.01465,786.9231,787.326,774.43225,626.9597
1694305068.279,785.31134,788.93774,790.14655,780.87915,628.97437
1694305068.28,792.1612,788.5348,789.34064,803.0403,1019.81683
1694305068.281,785.31134,790.9524,789.7436,807.8755,1231.7583
1694305068.2819998,775.64105,792.1612,792.5641,786.1172,806.6667
1694305068.2819998,774.0293,796.99634,790.54944,767.5824,610.4396
1694305068.283,786.52014,799.011,793.7729,774.43225,697.0696
1694305068.284,796.1905,795.78754,794.9817,794.9817,730.5128
1694305068.2849998,789.34064,795.38464,793.36993,806.26373,730.9158
1694305068.2910001,781.685,799.41394,797.8022,797.8022,727.6923
1694305068.2910001,781.685,800.2198,801.8315,779.67035,713.9927
1694305068.292,788.93774,801.02563,799.41394,788.93774,704.7253
1694305068.293,801.02563,803.44324,792.1612,799.011,711.978
1694305068.296,801.4286,805.8608,789.7436,798.60803,907.3993
1694305068.297,785.31134,805.05493,788.5348,788.5348,1071.7949
1694305068.2979999,778.0586,801.8315,786.1172,775.2381,857.4359
1694305068.3,780.4762,801.4286,790.54944,780.87915,668.86444
1694305068.3009999,794.17584,805.4579,790.9524,803.44324,817.9487
1694305068.302,800.2198,808.2784,791.75824,824.3956,1104.0293
1694305068.303,787.326,807.0696,795.78754,809.89014,893.69965
1694305068.304,778.46155,803.44324,795.38464,786.52014,606.8132
1694305068.334,784.90845,803.44324,798.20514,794.17584,680.9524
1694305068.335,789.7436,801.4286,794.9817,808.2784,738.1685
1694305068.336,792.96704,799.011,789.34064,809.4872,695.05493
1694305068.337,790.54944,801.4286,792.96704,807.8755,718.022
1694305068.337,780.87915,799.81683,794.57874,786.9231,697.47253
1694305068.3379998,787.72894,801.4286,794.57874,781.28204,667.25275
1694305068.339,802.6374,803.8461,795.38464,801.02563,728.9011
1694305068.339,806.26373,799.011,795.78754,819.15753,741.39197
1694305068.34,794.9817,795.78754,795.38464,819.5604,1016.1905
1694305068.3409998,785.7143,796.5934,792.1612,796.1905,1068.5714
1694305068.3409998,785.7143,796.99634,790.54944,776.8498,679.34064
1694305068.3420002,800.6227,801.4286,789.7436,792.5641,733.3333
1694305068.3470001,807.47253,803.44324,790.14655,806.26373,842.1245
1694305068.3470001,795.38464,801.4286,789.7436,795.38464,794.57874
1694305068.348,785.31134,799.011,792.96704,778.86444,693.44324
1694305068.349,782.8938,797.3993,789.7436,774.43225,647.50916
1694305068.349,787.72894,793.36993,786.52014,790.54944,680.14655
1694305068.3500001,789.34064,788.93774,790.9524,807.47253,810.293
1694305068.353,795.38464,796.1905,794.17584,803.0403,839.304
1694305068.353,788.5348,797.8022,789.7436,788.1319,873.95605
1694305068.3539999,778.46155,792.96704,790.14655,786.52014,1058.0952
1694305068.3539999,784.5055,795.38464,788.5348,788.5348,881.2088
1694305068.355,792.5641,794.17584,786.9231,791.3553,686.1905
1694305068.356,792.96704,792.96704,790.54944,803.44324,871.9414
1694305068.384,785.7143,796.1905,792.96704,789.34064,863.0769
1694305068.384,779.67035,796.99634,793.36993,771.6117,633.00366
1694305068.385,792.1612,801.8315,791.3553,781.28204,631.79486
1694305068.385,806.26373,801.4286,792.1612,800.2198,700.293
1694305068.386,796.5934,797.8022,787.72894,808.2784,780.07324
1694305068.386,787.326,798.60803,785.7143,783.69965,716.8132
1694305068.386,785.31134,800.6227,790.9524,762.74725,601.1722
1694305068.387,785.7143,801.8315,792.96704,779.67035,853.00366
1694305068.387,796.5934,803.0403,795.38464,805.4579,963.4066
1694305068.387,800.6227,802.6374,794.9817,801.8315,781.685
1694305068.388,788.1319,801.4286,792.5641,782.0879,801.4286
1694305068.388,785.31134,803.8461,792.96704,778.0586,800.6227
1694305068.451,790.14655,804.2491,794.9817,784.5055,731.31866
1694305068.452,796.1905,799.81683,796.99634,805.4579,734.5421
1694305068.4529998,801.8315,800.6227,798.20514,817.1429,807.47253
1694305068.4529998,794.9817,801.4286,797.8022,796.5934,789.7436
1694305068.4540002,784.5055,802.23444,794.57874,777.25275,724.4689
1694305068.4550002,787.72894,802.6374,792.1612,781.685,727.28937
1694305068.4550002,801.4286,800.2198,790.9524,794.17584,1003.69965
1694305068.456,803.44324,802.6374,788.1319,801.8315,1165.6776
1694305068.459,794.9817,801.8315,791.75824,795.78754,864.68866
1694305068.459,783.2967,796.1905,796.1905,783.69965,746.2271
1694305068.46,780.87915,795.38464,796.5934,782.8938,859.45056
1694305068.461,792.96704,798.20514,798.20514,797.3993,868.315
1694305068.485,795.38464,797.3993,797.3993,808.68134,820.7692
1694305068.486,790.9524,794.57874,797.8022,798.20514,771.6117
1694305068.487,783.69965,791.75824,794.57874,783.69965,802.23444
1694305068.487,783.69965,792.96704,792.96704,786.9231,794.9817
1694305068.488,796.1905,795.78754,793.36993,801.02563,686.1905
1694305068.488,800.2198,793.7729,792.1612,804.2491,780.4762
1694305068.4889998,796.99634,796.5934,794.9817,805.4579,1053.663
1694305068.4889998,787.72894,798.20514,797.3993,794.17584,960.58606
1694305068.4899998,787.326,794.9817,797.3993,784.5055,610.4396
1694305068.4910002,799.81683,795.38464,796.99634,801.02563,646.30035
1694305068.4910002,805.4579,796.99634,797.3993,812.71063,783.2967
1694305068.492,799.81683,800.6227,799.41394,809.4872,780.07324
1694305068.539,792.5641,803.44324,798.20514,800.6227,686.99634
1694305068.54,792.96704,802.6374,798.20514,792.5641,637.03296
1694305068.541,801.02563,803.0403,798.20514,798.60803,690.2198
1694305068.542,801.4286,799.81683,795.38464,814.7253,818.3516
1694305068.543,794.17584,795.78754,796.1905,811.9048,788.1319
1694305068.544,786.1172,797.8022,797.3993,803.0403,892.49084
1694305068.5449998,782.0879,802.6374,795.38464,801.8315,1122.5641
1694305068.5459998,791.75824,803.44324,796.5934,799.81683,897.72894
1694305068.5470002,811.50183,802.6374,796.99634,819.5604,683.7729
1694305068.548,809.0842,801.8315,794.17584,831.6484,966.2271
1694305068.551,786.52014,801.02563,794.57874,810.696,1030.6959
1694305068.552,780.87915,803.0403,796.1905,796.99634,664.0293
1694305068.5870001,786.1172,801.4286,794.9817,795.78754,586.26373
1694305068.588,799.81683,805.4579,796.5934,807.8755,699.4872
1694305068.588,805.05493,809.0842,801.4286,814.7253,816.337
1694305068.589,792.1612,806.6667,800.2198,800.6227,743.4066
1694305068.589,796.5934,804.2491,796.1905,791.3553,675.7143
1694305068.5900002,799.011,796.99634,796.99634,795.38464,761.13556
1694305068.5900002,804.2491,798.20514,801.8315,817.5458,795.78754
1694305068.591,822.7839,805.05493,797.8022,830.84247,798.60803
1694305068.591,803.44324,798.60803,794.17584,802.6374,729.304
1694305068.592,785.31134,794.9817,796.99634,788.93774,886.4469
1694305068.593,802.23444,796.99634,798.20514,804.65204,887.6557
1694305068.593,818.3516,794.17584,800.6227,814.7253,695.8608
1694305068.6430001,817.9487,790.54944,794.57874,820.3663,774.43225
1694305068.644,800.2198,786.1172,790.9524,811.50183,788.5348
1694305068.645,789.7436,788.1319,792.1612,799.81683,694.65204
1694305068.645,796.1905,788.93774,790.9524,795.38464,626.55676
1694305068.6460001,809.89014,787.326,794.9817,807.0696,718.4249
1694305068.647,813.5165,788.5348,794.9817,818.3516,885.64105
1694305068.647,804.65204,785.7143,787.72894,806.26373,928.7546
1694305068.648,789.34064,781.685,789.34064,791.75824,778.0586
1694305068.649,785.7143,782.8938,789.34064,797.3993,774.83514
1694305068.6499999,796.99634,786.1172,786.1172,823.9927,1207.5824
1694305068.651,803.8461,785.7143,790.54944,831.6484,1166.4835
1694305068.652,802.6374,785.7143,790.54944,818.7546,780.07324
1694305068.682,792.96704,786.52014,786.52014,798.20514,728.0952
1694305068.683,794.17584,788.5348,784.5055,790.14655,694.2491
1694305068.683,805.05493,791.3553,783.69965,800.6227,673.69965
1694305068.684,814.7253,792.5641,787.326,816.7399,720.84247
1694305068.685,813.91943,794.9817,789.7436,826.4103,751.8681
1694305068.685,803.44324,796.99634,787.326,806.6667,723.2601
1694305068.686,794.17584,794.57874,788.5348,796.99634,636.63007
1694305068.686,804.2491,797.3993,792.5641,808.68134,572.5641
1694305068.687,826.4103,802.23444,793.36993,833.663,890.87915
1694305068.687,823.9927,801.4286,791.75824,826.0073,995.2381
1694305068.687,803.8461,799.011,792.1612,796.99634,737.76556
1694305068.688,798.60803,797.8022,794.9817,794.17584,774.43225
1694305068.726,810.696,796.5934,793.36993,801.4286,820.3663
1694305068.727,815.5311,795.38464,794.17584,818.3516,777.6557
1694305068.727,811.9048,794.57874,797.8022,826.4103,774.43225
1694305068.728,800.6227,792.96704,798.20514,805.8608,755.89746
1694305068.728,792.96704,788.93774,794.9817,785.31134,679.34064
1694305068.7289999,797.8022,790.54944,793.7729,795.78754,740.989
1694305068.7289999,808.2784,794.57874,796.1905,811.0989,784.90845
1694305068.7299998,813.5165,794.57874,798.20514,821.978,936.8132
1694305068.7299998,805.05493,795.78754,793.36993,813.1135,1076.63
1694305068.731,793.36993,797.8022,791.75824,797.3993,810.696
1694305068.731,793.7729,801.8315,800.2198,805.05493,675.7143
1694305068.732,803.8461,799.011,799.81683,815.5311,891.685
1694305068.761,804.65204,793.7729,795.78754,817.9487,993.22345
1694305068.761,797.8022,792.96704,800.2198,805.8608,745.82416
1694305068.764,796.5934,794.9817,804.65204,788.1319,616.8865
1694305068.7649999,799.011,796.99634,800.6227,791.75824,664.43225
1694305068.7649999,803.8461,791.3553,797.3993,805.4579,743.8095
1694305068.766,810.696,790.9524,799.81683,815.5311,796.5934
1694305068.766,798.60803,791.75824,800.2198,805.05493,827.619
1694305068.766,777.25275,788.93774,797.8022,792.5641,935.6044
1694305068.767,777.6557,791.75824,799.81683,800.2198,866.7033
1694305068.767,794.17584,793.36993,801.8315,808.2784,653.5531
1694305068.768,799.81683,796.5934,803.44324,820.7692,727.28937
1694305068.769,786.9231,797.8022,802.6374,813.1135,774.0293
1694305068.831,785.7143,798.60803,803.0403,794.17584,695.8608
1694305068.832,790.9524,798.60803,801.02563,784.10254,663.22345
1694305068.832,794.17584,792.5641,795.78754,780.4762,732.1245
1694305068.833,800.2198,790.14655,798.20514,791.3553,809.0842
1694305068.833,797.8022,792.5641,795.38464,789.34064,876.77655
1694305068.8339999,785.7143,787.72894,790.9524,770.80585,769.19415
1694305068.835,780.87915,786.1172,792.1612,771.6117,832.0513
1694305068.836,795.38464,791.3553,794.57874,793.36993,1135.4579
1694305068.836,807.47253,791.75824,796.5934,801.02563,967.8388
1694305068.837,799.41394,788.93774,794.9817,792.5641,732.1245
1694305068.838,783.69965,791.3553,795.78754,782.0879,876.77655
1694305068.838,777.6557,792.96704,799.81683,782.0879,852.1978
1694305068.882,784.90845,793.7729,799.011,792.96704,676.1172
1694305068.8830001,788.5348,797.8022,798.20514,802.6374,713.9927
1694305068.884,786.1172,798.60803,796.99634,806.26373,768.7912
1694305068.885,768.7912,797.3993,794.9817,790.9524,750.2564
1694305068.888,770.0,796.1905,799.011,782.0879,691.4286
1694305068.889,789.7436,798.20514,804.2491,796.5934,692.23444
1694305068.8899999,800.6227,799.81683,800.6227,814.3223,966.2271
1694305068.8899999,791.75824,798.20514,797.3993,816.337,1027.8755
1694305068.891,777.6557,797.3993,799.41394,796.1905,709.5604
1694305068.891,781.685,796.5934,799.81683,789.7436,625.7509
1694305068.892,787.72894,795.78754,796.5934,805.8608,756.30035
1694305068.893,799.011,800.6227,795.78754,829.2308,786.9231
1694305068.9459999,800.2198,798.20514,795.38464,819.5604,723.2601
1694305068.947,787.72894,794.9817,795.38464,786.9231,734.1392
1694305068.947,780.4762,795.78754,795.38464,772.01465,699.4872
1694305068.948,787.326,797.8022,793.7729,771.6117,639.85345
1694305068.948,799.81683,797.8022,795.78754,790.9524,652.74725
1694305068.949,803.0403,795.78754,794.9817,813.5165,927.9487
1694305068.95,793.36993,798.20514,799.81683,805.05493,1083.4799
1694305068.95,788.5348,798.60803,803.0403,782.49084,756.30035
1694305068.951,803.0403,801.02563,799.41394,792.5641,584.65204
1694305068.952,814.3223,800.2198,800.2198,819.15753,887.25275
1694305068.952,814.3223,796.5934,799.81683,834.87177,1185.4213
1694305068.9529998,812.3077,800.2198,801.02563,809.89014,836.4835
1694305068.981,803.8461,796.1905,799.81683,782.49084,562.8938
1694305068.982,798.20514,790.9524,796.99634,792.5641,653.95605
1694305068.983,805.4579,793.7729,796.1905,807.47253,720.84247
1694305068.983,803.8461,794.9817,795.78754,806.6667,706.337
1694305068.984,793.36993,795.38464,797.8022,798.60803,750.2564
1694305068.985,784.10254,794.9817,802.23444,791.75824,779.67035
1694305068.9889998,780.07324,794.57874,801.4286,794.57874,707.5458
1694305068.99,799.41394,796.5934,794.57874,811.0989,698.68134
1694305068.99,804.65204,794.17584,802.6374,820.3663,756.7033
1694305068.9910002,784.5055,782.8938,810.293,813.5165,991.2088
1694305068.992,782.8938,776.04395,810.293,812.3077,925.12823
1694305068.992,790.14655,784.5055,805.8608,801.4286,595.12823
1694305068.999,806.6667,796.5934,801.4286,813.1135,749.85345
1694305069.0,820.3663,805.05493,800.6227,834.4689,933.9927
1694305069.001,808.68134,804.65204,796.99634,818.7546,829.2308
1694305069.001,793.36993,801.02563,796.5934,802.23444,674.10254
1694305069.0019999,790.14655,800.6227,796.5934,804.2491,704.3223
1694305069.0019999,802.23444,800.6227,797.8022,809.89014,830.0366
1694305069.003,811.9048,799.81683,793.7729,818.7546,900.9524
1694305069.003,803.8461,793.7729,790.54944,810.293,828.8278
1694305069.004,789.34064,789.34064,791.3553,788.93774,826.8132
1694305069.0049999,790.14655,793.7729,793.7729,793.7729,985.9707
1694305069.0049999,799.41394,797.3993,799.011,805.05493,811.0989
1694305069.006,804.2491,793.7729,797.3993,812.3077,711.1722
1694305069.059,809.0842,795.38464,794.57874,819.9634,849.3773
1694305069.0609999,803.0403,799.41394,796.99634,801.4286,790.54944
1694305069.062,796.1905,800.6227,796.5934,779.67035,645.4945
1694305069.064,805.4579,801.8315,796.5934,782.49084,657.5824
1694305069.0649998,816.7399,797.8022,793.7729,801.02563,811.0989
1694305069.066,810.293,794.9817,790.14655,807.8755,942.4542
1694305069.0670002,796.1905,798.20514,792.1612,798.20514,868.315
1694305069.0670002,793.7729,796.1905,794.17584,785.31134,711.1722
1694305069.073,799.81683,798.60803,791.75824,794.17584,865.89746
1694305069.074,806.26373,803.0403,789.7436,815.9341,942.8571
1694305069.075,809.4872,805.05493,789.7436,817.1429,734.94507
1694305069.076,799.011,803.0403,792.96704,799.41394,770.0
1694305069.148,788.5348,798.20514,796.99634,791.3553,745.0183
1694305069.149,792.96704,798.60803,797.3993,797.3993,691.02563
1694305069.15,802.23444,799.41394,791.75824,800.2198,757.9121
1694305069.151,806.6667,799.41394,788.5348,803.0403,852.6007
1694305069.151,798.60803,795.78754,791.3553,796.5934,833.2601
1694305069.152,792.1612,796.99634,790.9524,781.685,746.63007
1694305069.1529999,796.1905,797.8022,793.36993,784.5055,740.989
1694305069.1529999,807.8755,799.41394,797.8022,812.3077,984.35895
1694305069.1539998,813.1135,803.0403,799.41394,825.6044,1218.0586
1694305069.155,800.6227,799.81683,798.60803,805.05493,966.2271
1694305069.1569998,788.93774,800.6227,795.38464,777.6557,636.2271
1694305069.1569998,793.36993,803.8461,792.96704,781.685,740.18317
1694305069.1790001,800.6227,802.23444,791.3553,802.6374,857.8388
1694305069.18,805.4579,799.41394,793.7729,805.05493,732.52747
1694305069.183,805.4579,799.81683,796.5934,801.4286,726.8865
1694305069.183,795.78754,800.6227,796.1905,780.87915,730.9158
1694305069.184,794.57874,799.011,794.57874,772.8205,695.4579
1694305069.185,805.05493,799.011,791.3553,797.3993,691.4286
1694305069.1859999,807.47253,799.011,789.7436,804.65204,821.978
1694305069.187,799.41394,798.60803,786.9231,799.011,1107.6556
1694305069.187,786.9231,797.3993,788.5348,789.34064,1060.9158
1694305069.188,782.0879,793.7729,791.3553,768.3883,659.59705
1694305069.192,794.9817,797.3993,788.93774,776.04395,708.7546
1694305069.192,805.05493,804.2491,790.14655,803.8461,921.50183
1694305069.1980002,799.011,809.0842,793.7729,804.65204,807.8755
1694305069.1990001,787.326,804.2491,795.38464,788.1319,684.17584
1694305069.2,788.1319,800.2198,796.1905,777.6557,697.8755
1694305069.201,796.99634,803.0403,792.5641,791.3553,707.1429
1694305069.201,808.68134,801.4286,789.7436,815.5311,743.8095
1694305069.202,810.293,803.0403,792.96704,814.3223,800.6227
1694305069.202,792.1612,800.6227,793.36993,790.9524,928.7546
1694305069.202,784.90845,797.8022,792.5641,783.2967,1007.326
1694305069.203,790.14655,794.57874,792.1612,792.1612,749.0476
1694305069.203,803.44324,793.7729,793.7729,802.23444,718.8278
1694305069.204,807.8755,795.78754,797.3993,805.05493,1048.4249
1694305069.204,789.7436,793.7729,793.7729,798.60803,1085.4945
1694305069.245,776.8498,792.96704,792.96704,792.1612,690.2198
1694305069.246,786.52014,790.14655,793.7729,778.86444,599.5604
1694305069.246,802.23444,793.7729,789.7436,787.326,721.6484
1694305069.247,803.8461,798.60803,793.36993,810.293,776.4469
1694305069.247,795.38464,798.20514,800.6227,798.20514,703.91943
1694305069.248,788.1319,799.011,802.6374,775.64105,612.8571
1694305069.248,794.57874,800.2198,803.44324,794.9817,832.0513
1694305069.2489998,803.8461,802.23444,808.68134,818.3516,927.9487
1694305069.2489998,801.4286,800.2198,804.2491,813.1135,731.7216
1694305069.2499998,793.7729,797.3993,800.6227,799.011,703.91943
1694305069.2499998,782.8938,792.96704,801.02563,785.31134,683.36993
1694305069.2510002,788.1319,792.5641,799.81683,785.7143,670.4762
1694305069.313,806.26373,793.7729,802.6374,808.68134,670.07324
1694305069.314,807.47253,795.78754,800.6227,819.5604,838.9011
1694305069.315,799.41394,800.6227,799.81683,810.696,939.6337
1694305069.315,788.5348,799.41394,800.6227,782.8938,709.9634
1694305069.316,783.2967,793.7729,799.011,779.67035,635.82416
1694305069.316,792.5641,794.57874,799.81683,808.2784,867.1062
1694305069.317,795.78754,797.3993,798.20514,809.89014,987.98535
1694305069.317,791.3553,795.38464,796.99634,794.57874,822.7839
1694305069.318,784.90845,794.9817,798.20514,777.6557,628.5714
1694305069.319,784.90845,797.8022,800.6227,783.2967,855.82416
1694305069.319,796.1905,795.78754,801.4286,813.91943,1173.3334
1694305069.32,798.20514,794.9817,802.6374,817.5458,914.65204
1694305069.349,789.7436,796.5934,802.6374,811.0989,794.9817
1694305069.3500001,782.49084,794.57874,801.02563,787.326,790.14655
1694305069.351,780.07324,793.7729,798.20514,772.01465,713.1868
1694305069.352,792.96704,793.7729,794.17584,795.38464,676.52014
1694305069.353,798.20514,795.38464,794.9817,808.2784,701.50183
1694305069.3539999,784.5055,795.78754,792.96704,802.23444,994.83514
1694305069.3539999,777.6557,792.5641,793.7729,788.93774,962.1978
1694305069.355,779.2674,792.96704,795.78754,783.69965,611.2454
1694305069.355,790.54944,791.75824,794.17584,794.57874,662.01465
1694305069.356,800.2198,790.14655,795.78754,813.91943,874.35895
1694305069.3569999,804.2491,794.9817,799.81683,806.26373,861.06226
1694305069.358,795.78754,799.011,800.2198,777.6557,710.3663
1694305069.396,784.10254,799.011,799.41394,767.98535,665.2381
1694305069.3969998,790.14655,797.8022,796.5934,780.4762,688.60803
1694305069.401,795.38464,792.96704,794.57874,800.6227,755.4945
1694305069.402,794.17584,790.9524,795.38464,798.20514,793.36993
1694305069.402,786.9231,790.9524,793.36993,789.34064,756.30035
1694305069.403,777.6557,787.326,791.75824,784.5055,709.15753
1694305069.403,783.2967,788.93774,791.75824,782.0879,747.8388
1694305069.404,794.9817,793.36993,791.3553,796.99634,854.21246
1694305069.405,794.9817,796.1905,790.54944,809.89014,921.0989
1694305069.4060001,784.90845,798.20514,789.34064,801.4286,1241.8315
1694305069.4060001,777.6557,802.23444,789.7436,782.8938,1162.8572
1694305069.407,783.2967,800.2198,790.54944,782.0879,709.5604
1694305069.4350002,792.5641,794.57874,796.99634,811.50183,697.47253
1694305069.436,792.1612,798.60803,796.99634,822.381,754.2857
1694305069.437,789.34064,797.8022,791.75824,791.3553,722.4542
1694305069.4380002,784.90845,795.78754,792.96704,773.6264,654.35895
1694305069.4390001,788.1319,799.81683,795.38464,781.28204,657.5824
1694305069.4390001,800.6227,800.2198,796.5934,800.6227,794.9817
1694305069.44,807.47253,802.23444,798.60803,802.6374,887.25275
1694305069.44,795.78754,802.6374,798.60803,792.1612,803.8461
1694305069.441,779.67035,799.011,796.99634,790.14655,887.25275
1694305069.441,782.8938,802.23444,800.6227,782.0879,880.0
1694305069.442,795.78754,798.20514,799.41394,792.96704,666.04395
1694305069.442,804.2491,794.57874,793.36993,808.2784,741.79486
1694305069.496,799.011,798.60803,794.17584,797.3993,860.2564
1694305069.497,785.31134,797.3993,796.1905,780.07324,735.7509
1694305069.498,788.1319,796.99634,791.75824,777.25275,591.50183
1694305069.499,802.6374,799.81683,795.38464,799.41394,660.80585
1694305069.502,807.0696,802.6374,795.78754,814.7253,741.39197
1694305069.503,801.8315,803.0403,794.17584,808.2784,769.19415
1694305069.504,795.38464,802.6374,796.1905,791.3553,734.94507
1694305069.504,792.1612,801.02563,794.9817,800.6227,790.54944
1694305069.5049999,802.23444,802.6374,796.1905,825.6044,919.0842
1694305069.5049999,809.89014,801.8315,796.1905,827.2161,836.8865
1694305069.5059998,802.6374,795.78754,794.9817,816.337,702.3077
1694305069.5059998,788.93774,794.9817,791.75824,808.68134,853.8095
1694305069.528,791.3553,797.3993,792.96704,809.0842,985.16486
1694305069.529,805.8608,796.99634,796.99634,801.8315,710.3663
1694305069.53,809.0842,794.9817,794.17584,800.2198,701.0989
1694305069.5310001,807.47253,798.20514,792.5641,805.4579,766.3736
1694305069.5310001,795.38464,801.8315,793.36993,791.75824,722.8571
1694305069.532,781.28204,801.02563,794.57874,785.31134,667.25275
1694305069.533,791.75824,800.2198,791.3553,799.41394,695.8608
1694305069.533,817.1429,803.44324,789.34064,808.68134,985.16486
1694305069.5340002,822.381,803.44324,793.7729,807.0696,983.5531
1694305069.5340002,802.6374,801.4286,797.3993,790.54944,689.011
1694305069.535,796.1905,803.8461,798.20514,788.1319,671.685
1694305069.536,801.8315,803.44324,799.81683,799.011,717.619
1694305069.584,807.8755,800.2198,794.9817,809.89014,763.1502
1694305069.588,812.3077,800.2198,794.17584,809.4872,734.5421
1694305069.589,797.8022,797.3993,796.5934,790.14655,817.9487
1694305069.5900002,789.7436,796.5934,793.7729,780.4762,864.68866
1694305069.591,795.78754,796.5934,791.3553,795.38464,726.08057
1694305069.592,803.0403,793.36993,795.78754,811.0989,771.2088
1694305069.598,807.47253,794.57874,799.81683,821.978,973.47986
1694305069.599,793.36993,794.57874,794.9817,813.91943,1027.0696
1694305069.6009998,785.7143,791.3553,792.96704,785.31134,710.3663
1694305069.6019998,790.54944,791.3553,794.57874,782.8938,642.674
1694305069.6030002,803.8461,793.7729,796.5934,807.8755,933.1868
1694305069.604,811.9048,793.7729,796.5934,818.3516,1026.2638
1694305069.647,792.96704,788.5348,798.20514,797.8022,801.8315
1694305069.649,782.0879,786.9231,799.41394,788.5348,659.59705
1694305069.649,788.5348,790.54944,798.20514,793.36993,703.91943
1694305069.6499999,800.2198,791.75824,795.78754,799.41394,805.4579
1694305069.6499999,796.99634,788.93774,793.7729,805.4579,765.56775
1694305069.651,788.93774,794.17584,794.9817,798.20514,728.0952
1694305069.652,786.9231,799.81683,798.60803,794.9817,1029.8901
1694305069.652,782.8938,799.81683,801.4286,799.011,1024.652
1694305069.6529999,794.57874,801.4286,800.6227,804.2491,677.72894
1694305069.654,802.6374,799.011,799.41394,813.1135,750.65936
1694305069.654,794.17584,795.78754,799.011,803.44324,902.96704
1694305069.655,782.8938,794.9817,799.41394,779.2674,775.64105
1694305069.689,775.2381,792.1612,796.5934,771.2088,638.6447
1694305069.6899998,787.72894,792.1612,792.5641,785.31134,727.6923
1694305069.691,802.6374,791.75824,792.5641,800.6227,817.9487
1694305069.692,795.38464,790.9524,793.36993,801.4286,814.3223
1694305069.692,778.86444,792.5641,793.7729,780.07324,695.4579
1694305069.6929998,779.2674,792.96704,794.9817,769.59705,782.49084
1694305069.6940002,793.7729,798.20514,799.41394,787.326,966.2271
1694305069.6950002,802.6374,801.02563,801.8315,807.8755,887.25275
1694305069.6990001,799.81683,799.41394,798.20514,809.89014,794.57874
1694305069.7,788.93774,802.6374,796.99634,798.60803,876.3736
1694305069.7,778.86444,804.65204,792.1612,798.20514,1114.1025
1694305069.701,782.49084,801.8315,791.3553,796.5934,881.6117
1694305069.726,796.5934,802.6374,796.1905,803.0403,696.26373
1694305069.727,796.5934,799.011,797.8022,801.4286,741.39197
1694305069.727,791.3553,796.5934,798.20514,786.9231,706.337
1694305069.728,789.34064,801.4286,796.1905,780.07324,655.56775
1694305069.7289999,788.1319,801.4286,793.7729,789.34064,693.44324
1694305069.7289999,794.57874,795.78754,796.1905,801.02563,842.1245
1694305069.7299998,798.60803,797.8022,796.99634,801.4286,832.0513
1694305069.7299998,790.14655,801.4286,796.1905,794.17584,671.685
1694305069.7299998,781.28204,796.5934,797.8022,782.8938,582.23444
1694305069.731,782.49084,790.14655,794.57874,790.54944,815.12823
1694305069.732,798.60803,791.75824,792.96704,810.696,930.3663
1694305069.732,801.4286,794.17584,793.36993,808.68134,772.01465
1694305069.738,786.1172,797.8022,794.9817,792.96704,788.5348
1694305069.739,788.93774,802.23444,796.99634,789.7436,821.1722
1694305069.739,794.57874,799.81683,797.8022,800.2198,685.78754
1694305069.74,804.65204,801.4286,797.8022,813.1135,716.0073
1694305069.741,810.293,799.81683,801.02563,819.5604,825.6044
1694305069.741,810.293,792.96704,810.293,820.7692,859.85345
1694305069.742,809.89014,797.3993,803.8461,815.12823,805.4579
1694305069.742,796.1905,807.47253,791.75824,795.78754,679.7436
1694305069.742,810.696,811.0989,792.96704,809.0842,819.15753
1694305069.743,820.7692,812.71063,791.75824,828.8278,969.85345
1694305069.7459998,806.6667,808.68134,791.75824,810.696,850.18317
1694305069.747,788.93774,802.23444,796.1905,789.34064,654.35895
1694305069.8019998,784.90845,797.8022,800.6227,792.1612,808.2784
1694305069.804,804.2491,795.78754,799.81683,809.89014,1141.9048
1694305069.8049998,807.8755,799.81683,796.1905,803.44324,916.6667
1694305069.8049998,799.41394,799.41394,795.78754,793.36993,705.9341
1694305069.8060002,790.54944,796.5934,795.38464,773.6264,691.02563
1694305069.8060002,782.0879,797.8022,792.96704,764.35895,683.7729
1694305069.8070002,794.17584,798.60803,794.9817,791.75824,718.4249
1694305069.8070002,806.26373,799.41394,800.6227,806.26373,729.707
1694305069.808,799.011,801.4286,796.5934,812.3077,988.7912
1694305069.808,792.96704,801.4286,794.17584,797.8022,988.7912
1694305069.809,798.20514,799.41394,797.3993,781.28204,608.8278
1694305069.81,802.6374,799.011,797.3993,797.3993,697.47253
1694305069.854,807.8755,799.011,799.41394,813.91943,831.6484
1694305069.855,807.47253,798.20514,799.011,807.0696,805.05493
1694305069.8569999,792.96704,798.60803,793.7729,785.31134,708.7546
1694305069.8579998,793.36993,799.41394,794.9817,778.46155,732.1245
1694305069.8579998,805.05493,795.78754,797.3993,792.96704,836.08057
1694305069.859,805.8608,794.17584,794.17584,803.0403,830.4396
1694305069.86,796.99634,795.38464,793.7729,801.8315,813.5165
1694305069.8609998,784.5055,794.9817,790.54944,786.52014,852.6007
1694305069.8620002,781.685,792.96704,790.14655,778.86444,965.42126
1694305069.8630002,790.9524,792.5641,790.54944,787.326,855.0183
1694305069.8630002,808.2784,795.78754,789.7436,805.05493,763.5531
1694305069.864,805.8608,795.78754,789.7436,814.3223,907.3993
1694305069.9190001,786.9231,793.36993,788.5348,798.60803,880.80585
1694305069.92,785.31134,794.17584,789.7436,778.86444,605.2015
1694305069.921,796.1905,792.1612,789.34064,784.90845,578.20514
1694305069.922,802.23444,793.7729,794.17584,809.4872,683.36993
1694305069.922,799.41394,796.99634,794.17584,816.7399,774.83514
1694305069.923,787.72894,796.1905,793.36993,807.8755,754.68866
1694305069.923,790.54944,795.38464,794.17584,802.6374,634.21246
1694305069.924,798.60803,803.8461,792.96704,793.36993,905.78754
1694305069.924,796.99634,809.89014,785.7143,800.2198,1065.751
1694305069.925,800.6227,807.0696,782.8938,797.3993,766.77655
1694305069.926,785.7143,802.23444,790.9524,778.46155,720.4396
1694305069.926,770.80585,795.78754,793.7729,773.22345,701.0989
1694305069.961,773.6264,796.1905,794.9817,774.0293,643.47986
1694305069.962,788.1319,799.81683,793.7729,784.5055,708.3516
1694305069.963,799.41394,801.8315,793.7729,799.41394,816.337
1694305069.963,793.7729,805.4579,794.9817,792.96704,831.2454
1694305069.964,784.5055,804.2491,796.1905,780.07324,710.3663
1694305069.964,787.72894,804.2491,796.1905,786.52014,691.4286
1694305069.965,802.23444,801.8315,795.38464,801.8315,959.7802
1694305069.967,807.8755,798.60803,793.7729,813.91943,1135.8608
1694305069.967,797.3993,796.1905,790.9524,806.26373,909.41394
1694305069.968,786.1172,797.8022,788.93774,786.1172,722.8571
1694305069.9689999,785.7143,799.41394,789.7436,787.326,846.1539
1694305069.9689999,792.96704,795.38464,792.1612,807.8755,982.74725
1694305069.992,796.1905,794.57874,791.75824,813.1135,788.1319
1694305069.993,790.54944,797.3993,790.54944,805.05493,718.8278
1694305069.997,778.0586,797.3993,790.54944,787.326,683.7729
1694305069.997,775.64105,794.17584,790.14655,779.67035,617.28937
1694305069.9980001,790.9524,795.78754,788.5348,799.011,637.4359
1694305069.9980001,798.20514,796.5934,794.17584,818.3516,728.49817
1694305069.9980001,790.9524,792.1612,797.3993,821.978,1010.9524
1694305069.999,780.87915,794.17584,792.96704,805.05493,985.9707
1694305069.999,777.25275,792.96704,788.93774,785.31134,629.3773
1694305070.0,788.93774,794.57874,788.93774,792.96704,617.28937
1694305070.0,799.81683,799.011,788.5348,801.02563,771.6117
1694305070.001,798.20514,796.99634,789.7436,793.36993,832.8571
1694305070.0470002,785.7143,794.17584,792.5641,768.3883,684.17584
1694305070.048,781.685,795.78754,789.7436,760.7326,674.90845
1694305070.049,793.7729,796.5934,791.3553,780.07324,851.79486
1694305070.049,803.44324,794.17584,792.1612,795.38464,812.71063
1694305070.05,795.78754,792.5641,789.7436,796.1905,753.0769
1694305070.05,785.7143,793.7729,789.7436,785.31134,905.38464
1694305070.051,788.5348,796.5934,786.52014,779.67035,987.1795
1694305070.051,796.1905,798.60803,791.75824,784.5055,761.53845
1694305070.052,806.26373,796.1905,797.8022,799.011,680.14655
1694305070.053,807.0696,794.17584,796.5934,813.5165,1014.9817
1694305070.053,790.54944,794.9817,794.57874,799.41394,1065.348
1694305070.0540001,783.2967,797.8022,793.36993,778.46155,688.20514
1694305070.0819998,790.9524,797.8022,798.60803,789.7436,632.1978
1694305070.0819998,805.05493,801.02563,801.02563,813.5165,738.1685
1694305070.0830002,807.8755,804.65204,798.20514,820.3663,857.8388
1694305070.084,796.1905,804.2491,797.3993,801.4286,757.9121
1694305070.0870001,790.9524,801.02563,793.36993,777.25275,570.54944
1694305070.088,791.75824,795.78754,789.7436,784.10254,796.5934
1694305070.089,804.2491,797.3993,792.5641,810.696,946.8865
1694305070.089,811.0989,797.3993,792.1612,812.3077,738.1685
1694305070.09,796.1905,793.7729,788.5348,795.38464,683.36993
1694305070.09,786.1172,791.3553,789.7436,788.93774,749.45056
1694305070.091,790.9524,795.38464,794.57874,796.5934,712.381
1694305070.091,804.65204,794.57874,797.3993,809.89014,666.04395
1694305070.118,809.4872,788.1319,798.20514,811.9048,808.2784
1694305070.119,804.65204,788.1319,800.2198,800.2198,853.00366
1694305070.119,794.9817,793.7729,799.81683,788.5348,726.4835
1694305070.12,792.96704,798.20514,799.41394,787.326,656.3736
1694305070.12,806.6667,799.81683,802.23444,803.8461,810.696
1694305070.121,813.91943,801.4286,805.8608,823.5897,985.56775
1694305070.121,796.1905,800.2198,803.44324,811.50183,928.7546
1694305070.122,782.49084,800.2198,797.8022,785.7143,733.3333
1694305070.122,787.326,800.6227,798.20514,784.10254,770.80585
1694305070.1230001,800.2198,801.4286,799.011,807.0696,1105.238
1694305070.1230001,804.2491,803.0403,798.60803,817.5458,971.06226
1694305070.124,799.81683,802.23444,800.6227,801.02563,718.022
1694305070.147,781.685,801.02563,799.41394,784.90845,769.19415
1694305070.148,777.25275,805.05493,799.011,791.75824,729.304
1694305070.148,793.7729,805.8608,797.8022,806.6667,673.69965
1694305070.149,803.44324,800.6227,796.5934,812.71063,754.68866
1694305070.149,802.6374,801.02563,797.8022,801.02563,787.72894
1694305070.15,790.54944,799.81683,792.5641,781.28204,765.16486
1694305070.1539998,786.1172,799.81683,790.14655,776.04395,723.663
1694305070.1539998,796.99634,803.0403,792.96704,786.52014,676.52014
1694305070.155,810.696,804.65204,792.96704,811.50183,966.63007
1694305070.155,809.0842,803.0403,790.9524,813.91943,1091.1355
1694305070.156,802.6374,804.2491,788.93774,794.17584,721.2454
1694305070.156,805.8608,806.26373,785.7143,786.1172,646.30035
1694305070.22,799.81683,799.41394,790.54944,782.49084,708.7546
1694305070.221,803.8461,791.75824,798.60803,802.6374,757.50916
1694305070.2220001,813.5165,790.9524,799.011,819.9634,813.1135
1694305070.223,796.5934,796.1905,791.75824,802.6374,801.8315
1694305070.223,791.3553,796.1905,791.3553,789.7436,739.7802
1694305070.224,805.05493,798.60803,790.14655,796.5934,718.4249
1694305070.224,810.696,799.81683,788.93774,796.99634,753.8828
1694305070.225,815.5311,794.57874,794.57874,808.68134,953.3333
1694305070.225,805.8608,794.17584,796.99634,809.0842,1122.5641
1694305070.2259998,796.5934,795.38464,795.38464,800.6227,859.45056
1694305070.2259998,803.44324,794.57874,797.8022,809.4872,654.7619
1694305070.227,818.7546,795.38464,800.2198,827.2161,861.8681
1694305070.252,823.5897,794.9817,797.8022,832.0513,1085.0916
1694305070.253,811.50183,795.38464,794.9817,808.68134,851.79486
1694305070.253,799.011,797.3993,793.36993,786.9231,667.6557
1694305070.2540002,802.6374,796.99634,794.9817,790.54944,647.50916
1694305070.2540002,813.1135,795.78754,794.57874,810.696,689.41394
1694305070.255,816.7399,796.99634,794.9817,819.15753,763.1502
1694305070.255,805.8608,794.57874,795.38464,807.8755,785.31134
1694305070.256,789.7436,794.9817,791.75824,796.5934,947.6923
1694305070.26,795.78754,798.20514,792.1612,794.17584,901.3553
1694305070.261,813.91943,800.2198,791.75824,801.8315,674.90845
1694305070.262,818.7546,799.011,786.9231,814.7253,765.56775
1694305070.262,805.05493,796.99634,792.1612,814.7253,773.6264
1694305070.2910001,787.326,796.99634,794.57874,799.41394,701.9048
1694305070.2910001,789.34064,801.02563,792.96704,788.1319,619.304
1694305070.292,805.8608,801.02563,792.5641,805.05493,705.9341
1694305070.293,816.337,800.6227,792.96704,823.9927,902.5641
1694305070.293,803.8461,798.20514,793.36993,813.5165,828.8278
1694305070.2940001,784.90845,796.1905,793.36993,786.9231,685.38464
1694305070.2940001,782.49084,798.20514,794.9817,788.93774,761.13556
1694305070.295,798.20514,797.8022,794.57874,814.7253,1013.7729
1694305070.295,811.50183,800.2198,796.1905,822.381,919.4872
1694305070.296,800.6227,799.011,795.78754,819.9634,843.73627
1694305070.296,788.5348,797.3993,799.41394,806.6667,969.0476
1694305070.297,793.7729,802.6374,803.0403,799.41394,889.2674
1694305070.389,807.0696,800.6227,800.2198,805.4579,645.09155
1694305070.39,815.5311,794.57874,800.2198,813.91943,683.7729
1694305070.39,811.50183,796.99634,799.41394,809.4872,789.34064
1694305070.391,796.99634,797.3993,796.5934,783.2967,789.34064
1694305070.392,789.34064,796.5934,793.7729,771.2088,689.41394
1694305070.393,799.81683,794.9817,792.1612,786.9231,620.9158
1694305070.393,814.3223,795.78754,792.5641,811.50183,999.2674
1694305070.3939998,812.3077,797.8022,793.36993,815.5311,1189.0476
1694305070.3939998,794.57874,799.011,793.36993,794.57874,752.27106
1694305070.395,788.5348,800.2198,795.78754,782.49084,597.5458
1694305070.3990002,788.5348,800.6227,795.38464,789.34064,699.89014
1694305070.4,796.99634,801.02563,796.1905,812.71063,778.46155
1694305070.427,804.2491,799.41394,797.8022,824.3956,810.293
1694305070.428,788.5348,796.99634,795.78754,803.8461,809.89014
1694305070.429,782.8938,796.99634,792.1612,784.5055,747.4359
1694305070.43,791.3553,800.2198,790.9524,787.72894,682.5641
1694305070.43,795.38464,799.81683,793.36993,808.68134,713.9927
1694305070.431,797.8022,800.6227,794.9817,819.15753,928.3516
1694305070.431,790.9524,797.8022,793.7729,803.44324,963.8095
1694305070.432,785.31134,795.38464,792.1612,774.43225,735.7509
1694305070.4329998,794.57874,798.20514,790.14655,770.80585,632.1978
1694305070.4329998,812.71063,803.0403,794.17584,801.8315,875.16486
1694305070.4339998,815.5311,802.6374,796.99634,817.5458,1283.7362
1694305070.4339998,800.2198,799.011,794.17584,799.011,1062.9304
1694305070.477,789.7436,801.02563,797.3993,780.4762,675.7143
1694305070.4780002,793.7729,800.2198,801.02563,782.49084,639.85345
1694305070.479,803.8461,800.2198,798.60803,801.02563,718.8278
1694305070.48,807.47253,801.8315,799.81683,809.4872,742.6007
1694305070.481,797.3993,800.6227,802.6374,803.44324,774.83514
1694305070.481,786.1172,800.6227,801.8315,793.36993,826.8132
1694305070.4819999,786.9231,800.2198,799.011,783.2967,731.7216
1694305070.4819999,801.4286,800.6227,799.41394,792.5641,667.6557
1694305070.483,806.6667,799.41394,801.4286,811.0989,805.8608
1694305070.483,794.57874,795.78754,796.5934,812.71063,1100.0
1694305070.484,782.8938,791.75824,791.75824,792.1612,992.8205
1694305070.485,783.69965,792.5641,794.57874,777.25275,628.1685
1694305070.539,795.38464,796.99634,794.9817,794.9817,666.04395
1694305070.541,798.60803,797.8022,795.78754,806.6667,756.7033
1694305070.541,793.36993,799.011,798.20514,803.8461,720.84247
1694305070.542,785.31134,799.81683,792.96704,782.0879,660.40295
1694305070.542,784.10254,796.5934,794.9817,774.0293,682.1612
1694305070.543,793.7729,795.38464,799.011,794.17584,775.64105
1694305070.543,801.4286,796.5934,794.9817,811.0989,867.9121
1694305070.544,803.8461,796.99634,793.7729,809.89014,848.1685
1694305070.5449998,790.54944,796.5934,792.5641,789.34064,864.68866
1694305070.5459998,783.2967,794.9817,792.1612,784.5055,1023.0403
1694305070.5470002,793.36993,798.20514,792.96704,797.3993,872.3443
1694305070.5470002,805.05493,802.23444,797.3993,806.6667,712.381
1694305070.579,805.4579,797.3993,799.41394,803.0403,898.1319
1694305070.58,791.75824,794.57874,797.3993,781.685,946.08057
1694305070.5809999,787.72894,800.2198,796.1905,772.01465,662.4176
1694305070.582,793.7729,798.20514,796.99634,781.28204,624.1392
1694305070.582,798.60803,797.3993,795.78754,793.36993,706.7399
1694305070.5830002,800.2198,797.3993,793.7729,801.02563,817.9487
1694305070.5830002,788.5348,796.1905,794.17584,788.1319,800.2198
1694305070.584,777.6557,798.60803,793.7729,778.0586,610.84247
1694305070.584,785.7143,798.20514,792.1612,793.36993,815.5311
1694305070.585,807.8755,803.8461,788.5348,813.1135,917.47253
1694305070.586,815.5311,803.8461,789.7436,817.9487,733.3333
1694305070.586,787.72894,795.38464,797.8022,791.3553,749.85345
1694305070.619,779.2674,789.7436,801.02563,770.0,653.95605
1694305070.62,794.9817,788.1319,804.2491,782.49084,616.8865
1694305070.624,810.696,791.75824,800.6227,789.7436,660.80585
1694305070.624,820.3663,793.7729,794.57874,796.99634,790.54944
1694305070.625,801.4286,795.38464,794.17584,787.72894,876.3736
1694305070.625,789.7436,795.38464,792.5641,770.0,716.4103
1694305070.626,793.36993,793.7729,791.3553,774.0293,677.72894
1694305070.626,806.6667,794.57874,791.75824,800.2198,856.2271
1694305070.627,813.1135,795.38464,794.9817,831.6484,1129.414
1694305070.627,801.4286,799.011,792.96704,823.9927,1004.10254
1694305070.628,790.9524,801.4286,789.34064,799.011,714.3956
1694305070.628,795.78754,800.2198,792.1612,803.0403,699.89014
1694305070.629,809.89014,803.0403,796.1905,823.9927,808.2784
1694305070.63,815.5311,803.44324,797.3993,830.0366,831.6484
1694305070.63,809.4872,800.2198,793.36993,809.0842,755.4945
1694305070.631,796.99634,799.011,788.93774,788.93774,808.2784
1694305070.632,799.81683,799.41394,792.1612,786.1172,848.5714
1694305070.632,807.47253,799.011,791.3553,797.3993,793.36993
1694305070.633,815.5311,800.2198,788.93774,808.2784,811.0989
1694305070.633,812.3077,801.4286,793.36993,803.44324,1021.4286
1694305070.6339998,796.5934,802.6374,794.17584,791.3553,1069.7803
1694305070.6339998,789.7436,802.23444,789.7436,774.83514,709.15753
1694305070.635,798.60803,797.3993,790.54944,781.685,633.00366
1694305070.635,806.26373,798.20514,795.78754,805.8608,749.0476
1694305070.6929998,799.011,808.68134,797.3993,804.2491,778.86444
1694305070.6940002,785.7143,806.6667,793.36993,776.04395,703.5165
1694305070.6940002,777.6557,801.02563,792.96704,766.77655,662.4176
1694305070.6950002,784.10254,804.65204,797.3993,786.9231,698.68134
1694305070.6990001,803.0403,806.26373,800.6227,809.89014,732.1245
1694305070.6990001,806.26373,804.2491,796.99634,811.50183,784.90845
1694305070.7,786.52014,800.2198,792.5641,797.3993,971.8681
1694305070.7,776.04395,800.2198,788.93774,791.3553,1160.4396
1694305070.701,782.0879,802.23444,786.52014,793.7729,863.47986
1694305070.701,795.78754,800.6227,784.90845,800.2198,677.72894
1694305070.7020001,797.3993,797.8022,789.34064,810.293,977.9121
1694305070.7020001,787.326,799.011,793.7729,803.8461,1041.1721
1694305070.725,784.5055,802.23444,791.75824,780.07324,687.8022
1694305070.726,789.7436,796.99634,787.72894,790.14655,567.72894
1694305070.726,796.99634,793.7729,788.1319,811.9048,682.1612
1694305070.727,802.23444,796.1905,791.3553,811.0989,780.87915
1694305070.727,795.78754,793.7729,790.54944,790.14655,738.97437
1694305070.728,788.93774,793.7729,792.1612,776.8498,633.4066
1694305070.728,790.14655,796.99634,792.96704,790.9524,873.95605
1694305070.7289999,805.4579,798.20514,793.7729,812.3077,976.30035
1694305070.7289999,811.50183,798.60803,797.3993,819.5604,751.8681
1694305070.7299998,794.57874,799.41394,803.0403,809.89014,812.3077
1694305070.7299998,790.14655,803.8461,801.4286,795.38464,830.0366
1694305070.731,794.17584,800.6227,795.38464,786.1172,658.3883
1694305070.817,803.44324,799.41394,796.5934,802.6374,643.0769
1694305070.8179998,811.0989,803.44324,797.8022,819.15753,767.1795
1694305070.8179998,799.41394,801.02563,791.3553,808.68134,812.71063
1694305070.819,794.17584,800.2198,788.5348,803.8461,721.6484
1694305070.819,787.72894,793.7729,796.1905,794.9817,660.40295
1694305070.82,787.326,788.93774,797.8022,799.81683,815.12823
1694305070.824,807.0696,791.3553,796.5934,817.5458,952.9304
1694305070.825,809.0842,796.5934,794.57874,811.9048,867.50916
1694305070.825,797.3993,799.41394,788.5348,793.36993,676.9231
1694305070.826,788.93774,797.3993,785.7143,780.4762,813.91943
1694305070.8270001,801.02563,797.3993,786.9231,802.6374,1206.7766
1694305070.8270001,811.0989,799.81683,792.5641,819.5604,1049.2307
1694305070.849,806.26373,800.6227,794.57874,814.7253,771.6117
1694305070.85,803.44324,804.2491,791.75824,804.2491,798.60803
1694305070.851,801.02563,799.41394,795.38464,796.1905,764.35895
1694305070.852,809.4872,795.38464,796.1905,804.65204,685.38464
1694305070.852,817.1429,798.20514,792.1612,817.9487,750.2564
1694305070.853,808.68134,796.1905,792.5641,822.7839,901.75824
1694305070.854,796.99634,797.3993,794.17584,804.65204,860.2564
1694305070.854,798.60803,801.4286,791.75824,790.14655,672.8938
1694305070.855,807.47253,800.2198,788.1319,801.02563,670.4762
1694305070.855,809.0842,795.78754,791.3553,819.5604,941.6484
1694305070.856,800.6227,792.96704,790.14655,813.5165,954.5421
1694305070.8569999,788.1319,793.36993,788.5348,782.49084,677.326
1694305070.8620002,783.69965,791.75824,789.34064,773.6264,609.6337
1694305070.8630002,792.5641,791.75824,788.93774,791.3553,632.6007
1694305070.864,802.6374,794.17584,791.3553,806.6667,730.10986
1694305070.865,805.05493,796.99634,791.75824,813.5165,762.74725
1694305070.865,793.36993,794.57874,792.96704,800.6227,774.83514
1694305070.866,779.67035,792.96704,791.3553,787.326,828.022
1694305070.866,788.1319,795.78754,790.9524,788.5348,766.3736
1694305070.867,801.4286,793.7729,790.54944,797.8022,741.79486
1694305070.871,801.8315,791.75824,790.14655,802.6374,894.90845
1694305070.871,788.93774,792.1612,786.52014,797.8022,1115.3114
1694305070.872,780.4762,791.3553,789.7436,786.52014,816.337
1694305070.872,792.96704,794.57874,796.1905,782.8938,586.6667
1694305070.906,806.6667,797.8022,793.36993,799.011,769.59705
1694305070.907,805.4579,792.96704,790.9524,809.89014,866.7033
1694305070.909,800.6227,796.99634,794.57874,803.8461,749.45056
1694305070.909,799.41394,800.2198,794.17584,788.5348,647.50916
1694305070.91,809.89014,799.011,792.5641,785.7143,643.8828
1694305070.911,816.7399,798.60803,791.75824,801.02563,774.43225
1694305070.911,810.293,796.99634,786.52014,808.68134,838.0952
1694305070.912,798.60803,795.78754,787.326,798.20514,773.22345
1694305070.9129999,791.3553,794.9817,790.14655,788.5348,946.8865
1694305070.9139998,793.7729,796.5934,788.5348,794.9817,995.64105
1694305070.9139998,801.02563,794.9817,788.5348,794.17584,718.4249
1694305070.915,805.8608,793.7729,787.326,800.6227,765.16486
1694305071.006,801.8315,798.60803,789.7436,804.65204,817.1429
1694305071.007,790.14655,801.02563,794.57874,782.8938,704.7253
1694305071.008,786.9231,798.60803,790.14655,770.0,612.4542
1694305071.0089998,809.4872,796.99634,788.93774,786.1172,675.7143
1694305071.01,817.1429,796.5934,792.1612,801.02563,816.7399
1694305071.0110002,796.5934,797.3993,790.54944,798.20514,833.2601
1694305071.012,785.7143,799.81683,792.96704,784.5055,730.9158
1694305071.013,789.34064,800.2198,794.9817,771.6117,803.0403
1694305071.0140002,796.1905,799.011,797.3993,797.3993,1071.392
1694305071.015,802.23444,801.4286,799.41394,819.9634,1000.4762
1694305071.021,808.68134,804.65204,796.99634,814.3223,787.326
1694305071.022,795.78754,796.99634,796.99634,803.0403,840.9158
1694305071.023,783.2967,792.5641,797.3993,785.7143,832.4542
1694305071.024,801.02563,798.60803,795.78754,790.54944,646.30035
1694305071.0249999,809.0842,799.81683,794.17584,810.696,702.71063
1694305071.0249999,801.8315,796.1905,796.1905,809.89014,783.2967
1694305071.0259998,792.96704,793.7729,795.38464,798.60803,737.3626
1694305071.027,789.34064,791.3553,794.17584,779.67035,679.7436
1694305071.027,799.011,792.96704,795.78754,785.7143,723.2601
1694305071.028,813.5165,798.20514,799.011,814.7253,890.87915
1694305071.029,815.12823,799.011,799.011,810.696,896.9231
1694305071.029,802.6374,797.3993,798.20514,789.34064,728.49817
1694305071.0300002,804.2491,796.5934,802.6374,783.2967,675.7143
1694305071.0310001,801.4286,793.7729,804.2491,801.8315,982.74725
1694305071.062,800.2198,792.5641,802.23444,811.9048,992.8205
1694305071.063,807.47253,792.96704,796.1905,797.8022,766.77655
1694305071.063,796.1905,791.75824,796.5934,786.9231,741.39197
1694305071.064,785.7143,792.1612,801.02563,774.0293,680.54944
1694305071.0649998,793.36993,794.57874,802.6374,781.685,672.49084
1694305071.0649998,806.6667,793.7729,801.4286,805.05493,732.52747
1694305071.066,807.8755,792.1612,803.44324,811.9048,990.80585
1694305071.066,797.3993,793.7729,803.8461,805.4579,1187.033
1694305071.0670002,803.0403,801.4286,796.1905,800.2198,836.08057
1694305071.0670002,804.2491,799.011,802.6374,800.2198,655.56775
1694305071.068,789.7436,789.7436,812.3077,814.7253,819.5604
1694305071.068,793.36993,789.34064,810.696,828.4249,838.0952
1694305071.099,803.0403,786.52014,810.696,819.15753,765.9707
1694305071.1,797.3993,786.1172,807.0696,800.2198,661.6117
1694305071.1009998,790.54944,788.93774,802.23444,796.99634,802.23444
1694305071.1020002,796.1905,785.31134,804.2491,815.5311,966.63007
1694305071.1020002,801.02563,783.2967,804.65204,825.6044,801.8315
1694305071.1030002,796.1905,784.90845,805.05493,816.337,745.0183
1694305071.104,792.1612,785.7143,803.8461,805.8608,954.5421
1694305071.104,788.93774,785.7143,803.44324,805.8608,910.6227
1694305071.105,799.011,784.5055,803.44324,819.5604,666.4469
1694305071.106,807.47253,786.9231,801.8315,823.1868,761.9414
1694305071.106,802.6374,787.72894,802.23444,819.9634,841.7216
1694305071.106,797.8022,784.5055,799.011,799.81683,758.315
1694305071.1660001,792.96704,784.10254,794.9817,780.87915,635.42126
1694305071.167,796.5934,788.1319,794.9817,799.81683,673.2967
1694305071.168,802.6374,790.9524,796.99634,817.1429,784.5055
1694305071.168,799.011,793.36993,796.1905,811.0989,787.72894
1694305071.169,788.5348,791.75824,795.78754,790.14655,676.1172
1694305071.169,789.34064,792.96704,799.41394,788.93774,752.27106
1694305071.1699998,803.44324,799.011,800.2198,811.50183,1135.4579
1694305071.171,807.47253,798.60803,801.8315,811.9048,1015.78754
1694305071.171,803.44324,796.5934,801.8315,807.47253,749.45056
1694305071.172,791.3553,794.9817,798.60803,792.1612,827.2161
1694305071.1729999,783.69965,794.9817,797.8022,775.64105,745.82416
1694305071.1729999,792.1612,794.17584,798.60803,782.0879,625.7509
1694305071.2,802.23444,794.57874,799.011,798.60803,696.6667
1694305071.201,797.3993,794.9817,798.20514,808.68134,850.18317
1694305071.205,780.4762,793.7729,799.011,792.96704,843.3333
1694305071.206,783.2967,795.38464,799.81683,780.87915,655.9707
1694305071.207,798.20514,798.20514,802.6374,796.5934,618.0952
1694305071.207,805.8608,800.6227,802.23444,809.4872,784.10254
1694305071.208,808.2784,801.8315,796.1905,814.3223,911.4286
1694305071.2089999,796.99634,802.6374,793.36993,804.2491,876.77655
1694305071.2089999,786.52014,796.99634,790.54944,782.8938,664.43225
1694305071.2099998,794.9817,794.57874,792.5641,792.1612,857.8388
1694305071.2099998,807.8755,800.2198,796.5934,813.91943,1019.81683
1694305071.211,810.293,802.23444,794.57874,811.50183,784.90845
1694305071.2380002,805.8608,802.6374,790.14655,796.99634,784.10254
1694305071.239,800.6227,801.4286,788.93774,781.28204,774.83514
1694305071.24,801.4286,799.81683,790.54944,779.67035,658.7912
1694305071.24,813.91943,805.4579,792.1612,799.011,659.59705
1694305071.241,818.3516,802.23444,792.96704,812.71063,788.1319
1694305071.2419999,805.05493,794.17584,791.75824,799.41394,838.0952
1694305071.2419999,787.72894,792.96704,793.36993,781.28204,773.22345
1694305071.243,794.9817,792.1612,792.5641,776.4469,599.9634
1694305071.243,810.696,794.9817,793.36993,794.9817,745.42126
1694305071.244,813.91943,797.8022,796.5934,822.381,1187.4359
1694305071.244,804.65204,797.3993,797.3993,808.68134,1048.022
1694305071.245,791.75824,796.99634,796.1905,792.5641,682.96704
1694305071.3430002,788.5348,798.60803,793.7729,793.7729,647.1062
1694305071.344,796.99634,800.2198,796.1905,800.2198,729.304
1694305071.345,809.0842,803.0403,799.81683,816.7399,778.0586
1694305071.346,804.2491,803.44324,798.60803,809.0842,734.1392
1694305071.352,793.7729,799.011,793.7729,791.75824,865.09155
1694305071.353,790.9524,799.81683,792.1612,784.10254,937.2161
1694305071.3539999,798.20514,800.6227,797.3993,792.96704,784.5055
1694305071.355,808.2784,795.78754,799.41394,811.0989,736.9597
1694305071.356,805.4579,791.3553,794.9817,817.1429,975.4945
1694305071.3569999,787.72894,790.54944,791.75824,800.2198,990.80585
1694305071.358,787.326,796.1905,792.1612,777.6557,610.84247
1694305071.359,806.26373,798.60803,792.1612,788.5348,691.8315
1694305071.3969998,813.91943,796.5934,791.3553,807.8755,892.49084
1694305071.3990002,807.47253,794.57874,793.36993,810.696,834.0659
1694305071.3990002,796.5934,795.78754,793.36993,790.14655,730.10986
1694305071.4,786.1172,796.5934,792.1612,771.6117,703.5165
1694305071.401,791.3553,797.3993,795.38464,786.1172,712.7839
1694305071.402,802.23444,796.1905,794.17584,806.26373,765.9707
1694305071.403,801.02563,794.17584,793.7729,803.44324,816.7399
1694305071.403,794.9817,798.60803,793.7729,788.93774,859.0476
1694305071.404,782.49084,797.8022,794.17584,781.685,928.7546
1694305071.405,780.87915,792.5641,795.38464,788.1319,724.0659
1694305071.405,796.1905,796.1905,796.5934,809.89014,637.8388
1694305071.4060001,799.81683,803.44324,795.78754,821.1722,869.5238
1694305071.407,790.54944,805.4579,795.78754,805.05493,932.381
1694305071.408,783.69965,804.65204,800.6227,785.7143,660.40295
1694305071.409,792.5641,804.65204,799.81683,777.6557,648.71796
1694305071.409,803.0403,801.4286,796.99634,791.3553,842.1245
1694305071.4099998,801.4286,798.60803,795.78754,802.23444,862.674
1694305071.4099998,793.7729,796.99634,793.36993,790.14655,830.84247
1694305071.415,782.8938,794.17584,794.57874,770.0,731.31866
1694305071.415,782.0879,794.17584,794.17584,775.2381,846.9597
1694305071.416,799.41394,796.99634,795.78754,800.6227,968.24176
1694305071.4169998,807.47253,801.4286,797.8022,810.696,769.59705
1694305071.4169998,796.1905,803.8461,797.8022,802.6374,784.5055
1694305071.418,786.9231,804.2491,800.2198,790.9524,743.8095
1694305071.4620001,786.52014,801.02563,796.1905,791.3553,617.6923
1694305071.464,799.41394,799.011,792.1612,801.02563,659.59705
1694305071.4659998,807.47253,802.23444,793.36993,809.4872,845.34796
1694305071.467,793.36993,801.02563,797.3993,798.60803,896.1172
1694305071.468,785.31134,795.78754,801.02563,785.7143,740.18317
1694305071.468,790.54944,794.9817,800.6227,783.69965,655.56775
1694305071.4689999,796.1905,796.5934,799.011,798.60803,861.4652
1694305071.47,802.6374,796.99634,800.6227,820.3663,1218.4615
1694305071.47,792.1612,793.36993,798.20514,802.23444,1035.9341
1694305071.471,776.4469,794.17584,794.9817,777.6557,673.69965
1694305071.471,782.49084,795.38464,796.99634,779.2674,825.2015
1694305071.472,792.5641,794.57874,795.78754,800.2198,892.0879
1694305071.529,799.81683,798.20514,794.17584,816.7399,751.4652
1694305071.5310001,798.60803,798.20514,794.9817,807.47253,759.12085
1694305071.532,788.1319,799.81683,795.38464,791.3553,696.26373
1694305071.533,784.5055,801.02563,795.78754,786.9231,648.315
1694305071.533,799.41394,803.0403,794.9817,798.20514,682.1612
1694305071.5340002,804.2491,796.99634,795.38464,815.5311,772.01465
1694305071.535,796.5934,795.38464,795.78754,819.5604,1094.762
1694305071.535,789.7436,799.011,794.57874,803.44324,1076.227
1694305071.54,781.685,795.38464,794.17584,778.86444,649.5238
1694305071.541,784.5055,792.96704,791.3553,781.28204,603.5897
1694305071.542,794.17584,788.1319,794.17584,803.44324,840.10986
1694305071.542,797.3993,792.1612,797.8022,806.26373,880.40295
1694305071.579,786.1172,799.81683,801.02563,788.93774,725.6777
1694305071.5809999,783.69965,798.20514,798.20514,778.46155,668.0586
1694305071.5809999,787.326,794.17584,793.7729,780.4762,662.01465
1694305071.582,795.78754,796.1905,797.3993,794.9817,716.0073
1694305071.5830002,794.57874,796.5934,796.5934,800.2198,769.59705
1694305071.5830002,782.0879,792.5641,794.17584,792.5641,891.28204
1694305071.584,780.4762,792.96704,799.41394,788.5348,914.2491
1694305071.584,786.52014,794.57874,801.02563,778.46155,727.28937
1694305071.585,803.44324,799.41394,799.81683,798.20514,698.2784
1694305071.586,811.0989,799.41394,800.2198,818.7546,950.10986
1694305071.586,799.011,795.78754,798.20514,808.2784,1178.5714
1694305071.5870001,786.1172,796.99634,794.9817,784.90845,836.08057
1694305071.588,791.3553,797.8022,793.7729,783.2967,558.86444
1694305071.589,805.05493,798.20514,792.96704,806.6667,725.2747
1694305071.589,808.2784,803.0403,794.57874,809.4872,811.0989
1694305071.5900002,799.41394,805.4579,797.3993,790.9524,711.5751
1694305071.5900002,788.93774,805.05493,797.8022,776.8498,655.16486
1694305071.591,788.5348,807.0696,796.5934,774.83514,718.8278
1694305071.592,796.5934,801.4286,797.3993,793.36993,825.2015
1694305071.592,798.20514,795.78754,799.81683,801.8315,827.2161
1694305071.593,792.1612,797.3993,799.41394,789.7436,762.74725
1694305071.5939999,782.0879,798.60803,799.011,779.2674,863.0769
1694305071.598,776.04395,799.011,799.011,780.87915,798.20514
1694305071.599,792.1612,801.02563,801.4286,802.6374,638.24176
1694305071.63,805.8608,799.81683,803.8461,814.7253,820.3663
1694305071.631,801.8315,800.2198,803.0403,808.68134,921.50183
1694305071.631,791.75824,801.8315,799.011,794.57874,735.7509
1694305071.632,789.7436,797.8022,795.78754,784.10254,611.2454
1694305071.632,802.6374,800.2198,798.60803,800.2198,726.08057
1694305071.633,808.2784,803.0403,800.6227,814.3223,875.9707
1694305071.633,801.02563,802.6374,803.8461,808.68134,838.49817
1694305071.6339998,790.9524,801.8315,803.0403,790.54944,699.4872
1694305071.6339998,789.7436,799.011,799.81683,782.8938,737.76556
1694305071.635,794.57874,798.60803,799.81683,803.8461,970.65936
1694305071.635,795.78754,800.2198,801.02563,813.5165,890.87915
1694305071.636,795.78754,799.011,801.4286,805.4579,751.4652
1694305071.689,790.54944,802.6374,801.8315,793.36993,870.7326
1694305071.6899998,790.54944,802.6374,800.2198,788.5348,834.4689
1694305071.6899998,803.0403,799.41394,799.011,800.6227,641.06226
1694305071.691,809.89014,798.60803,797.3993,814.7253,759.5238
1694305071.692,807.47253,799.41394,793.7729,813.5165,923.5165
1694305071.692,796.5934,798.60803,792.96704,790.9524,919.0842
1694305071.6929998,790.54944,797.8022,793.36993,781.28204,794.57874
1694305071.6929998,798.60803,799.41394,790.14655,792.96704,654.35895
1694305071.6940002,811.0989,802.23444,786.52014,817.5458,883.6264
1694305071.6940002,812.3077,799.41394,788.93774,818.3516,1027.0696
1694305071.6950002,792.96704,788.5348,795.78754,781.685,765.56775
1694305071.6950002,780.4762,785.7143,796.5934,772.4176,718.8278
1694305071.727,791.75824,794.57874,791.75824,786.1172,739.7802
1694305071.728,809.89014,798.60803,787.326,804.2491,763.5531
1694305071.7289999,811.0989,801.02563,784.10254,812.3077,817.1429
1694305071.7299998,797.8022,799.011,783.2967,793.7729,799.41394
1694305071.731,787.72894,792.5641,783.69965,778.86444,726.08057
1694305071.732,794.57874,792.5641,788.5348,791.75824,734.94507
1694305071.733,810.293,796.1905,789.34064,809.0842,763.95605
1694305071.7340002,811.9048,800.2198,793.36993,818.7546,909.41394
1694305071.7340002,803.0403,803.8461,796.99634,817.5458,1153.9927
1694305071.7350001,793.36993,800.6227,792.1612,799.011,889.67035
1694305071.7350001,797.3993,799.011,788.5348,793.7729,589.89014
1694305071.736,812.71063,801.02563,788.93774,819.9634,794.17584
1694305071.7910001,816.337,801.8315,789.34064,828.022,933.5897
1694305071.792,807.47253,803.0403,789.34064,808.2784,752.27106
1694305071.793,794.17584,799.011,786.52014,788.93774,642.27106
1694305071.794,793.7729,797.3993,788.93774,794.9817,622.9304
1694305071.794,806.6667,801.02563,796.1905,819.5604,713.1868
1694305071.795,813.91943,801.02563,795.78754,825.2015,821.1722
1694305071.796,808.2784,798.20514,788.5348,803.0403,827.619
1694305071.797,796.1905,796.99634,790.14655,788.93774,940.0366
1694305071.797,786.1172,794.9817,793.7729,787.72894,918.68134
1694305071.798,796.99634,792.96704,792.1612,798.20514,718.4249
1694305071.799,810.293,796.99634,790.54944,820.7692,737.76556
1694305071.8,808.2784,798.60803,794.57874,822.381,815.9341
1694305071.832,799.41394,798.20514,797.8022,802.6374,710.7692
1694305071.833,792.1612,790.54944,797.3993,793.7729,541.9414
1694305071.837,803.44324,786.1172,800.2198,807.47253,624.5421
1694305071.838,813.91943,788.5348,801.8315,827.2161,758.71796
1694305071.839,811.9048,788.93774,803.44324,830.0366,767.98535
1694305071.84,804.65204,790.54944,804.2491,805.4579,688.60803
1694305071.8409998,792.96704,789.7436,801.8315,792.1612,788.1319
1694305071.8419998,800.2198,791.3553,801.02563,815.9341,994.83514
1694305071.8419998,813.91943,792.1612,801.02563,832.0513,856.63007
1694305071.8430002,810.293,790.14655,803.44324,831.2454,792.96704
1694305071.8430002,801.4286,788.5348,800.6227,812.71063,935.2015
1694305071.844,796.99634,790.54944,799.011,802.23444,919.0842
1694305071.887,802.6374,790.9524,803.8461,806.26373,697.47253
1694305071.888,811.50183,789.7436,803.0403,817.9487,684.57874
1694305071.888,809.4872,791.75824,799.41394,819.5604,875.16486
1694305071.889,799.41394,793.36993,797.3993,788.93774,899.34064
1694305071.889,790.9524,795.78754,795.38464,779.2674,715.6044
1694305071.8899999,794.57874,796.5934,796.5934,792.96704,636.63007
1694305071.8899999,807.0696,794.9817,796.99634,819.9634,958.5714
1694305071.891,808.68134,795.78754,800.6227,832.4542,1083.4799
1694305071.891,794.9817,796.1905,799.81683,803.8461,722.4542
1694305071.892,787.326,792.5641,796.99634,784.90845,612.0513
1694305071.892,791.3553,795.38464,797.3993,784.10254,628.97437
1694305071.893,800.2198,796.99634,797.3993,814.7253,684.17584
1694305071.959,804.2491,791.75824,796.1905,826.8132,754.2857
1694305071.96,791.75824,795.38464,794.57874,807.47253,788.5348
1694305071.96,784.90845,796.99634,794.9817,791.75824,766.3736
1694305071.961,791.75824,793.36993,795.38464,783.69965,658.7912
1694305071.965,801.8315,791.75824,794.17584,794.9817,656.3736
1694305071.966,804.65204,785.7143,790.14655,807.8755,895.7143
1694305071.966,802.23444,786.1172,788.5348,799.41394,1045.2014
1694305071.967,794.17584,791.3553,788.1319,783.69965,775.2381
1694305071.968,793.7729,792.96704,790.14655,781.28204,566.1172
1694305071.968,803.44324,792.1612,790.14655,801.4286,834.87177
1694305071.9689999,805.05493,792.1612,787.72894,822.381,1304.2858
1694305071.9699998,799.41394,793.7729,788.93774,810.696,1021.4286
1694305072.006,792.5641,793.7729,792.5641,785.7143,581.8315
1694305072.007,793.36993,795.78754,795.78754,781.28204,586.6667
1694305072.008,807.0696,799.41394,792.96704,796.99634,661.6117
1694305072.008,809.89014,798.60803,789.7436,808.2784,746.63007
1694305072.0089998,796.99634,792.1612,787.72894,796.1905,816.7399
1694305072.01,782.49084,790.9524,787.72894,782.0879,888.46155
1694305072.01,778.0586,797.8022,793.36993,780.87915,823.1868
1694305072.0110002,791.75824,796.1905,797.8022,794.57874,740.58606
1694305072.012,801.8315,790.9524,796.5934,811.50183,787.72894
1694305072.012,791.3553,789.7436,793.7729,807.47253,853.8095
1694305072.013,778.46155,788.5348,796.1905,792.1612,771.6117
1694305072.013,776.8498,790.14655,797.8022,779.2674,652.74725
1694305072.019,788.1319,793.36993,795.78754,782.8938,713.5897
1694305072.02,800.6227,794.57874,796.99634,810.293,955.34796
1694305072.021,797.8022,795.38464,797.8022,817.1429,927.1429
1694305072.021,787.326,794.9817,793.7729,793.7729,720.84247
1694305072.022,782.49084,790.54944,795.78754,781.685,689.41394
1694305072.022,789.7436,791.3553,801.8315,794.17584,712.381
1694305072.0259998,804.2491,793.36993,803.0403,808.2784,796.1905
1694305072.0259998,807.8755,793.7729,803.44324,811.0989,824.3956
1694305072.027,797.3993,795.38464,804.2491,802.23444,830.4396
1694305072.027,790.14655,795.78754,803.8461,793.7729,1138.6813
1694305072.028,790.14655,794.17584,799.81683,795.78754,1039.5604
1694305072.028,798.20514,793.7729,794.9817,804.2491,709.9634
1694305072.068,805.4579,793.7729,796.1905,808.68134,750.2564
1694305072.069,795.38464,795.38464,801.4286,801.4286,733.73627
1694305072.0700002,787.326,796.5934,795.38464,788.5348,618.0952
1694305072.071,790.14655,797.3993,795.78754,785.7143,576.5934
1694305072.071,799.011,799.011,797.3993,794.57874,675.7143
1694305072.072,799.81683,796.99634,792.96704,805.05493,844.1392
1694305072.072,789.34064,792.96704,795.78754,789.7436,829.6337
1694305072.073,785.31134,793.36993,795.38464,772.4176,631.79486
1694305072.074,788.93774,796.99634,794.9817,787.326,799.81683
1694305072.074,795.78754,798.20514,795.38464,805.05493,962.6007
1694305072.075,805.05493,798.20514,796.5934,819.15753,800.2198
1694305072.075,799.81683,799.81683,797.3993,806.6667,753.47986
1694305072.1009998,793.36993,802.23444,797.3993,776.4469,776.8498
1694305072.1020002,795.78754,799.41394,792.5641,770.0,688.20514
1694305072.1020002,801.4286,796.99634,789.7436,792.1612,657.5824
1694305072.1030002,805.4579,800.2198,792.96704,811.0989,844.5421
1694305072.1030002,795.78754,796.99634,795.38464,802.23444,890.87915
1694305072.104,778.46155,790.9524,792.5641,778.46155,823.9927
1694305072.104,775.2381,791.75824,790.54944,773.6264,774.83514
1694305072.105,789.34064,792.5641,794.17584,793.7729,836.08057
1694305072.109,799.011,797.3993,796.1905,811.50183,1031.0989
1694305072.109,798.20514,797.8022,798.60803,807.8755,892.8938
1694305072.1100001,787.326,796.1905,798.60803,784.10254,696.6667
1694305072.1100001,786.52014,802.6374,801.4286,782.8938,803.44324
1694305072.135,801.8315,805.05493,803.8461,807.8755,948.0952
1694305072.136,807.47253,802.6374,797.3993,818.3516,813.91943
1694305072.1369998,801.02563,799.011,795.38464,807.8755,732.52747
1694305072.1379998,788.5348,798.20514,794.9817,790.14655,775.2381
1694305072.1379998,788.1319,800.6227,796.5934,786.9231,712.7839
1694305072.1390002,794.17584,799.41394,797.8022,799.41394,660.80585
1694305072.14,795.78754,790.54944,795.78754,805.8608,724.87177
1694305072.141,797.3993,787.326,796.99634,810.293,997.6557
1694305072.141,786.9231,792.1612,798.20514,796.99634,974.2857
1694305072.1420002,780.4762,794.9817,796.99634,777.6557,563.2967
1694305072.1420002,801.4286,798.20514,797.3993,800.2198,587.8755
1694305072.1430001,800.6227,793.36993,804.2491,808.68134,736.1539
1694305072.174,783.2967,786.52014,809.0842,793.7729,776.4469
1694305072.175,780.87915,782.49084,811.9048,792.5641,727.6923
1694305072.175,785.31134,784.10254,811.9048,796.99634,701.0989
1694305072.176,786.52014,787.326,806.26373,792.1612,751.4652
1694305072.176,792.96704,794.57874,803.44324,799.011,753.8828
1694305072.177,799.41394,800.6227,805.4579,805.4579,831.6484
1694305072.178,783.2967,796.99634,802.23444,790.54944,963.8095
1694305072.178,771.2088,798.60803,796.1905,786.52014,1126.5934
1694305072.1790001,788.5348,799.81683,796.1905,796.1905,902.5641
1694305072.1790001,804.65204,796.1905,795.38464,810.696,705.9341
1694305072.183,805.8608,798.60803,796.99634,831.2454,944.87177
1694305072.183,788.5348,794.57874,799.011,812.71063,963.8095
1694305072.2380002,779.67035,794.17584,795.78754,788.5348,700.293
1694305072.239,795.38464,796.99634,797.8022,797.3993,619.304
1694305072.24,807.8755,795.78754,799.41394,808.68134,744.21246
1694305072.24,806.6667,796.99634,796.5934,799.41394,855.0183
1694305072.241,793.7729,797.3993,796.5934,781.28204,791.75824
1694305072.241,788.5348,796.99634,798.20514,770.0,719.6337
1694305072.2419999,790.14655,795.38464,799.41394,778.0586,944.4689
1694305072.2419999,802.23444,795.78754,801.4286,806.6667,1070.989
1694305072.243,806.26373,795.78754,800.6227,801.4286,869.92676
1694305072.243,794.57874,797.3993,801.4286,791.75824,826.4103
1694305072.244,793.7729,801.4286,799.81683,788.1319,803.0403
1694305072.244,794.9817,798.20514,795.38464,783.2967,728.9011
1694305072.283,804.65204,795.78754,793.7729,793.7729,718.4249
1694305072.2849998,809.4872,795.38464,796.1905,812.3077,824.7985
1694305072.2849998,800.6227,797.8022,798.20514,809.89014,855.0183
1694305072.286,795.78754,798.60803,796.5934,789.34064,707.5458
1694305072.2870002,794.17584,799.011,797.3993,790.9524,595.9341
1694305072.288,805.8608,801.02563,800.6227,811.9048,766.77655
1694305072.288,817.1429,804.2491,799.41394,821.5751,1047.2161
1694305072.289,810.293,803.8461,796.5934,811.9048,897.72894
1694305072.29,796.1905,799.011,797.8022,795.38464,686.99634
1694305072.2910001,791.3553,795.38464,794.9817,780.07324,830.84247
1694305072.292,807.47253,792.96704,791.75824,785.7143,898.1319
1694305072.292,811.0989,795.38464,794.57874,804.2491,803.44324
1694305072.3209999,795.38464,799.011,798.60803,808.68134,812.3077
1694305072.3219998,785.31134,799.41394,794.57874,797.8022,910.2198
1694305072.3219998,785.7143,797.8022,792.96704,782.49084,963.8095
1694305072.323,794.9817,796.5934,794.17584,786.52014,707.9487
1694305072.323,799.011,799.41394,794.9817,804.2491,720.4396
1694305072.324,795.38464,801.4286,796.5934,801.4286,883.6264
1694305072.324,786.52014,799.41394,793.7729,781.685,828.022
1694305072.325,780.4762,797.8022,794.17584,770.0,676.52014
1694305072.325,784.90845,797.8022,797.8022,781.28204,605.2015
1694305072.325,795.38464,797.3993,795.78754,807.0696,886.04395
1694305072.3260002,799.81683,796.1905,793.7729,815.12823,996.4469
1694305072.3260002,790.9524,796.99634,794.17584,799.41394,711.1722
1694305072.391,780.87915,796.1905,796.1905,787.72894,647.1062
1694305072.392,785.31134,794.57874,797.3993,787.72894,728.9011
1694305072.393,800.2198,794.17584,794.9817,798.60803,734.5421
1694305072.3939998,801.02563,794.9817,792.96704,806.6667,730.5128
1694305072.3939998,786.1172,794.9817,795.78754,792.5641,732.9304
1694305072.395,788.1319,796.1905,799.41394,788.1319,684.57874
1694305072.396,807.0696,802.6374,797.3993,807.8755,711.5751
1694305072.396,807.0696,797.8022,799.011,815.12823,715.6044
1694305072.3969998,793.7729,785.31134,806.26373,817.9487,894.5055
1694305072.3969998,793.7729,783.2967,809.4872,827.619,1170.5128
1694305072.3980002,792.5641,785.31134,804.2491,809.0842,891.28204
1694305072.3990002,796.99634,791.75824,797.8022,799.011,589.0842
1694305072.441,816.7399,797.3993,794.57874,813.5165,793.36993
1694305072.442,815.5311,796.5934,790.14655,815.12823,929.15753
1694305072.446,796.99634,791.75824,788.1319,794.17584,796.1905
1694305072.446,792.1612,787.72894,787.326,789.7436,668.0586
1694305072.447,801.8315,789.7436,787.326,804.2491,735.34796
1694305072.447,806.6667,794.57874,787.326,819.15753,856.63007
1694305072.448,811.0989,799.011,790.54944,834.87177,823.9927
1694305072.449,808.2784,796.5934,794.9817,815.5311,754.2857
1694305072.449,793.7729,793.36993,794.57874,794.17584,888.46155
1694305072.4499998,794.57874,796.99634,797.3993,799.81683,878.3883
1694305072.451,803.44324,796.1905,794.57874,810.293,644.2857
1694305072.451,805.4579,792.96704,793.7729,816.337,760.32965
1694305072.5049999,809.0842,798.60803,799.81683,811.50183,844.1392
1694305072.5059998,796.99634,797.8022,799.81683,784.90845,738.5714
1694305072.507,793.7729,796.5934,801.02563,776.4469,623.73627
1694305072.508,811.9048,802.6374,799.81683,804.65204,673.2967
1694305072.508,815.5311,799.41394,799.41394,819.5604,803.44324
1694305072.5089998,810.293,799.011,799.81683,818.3516,846.55676
1694305072.5100002,801.02563,801.8315,798.60803,801.8315,773.6264
1694305072.5100002,792.5641,799.41394,801.02563,791.75824,751.06226
1694305072.5110002,799.41394,798.60803,801.4286,814.7253,1000.87915
1694305072.512,810.293,798.20514,799.41394,821.1722,1032.7106
1694305072.512,812.3077,801.8315,798.60803,807.47253,808.2784
1694305072.513,797.8022,803.0403,800.2198,793.7729,810.293
1694305072.537,788.93774,800.2198,799.011,785.7143,810.293
1694305072.5379999,798.20514,802.23444,797.3993,799.011,624.94507
1694305072.539,809.0842,801.02563,797.8022,813.1135,699.0842
1694305072.54,802.23444,801.4286,796.99634,804.2491,785.7143
1694305072.544,784.90845,802.23444,799.011,786.52014,759.5238
1694305072.5449998,782.8938,801.02563,797.8022,788.1319,685.78754
1694305072.5449998,789.34064,798.60803,794.57874,795.78754,649.5238
1694305072.5459998,800.2198,794.9817,794.9817,816.337,974.68866
1694305072.5470002,800.6227,798.60803,799.011,828.022,1122.1611
1694305072.5470002,788.5348,801.02563,800.6227,804.2491,741.39197
1694305072.548,787.72894,797.3993,796.99634,778.46155,623.3333
1694305072.549,793.36993,796.5934,794.57874,777.25275,705.5311
1694305072.555,807.8755,797.3993,795.38464,799.011,704.3223
1694305072.556,811.9048,795.78754,792.96704,807.8755,756.30035
1694305072.557,797.8022,792.5641,790.54944,792.96704,814.3223
1694305072.557,786.52014,792.1612,793.36993,777.25275,716.4103
1694305072.558,800.2198,799.41394,795.38464,792.96704,601.5751
1694305072.558,823.9927,800.6227,800.6227,816.337,718.022
1694305072.559,809.89014,790.14655,803.44324,812.3077,1018.60803
1694305072.56,786.1172,791.3553,797.3993,796.5934,1122.967
1694305072.56,790.14655,792.96704,796.5934,785.31134,788.93774
1694305072.5609999,795.78754,790.54944,801.02563,779.2674,602.7839
1694305072.5609999,805.8608,802.23444,799.81683,794.17584,880.40295
1694305072.5619998,815.12823,807.0696,799.81683,804.2491,1125.7876
1694305072.645,803.0403,800.2198,801.02563,788.93774,873.5531
1694305072.647,790.54944,795.78754,803.0403,786.9231,678.1319
1694305072.647,791.75824,798.20514,803.8461,789.34064,663.6264
1694305072.648,801.4286,795.38464,801.8315,799.81683,738.97437
1694305072.649,807.0696,791.3553,802.23444,814.3223,759.12085
1694305072.649,804.65204,794.57874,801.02563,803.8461,805.05493
1694305072.654,794.17584,795.38464,797.8022,798.20514,1015.38464
1694305072.655,794.57874,796.1905,797.3993,802.6374,936.8132
1694305072.656,808.2784,795.78754,801.02563,813.5165,676.9231
1694305072.656,814.3223,796.5934,804.2491,828.4249,717.2161
1694305072.6569998,812.71063,796.99634,799.41394,819.15753,778.46155
1694305072.6579998,801.4286,794.57874,794.9817,794.17584,720.0366
1694305072.6929998,792.5641,794.17584,793.36993,784.5055,660.40295
1694305072.6940002,801.8315,794.57874,793.7729,794.17584,685.38464
1694305072.6950002,817.9487,795.38464,794.17584,813.5165,838.9011
1694305072.6950002,814.7253,796.5934,792.1612,816.337,843.3333
1694305072.696,795.78754,793.36993,790.9524,792.5641,673.69965
1694305072.697,790.54944,790.9524,791.75824,783.2967,809.4872
1694305072.697,799.81683,789.7436,792.96704,795.78754,1004.90845
1694305072.698,809.0842,793.7729,794.17584,811.50183,840.10986
1694305072.698,812.3077,797.3993,796.1905,819.15753,734.1392
1694305072.6990001,797.8022,798.60803,799.81683,814.3223,885.64105
1694305072.6990001,788.5348,799.41394,802.6374,802.6374,940.84247
1694305072.7,796.5934,799.41394,798.20514,803.8461,687.3993
1694305072.726,810.293,796.5934,794.9817,815.5311,700.696
1694305072.727,811.50183,795.38464,795.78754,816.7399,848.1685
1694305072.728,792.1612,794.9817,798.60803,809.4872,864.2857
1694305072.7289999,786.9231,799.41394,805.4579,790.14655,757.50916
1694305072.7299998,791.75824,797.8022,802.6374,784.90845,598.3516
1694305072.7299998,798.20514,795.78754,799.81683,809.4872,950.5128
1694305072.731,807.47253,799.011,801.02563,815.9341,1187.033
1694305072.731,797.8022,794.17584,800.2198,797.3993,789.7436
1694305072.736,784.5055,790.14655,799.41394,792.5641,613.2601
1694305072.736,786.52014,794.17584,798.20514,796.99634,688.60803
1694305072.737,803.0403,797.8022,798.60803,811.9048,757.1062
1694305072.738,803.8461,796.99634,794.9817,821.5751,780.07324
1694305072.767,790.14655,793.7729,791.3553,811.0989,814.7253
1694305072.768,790.54944,793.36993,792.1612,783.69965,763.1502
1694305072.769,796.5934,796.99634,794.17584,773.6264,658.3883
1694305072.769,800.6227,798.60803,795.78754,801.02563,684.17584
1694305072.77,796.99634,794.17584,795.38464,821.1722,826.0073
1694305072.77,792.5641,792.5641,795.38464,810.696,925.12823
1694305072.7710001,788.93774,793.36993,794.9817,791.75824,802.23444
1694305072.772,779.2674,788.93774,790.9524,781.28204,676.52014
1694305072.772,786.52014,786.9231,792.1612,803.44324,827.2161
1694305072.773,802.6374,791.75824,796.1905,835.2747,1270.8425
1694305072.773,797.8022,793.36993,796.99634,828.8278,1226.5201
1694305072.7740002,788.1319,793.36993,794.57874,796.99634,730.9158
1694305072.809,792.1612,794.17584,793.7729,786.1172,703.5165
1694305072.81,806.6667,794.57874,798.20514,805.8608,769.59705
1694305072.811,810.696,799.011,796.99634,814.3223,710.3663
1694305072.812,808.2784,797.8022,796.5934,810.696,737.76556
1694305072.813,796.99634,795.78754,798.20514,794.17584,686.1905
1694305072.813,786.1172,792.96704,797.3993,788.5348,635.42126
1694305072.8140001,794.9817,788.93774,796.5934,798.60803,680.14655
1694305072.8140001,808.68134,792.96704,796.99634,811.0989,710.7692
1694305072.815,811.9048,794.9817,798.20514,815.5311,1006.52014
1694305072.815,792.96704,792.96704,793.7729,798.60803,1067.3627
1694305072.82,778.0586,790.54944,793.7729,784.10254,647.50916
1694305072.8209999,788.1319,788.5348,794.9817,799.011,623.3333
1694305072.855,800.6227,792.5641,790.9524,813.1135,788.1319
1694305072.856,800.6227,793.36993,789.34064,809.4872,801.8315
1694305072.8569999,788.5348,791.3553,792.5641,796.1905,754.68866
1694305072.8569999,785.7143,794.17584,794.57874,788.93774,732.52747
1694305072.8579998,792.5641,798.20514,792.1612,795.78754,745.42126
1694305072.859,806.26373,796.99634,794.9817,817.9487,855.0183
1694305072.859,806.6667,796.1905,799.41394,820.3663,897.326
1694305072.86,786.9231,799.011,798.20514,800.6227,922.3077
1694305072.86,779.67035,798.60803,794.9817,795.38464,958.5714
1694305072.8609998,786.9231,799.011,797.3993,797.8022,740.989
1694305072.8609998,796.5934,794.17584,798.60803,821.5751,725.6777
1694305072.8620002,799.81683,790.14655,794.9817,832.0513,994.83514
1694305072.894,786.1172,789.7436,790.14655,799.81683,1047.2161
1694305072.895,778.0586,792.5641,794.17584,782.49084,726.08057
1694305072.896,784.5055,794.57874,797.3993,788.5348,603.9927
1694305072.8969998,793.7729,792.96704,796.5934,799.011,717.2161
1694305072.8969998,801.8315,795.38464,794.9817,810.696,801.02563
1694305072.8979998,789.7436,797.3993,794.57874,796.1905,837.6923
1694305072.8979998,773.6264,795.38464,798.20514,782.49084,765.9707
1694305072.8990002,780.4762,794.57874,796.99634,797.3993,884.0293
1694305072.9,801.4286,798.60803,792.5641,812.71063,917.47253
1694305072.901,804.2491,800.6227,789.7436,814.3223,735.34796
1694305072.9020002,792.5641,797.8022,793.7729,802.23444,756.7033
1694305072.903,787.72894,799.41394,796.5934,788.1319,709.5604
1694305072.952,790.14655,801.4286,796.1905,786.52014,640.65936
1694305072.9539998,802.23444,800.2198,795.78754,804.65204,643.47986
1694305072.9539998,801.02563,798.20514,796.1905,820.3663,761.9414
1694305072.9550002,789.7436,798.60803,797.3993,817.9487,885.64105
1694305072.9550002,783.69965,801.4286,798.20514,794.17584,761.9414
1694305072.956,783.2967,799.011,796.5934,771.6117,628.5714
1694305072.956,793.7729,801.8315,796.99634,788.93774,835.2747
1694305072.957,803.0403,808.68134,800.6227,811.9048,1084.6886
1694305072.9580002,792.96704,805.8608,800.2198,803.44324,882.4176
1694305072.9580002,778.86444,803.0403,795.78754,778.46155,628.97437
1694305072.959,782.8938,803.0403,794.57874,775.64105,749.45056
1694305072.959,793.7729,803.0403,796.5934,796.5934,921.0989
1694305072.987,800.2198,807.0696,795.78754,811.9048,810.293
1694305072.988,796.99634,806.26373,794.17584,813.91943,799.81683
1694305072.9889998,784.90845,802.23444,794.17584,800.6227,782.8938
1694305072.9889998,780.87915,801.02563,792.5641,782.8938,706.337
1694305072.99,794.9817,801.8315,791.75824,787.72894,695.8608
1694305072.9910002,809.0842,802.6374,794.57874,802.23444,749.0476
1694305072.9910002,808.68134,803.8461,791.75824,801.02563,1056.4835
1694305072.992,809.4872,809.4872,785.7143,798.60803,1116.5201
1694305072.993,795.38464,800.6227,792.96704,777.25275,705.12823
1694305072.993,776.4469,787.326,799.011,767.1795,618.9011
1694305072.994,800.6227,784.90845,800.2198,803.0403,736.55676
1694305072.9950001,807.8755,784.90845,802.23444,812.3077,808.68134
1694305073.0419998,785.31134,789.34064,795.78754,773.6264,723.2601
1694305073.043,778.46155,793.7729,791.3553,757.9121,643.47986
1694305073.048,784.10254,796.99634,792.5641,775.2381,701.50183
1694305073.049,803.44324,801.4286,792.5641,806.26373,787.72894
1694305073.05,805.4579,800.2198,793.7729,812.71063,797.3993
1694305073.051,794.17584,794.57874,797.8022,804.65204,918.68134
1694305073.052,780.87915,792.5641,794.17584,793.7729,998.0586
1694305073.053,778.46155,794.9817,789.7436,790.9524,811.0989
1694305073.0540001,798.20514,796.5934,791.75824,813.91943,716.8132
1694305073.0540001,801.8315,794.57874,789.7436,824.3956,931.1722
1694305073.055,790.54944,797.8022,788.5348,816.7399,1210.0
1694305073.056,793.7729,802.6374,791.3553,801.4286,841.31866
1694305073.109,794.57874,796.1905,790.54944,791.3553,552.01465
1694305073.1100001,798.60803,793.7729,791.3553,801.02563,654.35895
1694305073.111,810.293,794.9817,797.3993,814.7253,753.8828
1694305073.112,804.2491,792.1612,799.011,813.1135,712.381
1694305073.113,788.93774,791.3553,796.5934,785.7143,602.381
1694305073.1139998,790.54944,790.54944,795.78754,779.2674,629.3773
1694305073.115,799.81683,792.1612,794.17584,790.9524,720.84247
1694305073.115,804.65204,796.1905,794.9817,795.38464,772.8205
1694305073.116,807.47253,796.5934,793.7729,794.57874,715.6044
1694305073.1169999,799.41394,794.9817,792.96704,783.69965,912.23444
1694305073.118,794.57874,792.96704,794.57874,780.4762,948.0952
1694305073.118,809.4872,792.1612,794.9817,799.81683,667.25275
1694305073.1539998,815.5311,792.96704,797.8022,817.5458,764.7619
1694305073.156,803.44324,794.9817,800.6227,812.71063,832.0513
1694305073.1569998,788.1319,794.9817,798.20514,798.60803,723.2601
1694305073.1580002,788.1319,794.57874,796.99634,784.5055,621.31866
1694305073.163,798.60803,792.5641,796.1905,793.36993,675.31134
1694305073.163,803.8461,794.17584,796.5934,814.3223,919.89014
1694305073.164,799.81683,797.3993,798.60803,817.9487,952.52747
1694305073.165,788.1319,796.1905,794.17584,788.5348,713.1868
1694305073.165,787.326,798.60803,792.1612,778.46155,712.7839
1694305073.1660001,792.5641,798.20514,796.99634,806.26373,975.09155
1694305073.167,795.78754,796.99634,795.78754,814.7253,904.57874
1694305073.167,798.60803,800.6227,793.7729,801.8315,786.1172
1694305073.1950002,788.1319,802.6374,795.78754,790.14655,929.5604
1694305073.196,784.5055,799.81683,794.9817,786.1172,902.5641
1694305073.197,796.5934,797.8022,796.1905,782.49084,653.5531
1694305073.1980002,803.44324,799.41394,794.9817,796.5934,704.3223
1694305073.1980002,803.44324,798.20514,791.75824,810.293,799.81683
1694305073.1990001,791.3553,795.78754,794.9817,793.7729,749.85345
1694305073.2,783.69965,797.3993,796.1905,780.87915,683.36993
1694305073.201,788.5348,798.60803,795.38464,786.9231,637.4359
1694305073.201,795.38464,795.38464,794.9817,805.4579,854.61536
1694305073.202,799.011,796.99634,794.9817,812.3077,969.0476
1694305073.203,791.75824,799.011,794.17584,799.81683,738.5714
1694305073.204,784.90845,796.1905,795.38464,787.72894,635.0183
1694305073.2419999,788.5348,796.99634,793.36993,795.78754,705.12823
1694305073.2419999,803.44324,798.60803,791.3553,815.12823,815.5311
1694305073.243,808.2784,799.81683,791.75824,818.3516,812.71063
1694305073.244,795.78754,801.02563,793.36993,807.8755,798.20514
1694305073.245,786.1172,797.8022,795.38464,793.7729,796.1905
1694305073.246,786.52014,795.78754,794.17584,780.87915,715.2015
1694305073.2499998,799.41394,795.78754,793.7729,798.60803,700.696
1694305073.2510002,806.26373,796.5934,790.9524,815.9341,882.8205
1694305073.2510002,807.0696,797.8022,788.1319,812.71063,1083.8828
1694305073.252,789.7436,792.96704,791.75824,792.5641,906.99634
1694305073.253,780.07324,787.326,796.99634,777.25275,635.42126
1694305073.253,805.4579,788.5348,801.02563,809.0842,799.011
1694305073.2849998,811.50183,788.93774,801.4286,827.619,1052.8572
1694305073.286,804.65204,794.17584,790.54944,798.60803,826.0073
1694305073.286,797.3993,796.99634,789.7436,779.2674,672.49084
1694305073.2870002,791.75824,795.38464,794.17584,784.5055,661.6117
1694305073.2870002,800.6227,795.78754,789.7436,799.41394,759.12085
1694305073.288,810.696,794.9817,790.14655,813.5165,833.663
1694305073.289,807.0696,792.5641,791.75824,810.696,863.47986
1694305073.289,794.17584,795.38464,789.7436,799.41394,904.17584
1694305073.29,792.96704,795.38464,788.93774,794.17584,767.1795
1694305073.29,807.47253,793.36993,790.9524,801.8315,678.93774
1694305073.2910001,815.12823,796.5934,792.5641,813.91943,716.4103
1694305073.292,809.4872,800.2198,797.3993,824.3956,1035.5311
1694305073.32,793.7729,800.6227,799.41394,813.91943,1041.1721
1694305073.3209999,786.9231,797.3993,794.57874,792.1612,612.0513
1694305073.3219998,800.6227,799.011,793.7729,799.011,594.7253
1694305073.323,816.337,798.20514,795.78754,816.7399,745.0183
1694305073.324,805.05493,794.17584,790.9524,808.2784,783.2967
1694305073.324,788.1319,794.9817,787.326,787.72894,751.4652
1694305073.325,792.96704,799.011,789.34064,780.87915,793.7729
1694305073.3260002,801.02563,799.41394,790.54944,785.7143,998.86444
1694305073.331,805.8608,801.02563,790.14655,801.02563,900.14655
1694305073.331,806.26373,803.0403,791.3553,801.02563,770.40295
1694305073.332,792.1612,794.57874,790.14655,787.326,923.1135
1694305073.333,785.31134,796.1905,789.34064,780.07324,899.34064
1694305073.356,790.14655,799.41394,788.5348,782.8938,637.8388
1694305073.359,801.02563,796.99634,790.54944,803.44324,660.40295
1694305073.36,807.0696,800.6227,792.1612,811.0989,787.326
1694305073.362,796.1905,797.3993,792.96704,795.38464,767.1795
1694305073.364,789.7436,793.7729,794.57874,792.5641,653.1502
1694305073.365,790.14655,792.96704,796.5934,797.8022,628.97437
1694305073.3660002,796.1905,789.7436,801.02563,816.337,987.5824
1694305073.367,801.02563,790.14655,801.8315,827.2161,1079.0476
1694305073.368,788.93774,789.7436,799.011,801.8315,771.6117
1694305073.37,779.2674,791.3553,796.99634,790.54944,679.34064
1694305073.371,785.7143,788.93774,794.17584,799.011,705.12823
1694305073.372,797.3993,788.93774,793.7729,808.68134,776.8498
1694305073.401,806.26373,793.7729,794.9817,813.91943,805.05493
1694305073.402,792.1612,791.3553,794.17584,809.0842,836.4835
1694305073.402,774.83514,786.52014,794.17584,786.9231,845.7509
1694305073.403,776.4469,789.7436,790.9524,777.25275,764.35895
1694305073.403,791.3553,794.17584,790.9524,782.0879,684.57874
1694305073.404,801.02563,796.1905,793.36993,797.8022,898.93774
1694305073.405,794.17584,798.20514,792.1612,808.68134,1041.5751
1694305073.405,790.54944,801.02563,795.38464,788.1319,740.58606
1694305073.4060001,792.5641,800.6227,797.8022,780.07324,570.9524
1694305073.4060001,799.41394,798.60803,795.78754,803.8461,826.0073
1694305073.411,805.4579,801.8315,793.36993,824.7985,1107.6556
1694305073.412,799.81683,800.2198,792.5641,812.3077,848.5714
1694305073.4819999,788.5348,795.38464,791.75824,792.1612,691.8315
1694305073.483,789.7436,800.6227,790.14655,790.9524,774.0293
1694305073.485,803.0403,805.05493,793.36993,798.60803,759.12085
1694305073.486,808.68134,803.0403,794.17584,810.696,731.7216
1694305073.487,806.26373,804.2491,796.1905,810.293,733.3333
1694305073.488,788.5348,800.2198,797.3993,788.1319,770.40295
1694305073.4889998,780.07324,794.9817,795.38464,781.28204,716.4103
1694305073.4899998,799.41394,799.011,794.17584,792.1612,643.47986
1694305073.4899998,813.5165,797.8022,796.1905,802.23444,724.87177
1694305073.4910002,799.81683,794.17584,798.20514,810.696,956.55676
1694305073.492,782.8938,793.36993,800.2198,805.4579,906.5934
1694305073.493,783.69965,794.17584,798.20514,786.52014,602.381
1694305073.5249999,787.326,792.96704,799.41394,783.69965,662.4176
1694305073.526,792.5641,792.5641,799.41394,796.1905,807.47253
1694305073.526,795.78754,795.78754,794.17584,800.2198,821.5751
1694305073.527,787.72894,799.41394,798.20514,787.72894,776.04395
1694305073.528,781.685,795.78754,799.81683,776.4469,752.674
1694305073.529,787.72894,792.5641,794.9817,784.5055,900.14655
1694305073.53,799.011,794.17584,796.5934,796.99634,926.337
1694305073.5310001,801.02563,794.9817,801.8315,807.8755,807.0696
1694305073.532,788.5348,799.011,798.20514,797.3993,821.5751
1694305073.533,780.4762,799.81683,794.9817,779.2674,958.5714
1694305073.5340002,786.9231,794.57874,795.78754,782.0879,776.8498
1694305073.535,802.23444,795.38464,796.5934,807.0696,672.8938
1694305073.5619998,801.8315,799.011,797.8022,817.9487,887.25275
1694305073.563,789.34064,798.60803,797.3993,794.17584,931.5751
1694305073.564,785.7143,795.78754,797.8022,784.5055,726.8865
1694305073.5649998,790.14655,792.96704,797.3993,786.1172,628.1685
1694305073.5660002,802.6374,792.5641,796.1905,805.8608,750.65936
1694305073.5670002,805.4579,792.1612,800.2198,827.2161,925.9341
1694305073.568,795.78754,793.36993,803.8461,818.3516,855.42126
1694305073.569,788.1319,792.96704,803.0403,798.60803,740.18317
1694305073.57,786.52014,793.7729,801.8315,790.9524,720.4396
1694305073.571,790.54944,794.57874,803.44324,802.6374,746.2271
1694305073.572,795.38464,796.1905,803.44324,812.3077,784.10254
1694305073.573,793.36993,798.20514,803.0403,803.44324,736.1539
1694305073.612,784.5055,796.5934,803.0403,792.96704,861.8681
1694305073.613,784.10254,796.5934,802.6374,791.75824,772.4176
1694305073.614,796.5934,794.57874,803.0403,800.6227,606.8132
1694305073.614,796.99634,789.34064,800.2198,807.0696,772.4176
1694305073.615,791.3553,787.326,799.41394,803.0403,846.9597
1694305073.615,780.87915,788.93774,801.02563,786.1172,750.65936
1694305073.616,773.22345,790.54944,796.5934,778.86444,714.7985
1694305073.6169999,790.54944,792.1612,797.3993,801.02563,854.61536
1694305073.6169999,806.6667,795.38464,800.2198,821.978,973.47986
1694305073.6179998,803.8461,797.3993,799.41394,818.7546,885.64105
1694305073.619,792.5641,796.5934,798.60803,801.02563,747.4359
1694305073.62,789.7436,798.60803,798.20514,787.326,684.57874
1694305073.666,798.60803,802.23444,801.4286,807.47253,1038.7546
1694305073.667,806.26373,804.65204,799.011,820.7692,1059.3041
1694305073.67,809.0842,804.2491,796.99634,807.0696,724.0659
1694305073.67,799.011,804.2491,797.3993,789.7436,672.0879
1694305073.67,790.9524,805.4579,796.1905,781.28204,646.30035
1694305073.671,798.20514,799.011,794.57874,796.1905,683.7729
1694305073.671,811.50183,799.011,794.57874,811.50183,749.45056
1694305073.672,808.2784,803.8461,797.3993,815.5311,1045.2014
1694305073.6729999,789.7436,803.0403,797.3993,801.4286,1060.9158
1694305073.6729999,787.326,803.44324,799.41394,789.34064,652.74725
1694305073.6739998,795.78754,803.8461,802.23444,800.6227,606.8132
1694305073.6739998,808.68134,803.8461,801.8315,815.5311,760.32965
1694305073.72,813.5165,802.23444,797.3993,817.5458,806.26373
1694305073.721,800.6227,803.8461,797.8022,802.6374,715.6044
1694305073.722,790.9524,803.8461,799.011,785.31134,679.34064
1694305073.723,791.75824,797.8022,796.1905,790.14655,724.87177
1694305073.723,801.02563,797.8022,798.60803,805.8608,775.2381
1694305073.724,807.47253,793.7729,798.20514,805.4579,822.7839
1694305073.725,796.1905,786.1172,794.9817,794.57874,942.0513
1694305073.726,781.28204,790.54944,794.9817,787.326,973.0769
1694305073.726,790.9524,798.60803,799.41394,795.78754,708.3516
1694305073.727,805.4579,795.78754,801.8315,811.0989,708.3516
1694305073.727,805.8608,795.78754,796.5934,816.337,984.7619
1694305073.728,795.78754,799.41394,796.1905,801.02563,987.1795
1694305073.7580001,785.7143,798.60803,797.3993,777.25275,699.4872
1694305073.76,793.7729,797.8022,794.9817,778.86444,591.50183
1694305073.761,807.0696,796.5934,794.9817,798.60803,809.89014
1694305073.7619998,809.89014,801.4286,799.011,812.3077,946.8865
1694305073.767,803.44324,799.41394,801.8315,804.2491,788.93774
1694305073.769,794.9817,792.1612,797.8022,774.83514,658.7912
1694305073.7710001,796.5934,794.17584,794.17584,769.19415,850.18317
1694305073.772,803.44324,796.99634,794.57874,795.38464,923.91943
1694305073.773,800.2198,796.5934,794.17584,807.0696,734.94507
1694305073.7740002,794.9817,791.3553,795.38464,803.0403,734.94507
1694305073.776,786.52014,788.5348,794.17584,780.4762,732.9304
1694305073.777,781.685,788.5348,793.36993,770.40295,626.9597
1694305073.8270001,794.17584,787.326,795.78754,792.1612,611.2454
1694305073.829,801.02563,788.1319,796.1905,811.50183,749.45056
1694305073.829,792.96704,790.54944,795.38464,803.8461,804.65204
1694305073.8300002,778.0586,791.75824,796.1905,775.2381,709.15753
1694305073.831,772.8205,791.75824,797.3993,777.25275,637.4359
1694305073.831,786.52014,790.9524,796.5934,805.8608,781.685
1694305073.832,797.8022,791.3553,801.02563,826.4103,1168.0952
1694305073.833,794.17584,793.36993,800.2198,817.5458,1035.1282
1694305073.833,783.69965,794.17584,795.78754,788.93774,634.21246
1694305073.8339999,781.685,792.96704,796.1905,784.5055,753.0769
1694305073.835,786.1172,792.96704,796.5934,794.57874,929.15753
1694305073.835,793.36993,792.1612,794.17584,798.60803,801.8315
1694305073.837,792.1612,792.5641,793.36993,801.8315,755.09155
1694305073.837,780.07324,797.8022,793.7729,795.78754,851.39197
1694305073.838,776.4469,801.4286,791.75824,780.4762,809.4872
1694305073.839,788.93774,802.23444,792.1612,780.4762,681.75824
1694305073.84,799.011,802.6374,790.14655,801.02563,752.674
1694305073.8409998,796.99634,797.8022,788.93774,809.0842,935.6044
1694305073.8460002,785.7143,795.38464,788.1319,785.7143,905.38464
1694305073.848,785.7143,796.5934,787.72894,774.43225,717.2161
1694305073.849,797.3993,796.99634,790.14655,780.4762,604.7985
1694305073.849,809.89014,803.44324,790.54944,802.23444,916.6667
1694305073.85,813.1135,797.8022,793.7729,811.0989,1110.4762
1694305073.851,796.99634,791.75824,796.99634,782.0879,758.315
1694305073.893,783.69965,794.9817,795.78754,766.77655,662.8205
1694305073.894,787.326,792.1612,796.5934,781.28204,674.5055
1694305073.895,797.8022,790.54944,796.99634,799.81683,739.7802
1694305073.895,802.23444,792.5641,794.17584,808.68134,797.3993
1694305073.896,794.17584,791.75824,794.9817,795.38464,818.7546
1694305073.8969998,783.69965,791.75824,793.36993,788.1319,769.19415
1694305073.8979998,794.9817,792.5641,792.1612,782.49084,663.22345
1694305073.8990002,803.44324,794.57874,794.9817,793.7729,675.31134
1694305073.9,805.05493,794.57874,798.60803,813.1135,843.73627
1694305073.9,799.81683,791.75824,797.3993,811.50183,1083.4799
1694305073.901,782.0879,794.17584,792.96704,790.54944,881.2088
1694305073.9020002,783.69965,796.5934,792.5641,777.25275,639.45056
1694305073.943,804.65204,796.99634,796.5934,810.696,845.7509
1694305073.945,807.47253,795.78754,799.41394,826.0073,1003.69965
1694305073.945,799.41394,793.7729,790.54944,807.8755,802.23444
1694305073.9459999,806.26373,801.8315,783.69965,801.8315,711.5751
1694305073.9459999,796.5934,797.8022,796.1905,793.7729,672.8938
1694305073.947,782.8938,786.1172,805.8608,788.5348,754.2857
1694305073.947,795.78754,785.31134,807.0696,803.8461,907.3993
1694305073.948,808.68134,788.1319,809.89014,815.9341,823.9927
1694305073.952,797.3993,795.78754,806.6667,799.41394,902.96704
1694305073.9529998,775.64105,799.81683,802.6374,776.04395,909.81683
1694305073.9539998,786.9231,802.6374,793.36993,786.1172,645.89746
1694305073.9539998,806.26373,807.47253,786.9231,802.23444,748.24176
1694305074.012,805.05493,807.8755,791.3553,794.9817,865.4945
1694305074.013,788.93774,801.8315,788.5348,774.0293,777.6557
1694305074.0140002,782.0879,796.5934,789.34064,770.40295,621.7216
1694305074.0140002,796.1905,798.20514,791.3553,792.1612,683.7729
1694305074.015,805.8608,794.9817,788.93774,804.2491,861.06226
1694305074.016,801.8315,794.57874,788.5348,802.23444,902.96704
1694305074.016,794.17584,793.36993,786.1172,789.34064,824.7985
1694305074.017,786.1172,790.14655,785.31134,775.2381,792.96704
1694305074.017,791.75824,791.75824,786.52014,781.685,945.2747
1694305074.018,811.0989,794.9817,786.9231,794.17584,892.49084
1694305074.018,814.3223,795.78754,789.7436,801.4286,748.6447
1694305074.019,799.41394,796.1905,792.96704,796.99634,811.9048
1694305074.049,789.34064,796.5934,794.57874,786.52014,837.28937
1694305074.05,795.38464,796.5934,790.54944,790.9524,654.7619
1694305074.051,806.26373,794.17584,789.7436,813.5165,730.9158
1694305074.051,808.2784,793.7729,792.96704,819.5604,941.2454
1694305074.052,793.36993,796.5934,793.36993,795.38464,879.59705
1694305074.052,783.2967,794.57874,791.75824,780.4762,671.685
1694305074.053,789.34064,793.36993,793.36993,781.685,645.09155
1694305074.053,798.20514,793.36993,796.99634,804.2491,991.2088
1694305074.0540001,797.8022,793.36993,797.8022,829.2308,1142.3077
1694305074.055,785.31134,797.3993,800.6227,810.293,775.2381
1694305074.059,776.8498,799.011,799.011,782.49084,603.5897
1694305074.059,780.87915,798.20514,796.99634,789.7436,645.4945
1694305074.0649998,795.78754,796.1905,796.5934,810.293,722.0513
1694305074.066,805.8608,795.78754,792.96704,814.7253,760.32965
1694305074.0670002,792.5641,794.17584,792.1612,800.2198,760.7326
1694305074.0670002,782.49084,794.9817,793.36993,784.5055,709.15753
1694305074.068,787.72894,798.60803,796.1905,790.14655,656.77655
1694305074.068,801.4286,796.1905,796.5934,808.2784,692.23444
1694305074.069,809.4872,792.5641,794.9817,812.71063,843.73627
1694305074.0700002,796.5934,791.3553,795.78754,804.2491,1228.9377
1694305074.0700002,784.5055,792.5641,793.36993,788.5348,990.0
1694305074.071,786.1172,791.3553,793.36993,778.0586,563.69965
1694305074.071,796.99634,793.7729,795.78754,797.3993,797.3993
1694305074.072,807.47253,799.011,795.38464,816.7399,950.9158
1694305074.122,796.5934,798.60803,794.17584,812.71063,813.1135
1694305074.1230001,781.685,795.38464,790.9524,785.31134,713.5897
1694305074.1230001,786.52014,796.5934,793.36993,784.90845,653.5531
1694305074.124,797.8022,799.011,798.20514,809.0842,666.8498
1694305074.125,803.44324,793.7729,799.41394,813.5165,774.83514
1694305074.125,797.8022,793.36993,799.011,811.0989,816.7399
1694305074.1260002,786.1172,799.011,796.5934,805.05493,975.09155
1694305074.127,786.1172,799.011,794.17584,796.5934,927.9487
1694305074.127,796.1905,798.60803,792.96704,795.38464,677.72894
1694305074.128,804.2491,799.41394,792.1612,803.8461,743.4066
1694305074.129,806.26373,797.8022,796.5934,807.47253,826.0073
1694305074.1299999,793.36993,792.96704,796.5934,783.69965,732.52747
1694305074.189,787.326,790.9524,794.9817,772.4176,583.8461
1694305074.19,801.8315,796.99634,794.9817,799.011,648.71796
1694305074.191,815.9341,797.8022,797.3993,822.7839,852.6007
1694305074.191,800.2198,790.9524,805.8608,814.7253,879.59705
1694305074.192,785.31134,784.5055,809.4872,794.57874,742.1978
1694305074.1929998,793.7729,788.1319,808.68134,799.81683,816.337
1694305074.1929998,800.6227,792.1612,805.05493,807.8755,924.3223
1694305074.1939998,807.0696,796.99634,799.81683,814.7253,855.42126
1694305074.1950002,810.696,800.6227,800.6227,813.5165,789.34064
1694305074.1950002,800.6227,800.6227,800.6227,804.2491,849.7802
1694305074.196,794.57874,799.81683,798.20514,801.02563,1064.5421
1694305074.196,795.78754,799.41394,799.81683,801.8315,871.9414
1694305074.2220001,799.011,797.3993,801.4286,811.50183,677.72894
1694305074.223,810.696,795.78754,800.6227,818.7546,855.0183
1694305074.224,802.6374,796.1905,798.60803,804.65204,886.4469
1694305074.225,788.93774,794.9817,797.8022,785.7143,695.4579
1694305074.225,790.9524,793.36993,793.36993,780.4762,660.80585
1694305074.2259998,802.6374,794.57874,794.17584,800.6227,816.7399
1694305074.2259998,810.696,798.60803,797.3993,818.7546,867.9121
1694305074.227,796.1905,794.57874,794.17584,806.6667,761.9414
1694305074.228,786.52014,793.7729,792.5641,789.7436,648.71796
1694305074.228,792.96704,796.1905,799.011,796.5934,768.7912
1694305074.2289999,803.8461,798.60803,799.81683,822.381,844.94507
1694305074.23,807.47253,796.5934,796.1905,824.7985,766.77655
1694305074.2819998,803.8461,795.38464,795.78754,810.696,791.75824
1694305074.283,792.5641,797.3993,792.1612,786.9231,801.02563
1694305074.288,790.54944,793.7729,791.75824,776.8498,719.6337
1694305074.289,809.4872,796.5934,794.9817,799.41394,638.24176
1694305074.289,815.12823,800.2198,794.9817,822.381,818.7546
1694305074.29,806.26373,801.8315,796.5934,824.7985,941.6484
1694305074.29,790.54944,800.2198,798.60803,806.26373,795.38464
1694305074.2910001,794.17584,796.5934,795.38464,794.17584,685.78754
1694305074.292,813.1135,798.60803,794.9817,796.1905,736.55676
1694305074.292,815.12823,800.6227,796.1905,810.293,1126.5934
1694305074.293,803.8461,796.99634,791.75824,809.4872,1065.751
1694305074.293,788.5348,799.41394,789.7436,790.14655,714.3956
1694305074.3470001,784.10254,801.4286,788.5348,789.34064,740.989
1694305074.348,793.36993,799.011,790.54944,811.0989,759.92676
1694305074.348,803.0403,797.3993,793.7729,825.2015,722.0513
1694305074.349,801.02563,795.38464,793.36993,815.5311,780.4762
1694305074.3500001,792.96704,794.17584,794.17584,790.14655,795.38464
1694305074.3500001,788.93774,796.5934,794.57874,774.83514,779.67035
1694305074.351,796.5934,798.60803,794.57874,779.2674,779.67035
1694305074.352,809.0842,795.38464,797.3993,796.5934,734.5421
1694305074.352,807.8755,794.17584,796.1905,806.6667,942.8571
1694305074.353,796.99634,796.5934,797.8022,797.3993,1038.7546
1694305074.3539999,787.326,793.7729,797.8022,780.87915,691.8315
1694305074.3539999,789.7436,790.9524,792.96704,791.3553,624.94507
1694305074.362,803.44324,794.17584,793.36993,813.1135,731.31866
1694305074.3630002,807.0696,796.5934,794.9817,814.3223,786.9231
1694305074.364,795.38464,797.3993,796.99634,797.8022,720.0366
1694305074.365,788.93774,793.7729,797.3993,780.87915,676.1172
1694305074.369,792.1612,792.96704,800.2198,789.34064,675.7143
1694305074.37,803.0403,794.57874,797.3993,812.3077,749.85345
1694305074.371,804.65204,792.96704,790.9524,820.7692,857.03296
1694305074.372,793.36993,792.1612,790.14655,801.4286,916.26373
1694305074.373,787.72894,794.17584,797.3993,791.75824,1106.4469
1694305074.373,794.17584,794.9817,804.2491,805.05493,1010.14655
1694305074.374,804.2491,790.9524,800.6227,811.0989,753.0769
1694305074.374,804.2491,788.93774,794.57874,825.6044,925.9341
1694305074.404,799.011,790.14655,792.5641,818.7546,991.2088
1694305074.404,795.78754,794.17584,790.54944,793.36993,701.0989
1694305074.405,803.8461,794.57874,792.1612,791.3553,624.94507
1694305074.4060001,819.15753,791.75824,798.20514,808.2784,727.28937
1694305074.4060001,817.1429,799.41394,796.1905,818.7546,833.2601
1694305074.407,806.6667,801.4286,792.1612,811.50183,844.1392
1694305074.407,801.4286,797.8022,797.8022,792.1612,682.96704
1694305074.407,802.6374,794.9817,799.41394,797.8022,797.8022
1694305074.408,818.7546,791.3553,797.8022,816.337,905.78754
1694305074.409,821.1722,794.9817,796.99634,821.978,740.18317
1694305074.409,814.7253,797.8022,796.99634,821.1722,749.85345
1694305074.4099998,805.8608,797.3993,799.41394,796.99634,734.5421
1694305074.444,794.9817,798.60803,799.81683,784.10254,644.2857
1694305074.445,804.2491,797.3993,796.99634,804.2491,634.61536
1694305074.446,815.12823,793.7729,796.1905,830.4396,780.87915
1694305074.446,814.3223,793.7729,793.7729,820.3663,849.7802
1694305074.447,807.47253,793.36993,793.36993,782.49084,751.4652
1694305074.447,802.23444,790.54944,796.1905,775.64105,639.0476
1694305074.451,811.50183,790.14655,797.3993,795.38464,826.4103
1694305074.452,821.5751,793.7729,796.99634,815.5311,1185.4213
1694305074.452,815.5311,798.20514,794.57874,818.7546,1001.28204
1694305074.4529998,800.6227,793.7729,794.9817,801.8315,728.9011
1694305074.4529998,795.38464,790.14655,796.5934,795.38464,807.8755
1694305074.4540002,805.8608,793.7729,797.8022,806.26373,819.5604
1694305074.499,819.15753,794.17584,798.20514,814.7253,740.18317
1694305074.5,817.9487,795.38464,797.3993,814.3223,762.74725
1694305074.501,803.8461,793.7729,802.23444,804.65204,826.4103
1694305074.502,801.4286,792.5641,799.41394,793.7729,756.7033
1694305074.503,807.8755,794.57874,793.36993,792.1612,630.18317
1694305074.504,812.71063,792.5641,797.8022,811.0989,713.5897
1694305074.5049999,817.9487,793.7729,800.2198,826.4103,1016.5934
1694305074.5059998,806.6667,794.17584,804.2491,814.7253,1061.3187
1694305074.507,794.17584,791.3553,805.8608,789.34064,662.4176
1694305074.508,805.4579,792.96704,808.2784,801.4286,578.60803
1694305074.5089998,815.9341,801.8315,809.0842,827.2161,744.21246
1694305074.5100002,809.89014,799.81683,803.44324,827.619,853.4066
1694305074.576,794.9817,793.7729,799.41394,805.4579,757.50916
1694305074.577,787.326,796.5934,796.5934,784.10254,655.56775
1694305074.5779998,792.96704,795.38464,794.9817,787.72894,684.17584
1694305074.579,805.4579,792.96704,795.38464,801.8315,759.5238
1694305074.58,804.2491,790.54944,795.78754,811.9048,805.05493
1694305074.58,791.75824,791.75824,795.38464,799.011,864.2857
1694305074.582,784.90845,795.78754,794.57874,784.90845,1121.3553
1694305074.584,786.9231,797.3993,798.20514,791.3553,975.4945
1694305074.589,797.8022,798.20514,801.02563,794.9817,695.05493
1694305074.591,799.41394,799.011,800.2198,802.23444,925.9341
1694305074.592,791.3553,800.2198,798.60803,796.5934,998.86444
1694305074.593,780.4762,800.2198,797.8022,778.0586,700.293
1694305074.624,782.49084,800.2198,798.20514,780.07324,583.0403
1694305074.625,793.7729,800.2198,797.3993,797.3993,724.87177
1694305074.626,797.8022,797.8022,797.3993,809.4872,850.58606
1694305074.627,793.36993,795.38464,794.57874,795.38464,814.3223
1694305074.627,782.0879,794.17584,794.9817,775.64105,696.26373
1694305074.628,781.685,797.8022,798.20514,776.4469,734.5421
1694305074.628,795.38464,798.60803,796.5934,794.17584,772.8205
1694305074.629,806.6667,798.20514,792.5641,800.6227,808.68134
1694305074.629,801.02563,801.4286,792.96704,789.34064,794.17584
1694305074.63,790.54944,805.4579,795.78754,776.04395,929.15753
1694305074.631,797.8022,807.0696,798.20514,778.86444,965.0183
1694305074.631,806.26373,806.26373,800.2198,794.57874,678.5348
1694305074.6369998,810.293,806.6667,797.3993,810.293,738.1685
1694305074.638,806.6667,803.44324,793.7729,805.4579,815.9341
1694305074.6390002,791.75824,798.20514,790.9524,781.28204,724.87177
1694305074.6390002,784.10254,796.99634,786.9231,760.7326,630.989
1694305074.64,794.9817,801.4286,787.326,767.5824,671.28204
1694305074.64,806.6667,803.44324,792.96704,793.7729,844.1392
1694305074.641,802.6374,801.02563,794.17584,796.5934,925.9341
1694305074.641,787.72894,798.20514,792.96704,777.25275,771.6117
1694305074.642,782.49084,799.41394,795.38464,766.3736,746.63007
1694305074.642,790.54944,799.011,792.96704,790.54944,1108.8645
1694305074.6460001,801.02563,798.60803,789.34064,813.91943,1172.9304
1694305074.647,804.2491,801.02563,791.3553,802.6374,882.4176
1694305074.688,790.54944,806.6667,793.36993,783.2967,781.685
1694305074.689,785.7143,809.0842,794.57874,784.10254,686.5934
1694305074.6899998,788.93774,806.26373,796.1905,794.17584,616.4835
1694305074.6899998,796.99634,803.8461,791.75824,820.3663,689.41394
1694305074.691,809.4872,798.60803,787.326,828.022,785.7143
1694305074.691,787.72894,791.75824,788.93774,790.54944,772.4176
1694305074.692,771.2088,789.34064,791.3553,766.3736,664.43225
1694305074.6929998,779.67035,791.3553,794.57874,757.1062,539.5238
1694305074.6929998,791.3553,798.20514,791.75824,780.87915,823.5897
1694305074.6940002,797.8022,804.65204,789.34064,796.1905,1035.1282
1694305074.6950002,788.93774,808.2784,791.3553,774.0293,783.2967
1694305074.6950002,774.83514,807.0696,790.9524,763.5531,654.35895
1694305074.723,771.2088,808.2784,792.96704,770.0,698.68134
1694305074.724,790.9524,811.50183,794.9817,794.9817,774.83514
1694305074.724,800.6227,808.2784,793.7729,809.89014,786.52014
1694305074.725,784.90845,806.26373,793.36993,797.3993,840.10986
1694305074.725,774.83514,806.26373,791.75824,788.1319,766.77655
1694305074.726,785.7143,803.44324,792.5641,796.5934,761.53845
1694305074.727,795.78754,800.2198,790.9524,805.05493,838.9011
1694305074.727,801.8315,803.0403,790.9524,801.4286,945.6777
1694305074.728,799.41394,809.89014,794.17584,800.2198,1151.978
1694305074.728,785.31134,811.9048,792.1612,783.69965,956.9597
1694305074.7289999,786.1172,810.293,789.34064,776.04395,659.59705
1694305074.7289999,803.44324,808.68134,788.1319,796.5934,786.9231
1694305074.757,809.89014,805.8608,788.5348,805.05493,955.7509
1694305074.7580001,803.0403,809.89014,790.9524,804.65204,832.8571
1694305074.7580001,789.7436,810.696,791.75824,788.5348,688.60803
1694305074.759,786.52014,805.4579,790.14655,772.01465,692.6374
1694305074.759,797.8022,809.4872,791.3553,793.7729,753.8828
1694305074.76,804.2491,807.47253,790.54944,813.1135,764.35895
1694305074.761,801.02563,804.65204,788.5348,803.8461,807.47253
1694305074.761,792.96704,805.4579,788.5348,791.3553,933.9927
1694305074.7619998,787.326,804.65204,791.75824,791.3553,899.34064
1694305074.7619998,800.2198,805.8608,792.96704,797.8022,673.2967
1694305074.763,806.6667,804.2491,789.34064,807.0696,734.5421
1694305074.763,800.2198,803.44324,788.93774,809.0842,809.89014
1694305074.8630002,789.34064,803.44324,788.93774,794.17584,722.4542
1694305074.864,783.2967,804.2491,787.326,778.0586,602.7839
1694305074.865,795.38464,803.8461,788.1319,788.5348,659.19415
1694305074.866,803.0403,801.02563,787.326,809.0842,823.9927
1694305074.867,802.6374,800.2198,787.72894,815.9341,884.0293
1694305074.867,792.5641,797.3993,787.72894,803.44324,778.86444
1694305074.868,780.4762,794.57874,784.5055,783.2967,722.0513
1694305074.869,782.8938,796.1905,784.10254,790.54944,1011.3553
1694305074.869,798.60803,800.2198,786.9231,811.9048,983.95605
1694305074.8700001,804.2491,803.8461,785.31134,807.0696,767.1795
1694305074.871,791.3553,801.02563,784.5055,786.52014,906.1905
1694305074.872,778.46155,799.41394,788.5348,782.8938,850.58606
1694305074.901,782.0879,798.20514,788.93774,789.34064,623.73627
1694305074.9020002,800.2198,798.20514,786.9231,807.0696,690.2198
1694305074.907,805.8608,799.81683,788.93774,823.1868,813.5165
1694305074.908,794.9817,800.2198,791.75824,805.8608,813.91943
1694305074.909,794.57874,800.2198,790.54944,786.1172,678.1319
1694305074.91,797.8022,802.6374,786.52014,788.1319,626.9597
1694305074.91,804.65204,805.4579,785.7143,817.5458,849.7802
1694305074.911,813.91943,802.6374,787.326,825.2015,953.3333
1694305074.912,799.011,797.3993,787.72894,799.81683,778.46155
1694305074.9129999,785.7143,796.1905,790.14655,790.9524,620.9158
1694305074.9129999,794.57874,796.99634,791.75824,796.5934,855.82416
1694305074.9139998,807.8755,795.78754,794.57874,817.1429,992.8205
1694305074.922,817.1429,798.60803,796.1905,824.3956,739.7802
1694305074.923,807.47253,803.8461,795.78754,809.89014,747.8388
1694305074.923,794.9817,803.0403,798.60803,794.57874,724.0659
1694305074.924,794.17584,801.02563,795.78754,794.9817,627.3626
1694305074.925,803.0403,800.6227,793.36993,805.8608,655.9707
1694305074.925,813.1135,799.41394,792.1612,808.2784,871.53845
1694305074.926,805.4579,801.4286,791.3553,801.4286,1011.3553
1694305074.927,786.52014,801.4286,787.72894,783.2967,786.9231
1694305074.927,778.86444,799.41394,784.90845,777.6557,632.6007
1694305074.928,792.96704,801.8315,784.90845,796.5934,836.4835
1694305074.929,817.1429,803.8461,784.10254,827.619,1274.8718
1694305074.929,809.4872,797.3993,792.96704,832.4542,1148.3517
1694305074.9539998,780.4762,788.1319,798.60803,801.02563,706.7399
1694305074.9550002,784.5055,784.5055,801.8315,792.1612,663.22345
1694305074.957,803.44324,788.93774,803.44324,805.05493,690.2198
1694305074.9580002,817.1429,797.8022,800.6227,822.7839,729.707
1694305074.962,818.7546,799.011,796.1905,826.0073,761.53845
1694305074.962,802.23444,800.6227,789.7436,808.68134,801.8315
1694305074.963,792.5641,796.99634,788.5348,794.57874,779.67035
1694305074.963,794.17584,791.75824,790.14655,799.81683,693.44324
1694305074.964,804.65204,792.96704,791.75824,813.1135,710.3663
1694305074.965,812.3077,795.78754,794.17584,823.1868,949.304
1694305074.965,802.23444,796.5934,793.36993,805.8608,914.2491
1694305074.966,800.2198,794.17584,795.38464,784.10254,634.61536
1694305075.015,806.6667,795.38464,794.9817,796.1905,678.5348
1694305075.017,814.7253,796.99634,791.3553,813.91943,846.55676
1694305075.018,814.7253,799.41394,790.54944,809.89014,865.4945
1694305075.019,798.60803,799.41394,788.93774,790.9524,740.58606
1694305075.021,789.7436,801.02563,787.72894,780.4762,695.8608
1694305075.021,795.78754,802.23444,792.1612,785.31134,726.08057
1694305075.022,807.8755,801.4286,791.3553,799.011,846.1539
1694305075.023,811.9048,799.81683,788.1319,802.23444,863.0769
1694305075.023,799.41394,799.41394,788.93774,785.31134,857.4359
1694305075.024,793.36993,803.8461,788.5348,778.86444,1066.9597
1694305075.024,797.3993,802.6374,790.9524,783.2967,873.5531
1694305075.0249999,804.2491,796.1905,792.1612,800.6227,656.77655
1694305075.0860002,801.4286,792.96704,792.1612,818.3516,870.7326
1694305075.0870001,794.9817,794.17584,790.9524,809.89014,901.3553
1694305075.088,789.34064,793.36993,788.1319,788.5348,710.7692
1694305075.089,788.1319,790.14655,793.7729,780.4762,613.663
1694305075.089,801.02563,790.9524,795.38464,795.78754,749.45056
1694305075.09,806.26373,794.57874,787.72894,808.2784,912.6374
1694305075.095,801.02563,796.99634,790.54944,807.47253,809.89014
1694305075.095,788.93774,798.60803,793.7729,800.2198,632.6007
1694305075.096,787.326,797.8022,794.57874,805.4579,794.17584
1694305075.097,803.0403,800.2198,796.1905,821.5751,907.8022
1694305075.097,810.293,801.8315,797.8022,817.5458,734.5421
1694305075.0979998,797.3993,794.9817,802.23444,801.8315,794.17584
1694305075.133,784.90845,794.17584,800.2198,780.87915,749.0476
1694305075.134,786.1172,796.1905,793.7729,773.6264,631.39197
1694305075.135,794.17584,796.99634,794.9817,798.20514,657.5824
1694305075.135,802.23444,799.81683,798.20514,816.337,814.3223
1694305075.136,793.7729,795.78754,796.5934,813.5165,915.8608
1694305075.136,776.4469,791.3553,794.9817,799.41394,809.4872
1694305075.1369998,775.2381,793.36993,796.99634,784.10254,703.1135
1694305075.1379998,786.1172,794.17584,799.41394,784.90845,854.61536
1694305075.1379998,792.96704,791.75824,794.9817,798.20514,1141.9048
1694305075.1390002,792.1612,795.78754,793.36993,798.60803,1040.3663
1694305075.1390002,788.1319,801.4286,798.20514,784.10254,695.05493
1694305075.14,787.72894,801.4286,799.81683,775.64105,626.55676
1694305075.141,796.5934,800.6227,799.81683,793.7729,684.57874
1694305075.1420002,809.4872,801.4286,800.6227,817.1429,728.49817
1694305075.1430001,801.8315,798.20514,800.2198,809.0842,775.64105
1694305075.1430001,786.1172,794.17584,799.81683,796.99634,883.6264
1694305075.144,786.1172,799.011,800.2198,791.75824,857.03296
1694305075.144,789.34064,798.60803,795.78754,794.9817,784.10254
1694305075.145,792.96704,794.57874,794.57874,807.0696,857.8388
1694305075.146,791.3553,797.3993,795.38464,809.89014,1082.674
1694305075.15,781.685,797.8022,796.1905,803.44324,1150.7693
1694305075.15,783.2967,796.99634,798.20514,793.36993,772.8205
1694305075.151,790.14655,795.38464,799.81683,795.78754,678.1319
1694305075.152,799.81683,791.75824,801.8315,815.12823,722.4542
1694305075.1950002,803.0403,792.96704,798.60803,817.1429,749.45056
1694305075.196,791.3553,800.6227,792.96704,796.5934,709.15753
1694305075.197,782.49084,800.2198,791.3553,784.90845,626.1539
1694305075.1980002,790.14655,799.011,796.5934,798.60803,622.52747
1694305075.1980002,809.0842,803.8461,796.5934,815.9341,637.03296
1694305075.1990001,809.4872,799.41394,796.1905,812.71063,726.8865
1694305075.1990001,794.9817,794.57874,800.6227,808.68134,926.337
1694305075.2,786.1172,794.17584,800.6227,802.6374,1000.87915
1694305075.201,794.9817,793.36993,794.57874,790.14655,721.2454
1694305075.201,814.7253,795.38464,796.99634,809.0842,667.6557
1694305075.202,803.8461,792.1612,805.8608,828.022,1008.5348
1694305075.202,786.1172,788.5348,808.68134,827.619,1066.9597
1694305075.247,786.9231,787.72894,802.23444,811.50183,715.6044
1694305075.248,797.3993,789.34064,796.1905,793.36993,549.19415
1694305075.2489998,815.12823,790.14655,793.36993,809.0842,658.3883
1694305075.2489998,817.5458,785.7143,790.14655,819.15753,792.1612
1694305075.2499998,801.02563,791.75824,788.93774,806.6667,734.5421
1694305075.2510002,789.7436,803.44324,790.9524,796.99634,656.77655
1694305075.252,792.96704,801.4286,794.17584,802.6374,930.3663
1694305075.253,803.0403,798.60803,798.60803,817.9487,1019.011
1694305075.253,811.0989,799.011,799.011,826.8132,751.06226
1694305075.2540002,811.0989,797.8022,800.2198,820.3663,733.73627
1694305075.258,797.3993,796.99634,802.6374,797.8022,678.1319
1694305075.259,786.1172,794.57874,799.81683,787.72894,595.5311
1694305075.318,799.81683,796.99634,801.02563,799.81683,638.6447
1694305075.319,814.7253,800.6227,801.02563,811.0989,789.7436
1694305075.32,805.4579,795.38464,798.60803,812.71063,904.57874
1694305075.3209999,788.1319,791.75824,797.3993,801.02563,793.7729
1694305075.3219998,787.326,791.3553,794.17584,787.72894,622.52747
1694305075.323,802.23444,790.9524,791.3553,799.41394,811.50183
1694305075.323,810.696,792.96704,791.75824,820.7692,1068.9744
1694305075.324,809.4872,795.78754,795.38464,823.5897,939.6337
1694305075.325,797.8022,797.3993,797.3993,809.4872,690.2198
1694305075.3260002,792.96704,799.011,799.81683,793.7729,720.0366
1694305075.3260002,808.68134,799.41394,796.99634,795.78754,984.35895
1694305075.3270001,814.7253,797.3993,794.17584,809.4872,853.4066
1694305075.36,808.2784,799.011,796.1905,818.7546,731.7216
1694305075.362,790.54944,794.17584,794.9817,803.44324,756.7033
1694305075.362,786.52014,792.96704,792.1612,782.49084,672.0879
1694305075.3630002,802.6374,800.6227,797.8022,796.99634,686.5934
1694305075.364,817.1429,800.6227,802.6374,823.5897,744.21246
1694305075.364,819.15753,803.0403,803.0403,846.55676,1043.1868
1694305075.365,802.23444,801.4286,800.6227,831.2454,1155.6044
1694305075.3660002,794.17584,796.5934,796.5934,805.05493,705.9341
1694305075.367,806.6667,796.99634,797.8022,806.6667,554.43225
1694305075.369,817.5458,799.011,799.011,811.50183,758.315
1694305075.37,815.5311,800.2198,798.60803,832.0513,873.95605
1694305075.371,802.23444,799.41394,800.6227,813.91943,817.9487
1694305075.402,796.1905,795.78754,799.81683,778.86444,740.18317
1694305075.403,802.23444,794.17584,800.6227,784.5055,671.685
1694305075.403,811.50183,795.78754,801.02563,805.8608,704.7253
1694305075.404,813.1135,794.9817,794.57874,822.7839,777.6557
1694305075.404,803.44324,792.1612,792.1612,803.0403,828.8278
1694305075.405,792.1612,791.3553,792.1612,783.2967,806.6667
1694305075.4060001,795.38464,792.1612,795.78754,790.54944,707.1429
1694305075.4060001,811.0989,792.5641,796.99634,803.0403,670.4762
1694305075.407,809.4872,791.75824,798.20514,806.6667,782.49084
1694305075.408,793.7729,792.96704,800.6227,807.0696,1180.586
1694305075.408,787.326,795.38464,801.4286,792.5641,1074.2124
1694305075.409,786.1172,795.78754,803.44324,781.685,589.89014
1694305075.4099998,794.17584,794.9817,801.02563,805.05493,780.07324
1694305075.4099998,800.6227,790.9524,797.8022,815.12823,969.85345
1694305075.411,793.36993,789.7436,800.2198,806.6667,793.7729
1694305075.412,784.10254,792.96704,803.44324,795.38464,693.0403
1694305075.412,785.7143,797.3993,802.6374,796.5934,619.707
1694305075.4129999,801.02563,797.8022,802.6374,814.7253,664.43225
1694305075.4129999,810.696,796.1905,804.65204,817.9487,819.5604
1694305075.414,803.44324,794.57874,805.4579,808.2784,761.13556
1694305075.414,790.14655,792.1612,803.0403,803.0403,926.7399
1694305075.414,782.8938,791.75824,802.6374,798.20514,1037.5458
1694305075.415,795.78754,795.78754,807.47253,797.8022,689.81683
1694305075.415,811.9048,796.99634,810.293,816.7399,696.6667
1694305075.498,804.65204,790.54944,807.0696,819.15753,821.1722
1694305075.499,784.5055,788.1319,805.05493,791.3553,726.8865
1694305075.503,782.49084,793.7729,807.0696,784.10254,585.05493
1694305075.504,795.38464,795.38464,801.8315,802.6374,626.9597
1694305075.5049999,801.8315,792.5641,801.4286,814.3223,789.34064
1694305075.5049999,798.60803,791.75824,804.65204,813.5165,940.0366
1694305075.5059998,788.5348,790.9524,806.6667,795.78754,875.9707
1694305075.5059998,786.52014,790.14655,807.8755,786.52014,747.03296
1694305075.507,788.1319,789.34064,805.4579,802.23444,892.0879
1694305075.507,795.78754,790.9524,807.47253,820.3663,899.34064
1694305075.508,801.8315,789.7436,804.2491,815.9341,803.0403
1694305075.5089998,794.57874,791.75824,799.41394,795.78754,930.3663
1694305075.532,782.49084,794.57874,798.60803,781.685,1009.34064
1694305075.533,784.90845,792.5641,795.38464,767.98535,735.7509
1694305075.5340002,800.2198,794.17584,796.1905,782.8938,631.79486
1694305075.5340002,802.23444,796.99634,798.60803,799.81683,741.39197
1694305075.535,791.75824,799.41394,798.20514,789.34064,777.25275
1694305075.535,780.07324,795.38464,796.1905,774.83514,703.91943
1694305075.536,778.0586,791.75824,793.36993,768.7912,662.8205
1694305075.536,799.011,792.5641,795.38464,793.36993,951.7216
1694305075.537,806.26373,792.5641,795.78754,805.8608,1061.3187
1694305075.537,794.9817,792.96704,797.8022,786.1172,748.6447
1694305075.5379999,784.10254,795.38464,802.23444,777.25275,606.8132
1694305075.539,777.6557,793.36993,799.81683,776.04395,628.1685
1694305075.5660002,788.5348,787.72894,799.41394,790.54944,693.0403
1694305075.5670002,793.36993,788.93774,800.6227,805.4579,775.2381
1694305075.5670002,785.7143,794.17584,795.78754,791.75824,819.15753
1694305075.568,780.07324,796.1905,796.5934,771.6117,739.3773
1694305075.571,784.10254,801.02563,801.4286,773.22345,631.39197
1694305075.572,797.8022,802.23444,799.41394,794.57874,681.75824
