TimeStamp,Delta_TP9,Delta_AF7,Delta_AF8,Delta_TP10,Theta_TP9,Theta_AF7,Theta_AF8,Theta_TP10,Alpha_TP9,Alpha_AF7,Alpha_AF8,Alpha_TP10,Beta_TP9,Beta_AF7,Beta_AF8,Beta_TP10,Gamma_TP9,Gamma_AF7,Gamma_AF8,Gamma_TP10,RAW_TP9,RAW_AF7,RAW_AF8,RAW_TP10,AUX_RIGHT,Accelerometer_X,Accelerometer_Y,Accelerometer_Z,Gyro_X,Gyro_Y,Gyro_Z,HeadBandOn,HSI_TP9,HSI_AF7,HSI_AF8,HSI_TP10,Battery,Elements
2023-09-08 00:20:06.560,0.9092795,0.54599565,0.6228565,0.8949321,0.2799569,0.36173177,0.0940379,0.20375115,0.8695585,0.48169717,0.16710007,0.6382632,0.45399052,0.9243894,-0.041472305,0.42804575,0.10472453,0.48678914,-0.23972142,0.11770703,813.1135,814.7253,799.81683,792.5641,653.95605,0.40740966796875,-0.11767578125,0.86273193359375,4.50103759765625,-1.069183349609375,-4.0374755859375,1.0,1.0,1.0,1.0,1.0,20.0,
2023-09-08 00:20:06.564,0.9171519,0.5173134,0.56385183,0.85056925,0.31608146,0.39352635,0.04442942,0.24793674,0.89097136,0.4958082,0.16710007,0.64147675,0.43728885,0.9261279,-0.035183948,0.40756607,0.09687767,0.4905945,-0.2608367,0.12357007,796.5934,800.2198,791.75824,797.8022,1054.0659,0.40740966796875,-0.11767578125,0.86273193359375,4.50103759765625,-1.069183349609375,-4.0374755859375,1.0,1.0,1.0,1.0,1.0,20.0,
2023-09-08 00:20:06.600,0.9171519,0.5173134,0.56385183,0.85056925,0.31608146,0.39352635,0.04442942,0.24793674,0.89097136,0.4958082,0.16710007,0.64147675,0.43728885,0.9261279,-0.035183948,0.40756607,0.09687767,0.4905945,-0.2608367,0.12357007,790.54944,820.7692,789.34064,780.4762,618.9011,0.45001220703125,-0.1217041015625,0.89373779296875,5.084228515625,-6.945953369140625,-2.7215576171875,1.0,1.0,1.0,1.0,1.0,20.0,
2023-09-08 00:20:06.648,0.9171519,0.5173134,0.56385183,0.85056925,0.31608146,0.39352635,0.04442942,0.24793674,0.89097136,0.4958082,0.16710007,0.64147675,0.43728885,0.9261279,-0.035183948,0.40756607,0.09687767,0.4905945,-0.2608367,0.12357007,792.1612,809.0842,804.65204,799.011,730.9158,0.50531005859375,-0.103759765625,0.8994140625,4.059906005859375,-9.4207763671875,4.62066650390625,1.0,1.0,1.0,1.0,1.0,20.0,
2023-09-08 00:20:06.654,0.92549884,0.47983047,0.4956196,0.81686276,0.37642372,0.39365324,0.02282615,0.33772194,0.8921394,0.5006847,0.16832612,0.64613885,0.4285526,0.9221777,-0.031564754,0.38724098,0.08548072,0.48861715,-0.28244916,0.13450576,787.326,770.80585,796.1905,805.05493,997.25275,0.50531005859375,-0.103759765625,0.8994140625,4.059906005859375,-9.4207763671875,4.62066650390625,1.0,1.0,1.0,1.0,1.0,20.0,
2023-09-08 00:20:06.679,0.92549884,0.47983047,0.4956196,0.81686276,0.37642372,0.39365324,0.02282615,0.33772194,0.8921394,0.5006847,0.16832612,0.64613885,0.4285526,0.9221777,-0.031564754,0.38724098,0.08548072,0.48861715,-0.28244916,0.13450576,790.9524,801.4286,792.5641,782.49084,721.2454,0.41265869140625,-0.11199951171875,0.865234375,3.22998046875,-2.549591064453125,4.568328857421875,1.0,1.0,1.0,1.0,1.0,20.0,
2023-09-08 00:20:06.719,0.92958194,0.44744295,0.4306964,0.79326415,0.44662443,0.3996917,0.035670344,0.42792478,0.8955952,0.50856656,0.14673328,0.6485221,0.4295564,0.9032758,-0.028191602,0.36625353,0.06587052,0.5636372,-0.2980617,0.14549172,802.6374,796.99634,801.4286,802.23444,764.7619,0.41265869140625,-0.11199951171875,0.865234375,3.22998046875,-2.549591064453125,4.568328857421875,1.0,1.0,1.0,1.0,1.0,20.0,
2023-09-08 00:20:06.748,0.92958194,0.44744295,0.4306964,0.79326415,0.44662443,0.3996917,0.035670344,0.42792478,0.8955952,0.50856656,0.14673328,0.6485221,0.4295564,0.9032758,-0.028191602,0.36625353,0.06587052,0.5636372,-0.2980617,0.14549172,805.05493,755.89746,800.6227,809.4872,1073.8096,0.40960693359375,-0.12054443359375,0.8719482421875,5.263671875,-3.529052734375,-7.529144287109375,1.0,1.0,1.0,1.0,1.0,20.0,
2023-09-08 00:20:06.797,0.92958194,0.44744295,0.4306964,0.79326415,0.44662443,0.3996917,0.035670344,0.42792478,0.8955952,0.50856656,0.14673328,0.6485221,0.4295564,0.9032758,-0.028191602,0.36625353,0.06587052,0.5636372,-0.2980617,0.14549172,802.6374,806.6667,803.8461,789.34064,670.87915,0.50445556640625,-0.105712890625,0.8818359375,4.673004150390625,-9.10675048828125,-2.9010009765625,1.0,1.0,1.0,1.0,1.0,20.0,
2023-09-08 00:20:06.856,0.92958194,0.44744295,0.4306964,0.79326415,0.44662443,0.3996917,0.035670344,0.42792478,0.8955952,0.50856656,0.14673328,0.6485221,0.4295564,0.9032758,-0.028191602,0.36625353,0.06587052,0.5636372,-0.2980617,0.14549172,799.81683,803.8461,803.8461,807.8755,714.7985,0.4736328125,-0.11767578125,0.86865234375,0.7177734375,-7.49176025390625,5.27862548828125,1.0,1.0,1.0,1.0,1.0,20.0,
2023-09-08 00:20:06.857,0.9191176,0.4229905,0.37707844,0.77285254,0.50661534,0.37636518,0.06890013,0.48805898,0.8965519,0.5235467,0.14243287,0.6485221,0.43612328,0.8851602,-0.025246536,0.34637064,0.03921261,0.64732826,-0.30394632,0.15310702,793.7729,802.6374,806.6667,812.71063,689.011,0.4736328125,-0.11767578125,0.86865234375,0.7177734375,-7.49176025390625,5.27862548828125,1.0,1.0,1.0,1.0,1.0,20.0,
2023-09-08 00:20:06.899,0.9191176,0.4229905,0.37707844,0.77285254,0.50661534,0.37636518,0.06890013,0.48805898,0.8965519,0.5235467,0.14243287,0.6485221,0.43612328,0.8851602,-0.025246536,0.34637064,0.03921261,0.64732826,-0.30394632,0.15310702,792.96704,794.57874,805.4579,793.36993,799.81683,0.45416259765625,-0.1334228515625,0.84686279296875,4.149627685546875,-6.02630615234375,1.263580322265625,1.0,1.0,1.0,1.0,1.0,20.0,
2023-09-08 00:20:06.932,0.9191176,0.4229905,0.37707844,0.77285254,0.50661534,0.37636518,0.06890013,0.48805898,0.8965519,0.5235467,0.14243287,0.6485221,0.43612328,0.8851602,-0.025246536,0.34637064,0.03921261,0.64732826,-0.30394632,0.15310702,792.96704,810.293,800.2198,780.87915,614.0659,0.46929931640625,-0.11163330078125,0.8677978515625,6.646881103515625,-5.8319091796875,-2.37762451171875,1.0,1.0,1.0,1.0,1.0,20.0,
2023-09-08 00:20:06.933,0.88464755,0.39778078,0.3427268,0.75430185,0.54556185,0.34925056,0.104686595,0.51415426,0.8965519,0.5485234,0.15891013,0.6485221,0.4371477,0.8651297,-0.021973882,0.33079425,0.013199403,0.6996453,-0.30156153,0.15718274,784.90845,796.1905,797.3993,794.17584,794.57874,0.46929931640625,-0.11163330078125,0.8677978515625,6.646881103515625,-5.8319091796875,-2.37762451171875,1.0,1.0,1.0,1.0,1.0,20.0,
2023-09-08 00:20:07.049,0.88464755,0.39778078,0.3427268,0.75430185,0.54556185,0.34925056,0.104686595,0.51415426,0.8965519,0.5485234,0.15891013,0.6485221,0.4371477,0.8651297,-0.021973882,0.33079425,0.013199403,0.6996453,-0.30156153,0.15718274,794.9817,799.41394,796.5934,796.1905,705.12823,0.48876953125,-0.1094970703125,0.87872314453125,4.486083984375,-6.59454345703125,-0.40374755859375,1.0,1.0,1.0,1.0,1.0,20.0,
2023-09-08 00:20:07.052,0.8310201,0.3736528,0.32950002,0.73765814,0.5631761,0.3231779,0.13255994,0.5167311,0.88008,0.5613862,0.16660559,0.6485221,0.42245004,0.847016,-0.017148176,0.32181585,-0.0024446654,0.7207587,-0.2961666,0.1596126,787.326,779.2674,791.3553,790.14655,888.0586,0.48876953125,-0.1094970703125,0.87872314453125,4.486083984375,-6.59454345703125,-0.40374755859375,1.0,1.0,1.0,1.0,1.0,20.0,
2023-09-08 00:20:07.105,0.8310201,0.3736528,0.32950002,0.73765814,0.5631761,0.3231779,0.13255994,0.5167311,0.88008,0.5613862,0.16660559,0.6485221,0.42245004,0.847016,-0.017148176,0.32181585,-0.0024446654,0.7207587,-0.2961666,0.1596126,782.8938,785.31134,791.75824,778.46155,682.5641,0.481201171875,-0.122802734375,0.8638916015625,4.164581298828125,-5.166473388671875,0.59814453125,1.0,1.0,1.0,1.0,1.0,20.0,
2023-09-08 00:20:07.137,0.8310201,0.3736528,0.32950002,0.73765814,0.5631761,0.3231779,0.13255994,0.5167311,0.88008,0.5613862,0.16660559,0.6485221,0.42245004,0.847016,-0.017148176,0.32181585,-0.0024446654,0.7207587,-0.2961666,0.1596126,790.9524,796.5934,791.75824,791.3553,850.989,0.4786376953125,-0.11859130859375,0.8570556640625,5.14404296875,-3.7384033203125,-1.413116455078125,1.0,1.0,1.0,1.0,1.0,20.0,
2023-09-08 00:20:07.141,0.7854358,0.35593602,0.3359011,0.7212972,0.56693584,0.3013942,0.14765936,0.52892596,0.8001109,0.5648096,0.16660559,0.62785494,0.38982472,0.8348804,-0.011274248,0.30410847,-0.0031227404,0.72188956,-0.29286408,0.14961252,793.7729,775.2381,792.1612,797.3993,869.92676,0.4786376953125,-0.11859130859375,0.8570556640625,5.14404296875,-3.7384033203125,-1.413116455078125,1.0,1.0,1.0,1.0,1.0,20.0,
2023-09-08 00:20:07.190,0.7854358,0.35593602,0.3359011,0.7212972,0.56693584,0.3013942,0.14765936,0.52892596,0.8001109,0.5648096,0.16660559,0.62785494,0.38982472,0.8348804,-0.011274248,0.30410847,-0.0031227404,0.72188956,-0.29286408,0.14961252,795.38464,790.54944,790.14655,790.14655,772.4176,0.47344970703125,-0.1109619140625,0.8592529296875,6.108551025390625,-3.409423828125,-2.579498291015625,1.0,1.0,1.0,1.0,1.0,20.0,
2023-09-08 00:20:07.231,0.76134735,0.34748155,0.35058418,0.69487065,0.5653605,0.28403193,0.14538947,0.54379684,0.7359137,0.5648096,0.16660559,0.60911167,0.34982523,0.8305467,-0.006935064,0.29111835,0.006676289,0.71513397,-0.29564977,0.14946651,791.75824,815.5311,803.8461,785.31134,621.7216,0.47344970703125,-0.1109619140625,0.8592529296875,6.108551025390625,-3.409423828125,-2.579498291015625,1.0,1.0,1.0,1.0,1.0,20.0,
2023-09-08 00:20:07.295,0.76134735,0.34748155,0.35058418,0.69487065,0.5653605,0.28403193,0.14538947,0.54379684,0.7359137,0.5648096,0.16660559,0.60911167,0.34982523,0.8305467,-0.006935064,0.29111835,0.006676289,0.71513397,-0.29564977,0.14946651,788.5348,826.0073,802.6374,800.6227,741.39197,0.48272705078125,-0.1053466796875,0.8564453125,6.34033203125,-3.45428466796875,-3.33465576171875,1.0,1.0,1.0,1.0,1.0,20.0,
2023-09-08 00:20:07.354,0.76134735,0.34748155,0.35058418,0.69487065,0.5653605,0.28403193,0.14538947,0.54379684,0.7359137,0.5648096,0.16660559,0.60911167,0.34982523,0.8305467,-0.006935064,0.29111835,0.006676289,0.71513397,-0.29564977,0.14946651,801.02563,833.2601,796.5934,789.34064,634.61536,0.498291015625,-0.1053466796875,0.87298583984375,4.56085205078125,-5.046844482421875,0.2093505859375,1.0,1.0,1.0,1.0,1.0,20.0,
2023-09-08 00:20:07.361,0.7483745,0.3460124,0.37329492,0.62830305,0.56239116,0.2686846,0.1260141,0.56183195,0.71752894,0.5689554,0.17410801,0.6251641,0.31940302,0.83305407,-0.005307694,0.27946818,0.019551594,0.70480067,-0.30664194,0.15172157,796.5934,816.337,817.1429,801.4286,680.9524,0.498291015625,-0.1053466796875,0.87298583984375,4.56085205078125,-5.046844482421875,0.2093505859375,1.0,1.0,1.0,1.0,1.0,20.0,
2023-09-08 00:20:07.403,0.7483745,0.3460124,0.37329492,0.62830305,0.56239116,0.2686846,0.1260141,0.56183195,0.71752894,0.5689554,0.17410801,0.6251641,0.31940302,0.83305407,-0.005307694,0.27946818,0.019551594,0.70480067,-0.30664194,0.15172157,801.8315,806.26373,815.9341,800.2198,654.7619,0.5152587890625,-0.11767578125,0.85943603515625,2.811279296875,-5.241241455078125,2.811279296875,1.0,1.0,1.0,1.0,1.0,20.0,
2023-09-08 00:20:07.409,0.7483745,0.3460124,0.37329492,0.62830305,0.56239116,0.2686846,0.1260141,0.56183195,0.71752894,0.5689554,0.17410801,0.6251641,0.31940302,0.83305407,-0.005307694,0.27946818,0.019551594,0.70480067,-0.30664194,0.15172157,778.86444,786.1172,794.17584,792.96704,875.56775,0.49176025390625,-0.11358642578125,0.85418701171875,5.929107666015625,-1.256103515625,2.67669677734375,1.0,1.0,1.0,1.0,1.0,20.0,
2023-09-08 00:20:07.460,0.7483745,0.3460124,0.37329492,0.62830305,0.56239116,0.2686846,0.1260141,0.56183195,0.71752894,0.5689554,0.17410801,0.6251641,0.31940302,0.83305407,-0.005307694,0.27946818,0.019551594,0.70480067,-0.30664194,0.15172157,794.57874,784.90845,795.78754,794.57874,749.85345,0.41717529296875,-0.1014404296875,0.8648681640625,6.759033203125,2.2430419921875,-1.21124267578125,1.0,1.0,1.0,1.0,1.0,20.0,
2023-09-08 00:20:07.460,0.72355247,0.35104084,0.40306312,0.6143633,0.55586797,0.2535571,0.10235438,0.56371695,0.71161354,0.57951695,0.21569549,0.6452315,0.309392,0.8382242,-0.0060373805,0.2845474,0.031118637,0.69074196,-0.32751042,0.14025751,798.20514,789.34064,798.20514,782.0879,659.19415,0.41717529296875,-0.1014404296875,0.8648681640625,6.759033203125,2.2430419921875,-1.21124267578125,1.0,1.0,1.0,1.0,1.0,20.0,
2023-09-08 00:20:07.535,0.72355247,0.35104084,0.40306312,0.6143633,0.55586797,0.2535571,0.10235438,0.56371695,0.71161354,0.57951695,0.21569549,0.6452315,0.309392,0.8382242,-0.0060373805,0.2845474,0.031118637,0.69074196,-0.32751042,0.14025751,784.5055,804.65204,792.96704,801.8315,777.6557,0.48150634765625,-0.1214599609375,0.85821533203125,4.418792724609375,-4.942169189453125,-4.822540283203125,1.0,1.0,1.0,1.0,1.0,20.0,
2023-09-08 00:20:07.538,0.6789606,0.3594243,0.43744844,0.596641,0.5419439,0.23653503,0.09318303,0.56159663,0.71161354,0.5934215,0.28977418,0.6581888,0.3162231,0.8414916,-0.008338518,0.28481612,0.04258679,0.6749512,-0.3557606,0.1282944,812.71063,788.1319,794.9817,787.72894,720.0366,0.48150634765625,-0.1214599609375,0.85821533203125,4.418792724609375,-4.942169189453125,-4.822540283203125,1.0,1.0,1.0,1.0,1.0,20.0,
2023-09-08 00:20:07.612,0.6789606,0.3594243,0.43744844,0.596641,0.5419439,0.23653503,0.09318303,0.56159663,0.71161354,0.5934215,0.28977418,0.6581888,0.3162231,0.8414916,-0.008338518,0.28481612,0.04258679,0.6749512,-0.3557606,0.1282944,790.14655,812.71063,799.41394,789.7436,699.0842,0.53778076171875,-0.1107177734375,0.8575439453125,2.87109375,-8.815155029296875,4.314117431640625,1.0,1.0,1.0,1.0,1.0,20.0,
2023-09-08 00:20:07.674,0.6789606,0.3594243,0.43744844,0.596641,0.5419439,0.23653503,0.09318303,0.56159663,0.71161354,0.5934215,0.28977418,0.6581888,0.3162231,0.8414916,-0.008338518,0.28481612,0.04258679,0.6749512,-0.3557606,0.1282944,796.99634,817.5458,788.1319,796.1905,646.30035,0.42474365234375,-0.126708984375,0.85162353515625,4.83001708984375,-2.19818115234375,3.910369873046875,1.0,1.0,1.0,1.0,1.0,20.0,
2023-09-08 00:20:07.678,0.6192225,0.34730372,0.47287616,0.5787311,0.51984596,0.21733643,0.108843766,0.55431086,0.71161354,0.6110109,0.42841107,0.6597166,0.3302821,0.83770406,-0.014646533,0.28146398,0.05668121,0.6731543,-0.38278386,0.11747265,793.7729,789.7436,784.10254,784.10254,736.9597,0.42474365234375,-0.126708984375,0.85162353515625,4.83001708984375,-2.19818115234375,3.910369873046875,1.0,1.0,1.0,1.0,1.0,20.0,
2023-09-08 00:20:07.708,0.6192225,0.34730372,0.47287616,0.5787311,0.51984596,0.21733643,0.108843766,0.55431086,0.71161354,0.6110109,0.42841107,0.6597166,0.3302821,0.83770406,-0.014646533,0.28146398,0.05668121,0.6731543,-0.38278386,0.11747265,782.49084,799.81683,779.2674,792.1612,730.10986,0.49749755859375,-0.1124267578125,0.87176513671875,6.4300537109375,-5.15899658203125,-6.243133544921875,1.0,1.0,1.0,1.0,1.0,20.0,
2023-09-08 00:20:07.772,0.5626699,0.3302823,0.5080815,0.4828238,0.49445584,0.19777338,0.14143918,0.5575255,0.71161354,0.6220388,0.53045636,0.6597166,0.34391272,0.8294755,-0.027209284,0.2621745,0.07327964,0.67367506,-0.3967704,0.11189426,798.20514,817.9487,803.8461,792.1612,823.1868,0.49749755859375,-0.1124267578125,0.87176513671875,6.4300537109375,-5.15899658203125,-6.243133544921875,1.0,1.0,1.0,1.0,1.0,20.0,
2023-09-08 00:20:07.832,0.5626699,0.3302823,0.5080815,0.4828238,0.49445584,0.19777338,0.14143918,0.5575255,0.71161354,0.6220388,0.53045636,0.6597166,0.34391272,0.8294755,-0.027209284,0.2621745,0.07327964,0.67367506,-0.3967704,0.11189426,782.8938,798.20514,801.8315,794.17584,712.7839,0.506591796875,-0.1064453125,0.86004638671875,4.044952392578125,-4.807586669921875,0.411224365234375,1.0,1.0,1.0,1.0,1.0,20.0,
2023-09-08 00:20:07.879,0.5626699,0.3302823,0.5080815,0.4828238,0.49445584,0.19777338,0.14143918,0.5575255,0.71161354,0.6220388,0.53045636,0.6597166,0.34391272,0.8294755,-0.027209284,0.2621745,0.07327964,0.67367506,-0.3967704,0.11189426,801.4286,792.96704,793.36993,794.9817,797.3993,0.4840087890625,-0.130126953125,0.834716796875,2.27294921875,-4.8748779296875,2.1533203125,1.0,1.0,1.0,1.0,1.0,20.0,
2023-09-08 00:20:07.887,0.51282364,0.30341855,0.5348946,0.42873278,0.4696777,0.16589092,0.17921422,0.56575674,0.71161354,0.62253445,0.54033756,0.6597166,0.35049546,0.82037234,-0.043571413,0.24713752,0.09015294,0.67542946,-0.39338,0.10339359,808.2784,814.3223,790.14655,812.3077,873.5531,0.4840087890625,-0.130126953125,0.834716796875,2.27294921875,-4.8748779296875,2.1533203125,1.0,1.0,1.0,1.0,1.0,20.0,
2023-09-08 00:20:07.895,0.51282364,0.30341855,0.5348946,0.42873278,0.4696777,0.16589092,0.17921422,0.56575674,0.71161354,0.62253445,0.54033756,0.6597166,0.35049546,0.82037234,-0.043571413,0.24713752,0.09015294,0.67542946,-0.39338,0.10339359,803.44324,751.8681,787.72894,801.8315,1046.8132,0.49725341796875,-0.1246337890625,0.84710693359375,6.317901611328125,-5.345916748046875,-1.637420654296875,1.0,1.0,1.0,1.0,1.0,20.0,
2023-09-08 00:20:07.943,0.51282364,0.30341855,0.5348946,0.42873278,0.4696777,0.16589092,0.17921422,0.56575674,0.71161354,0.62253445,0.54033756,0.6597166,0.35049546,0.82037234,-0.043571413,0.24713752,0.09015294,0.67542946,-0.39338,0.10339359,805.8608,811.50183,790.54944,801.8315,788.93774,0.51043701171875,-0.1082763671875,0.8624267578125,5.96649169921875,-3.54400634765625,-1.03179931640625,1.0,1.0,1.0,1.0,1.0,20.0,
2023-09-08 00:20:07.953,0.47268057,0.27373326,0.54733956,0.41217217,0.44155243,0.11282081,0.22527741,0.5750879,0.71261585,0.6031703,0.5377606,0.655491,0.3460528,0.81476814,-0.056873642,0.23948736,0.107602075,0.6750783,-0.3802175,0.09202626,794.9817,791.3553,792.1612,813.91943,762.74725,0.51043701171875,-0.1082763671875,0.8624267578125,5.96649169921875,-3.54400634765625,-1.03179931640625,1.0,1.0,1.0,1.0,1.0,20.0,
2023-09-08 00:20:07.981,0.47268057,0.27373326,0.54733956,0.41217217,0.44155243,0.11282081,0.22527741,0.5750879,0.71261585,0.6031703,0.5377606,0.655491,0.3460528,0.81476814,-0.056873642,0.23948736,0.107602075,0.6750783,-0.3802175,0.09202626,790.9524,801.02563,791.3553,805.4579,703.91943,0.4925537109375,-0.11248779296875,0.8529052734375,4.553375244140625,-2.9010009765625,-0.500946044921875,1.0,1.0,1.0,1.0,1.0,20.0,
2023-09-08 00:20:08.108,0.47268057,0.27373326,0.54733956,0.41217217,0.44155243,0.11282081,0.22527741,0.5750879,0.71261585,0.6031703,0.5377606,0.655491,0.3460528,0.81476814,-0.056873642,0.23948736,0.107602075,0.6750783,-0.3802175,0.09202626,794.9817,805.8608,796.99634,796.99634,629.7802,0.49139404296875,-0.10760498046875,0.85223388671875,5.121612548828125,-2.594451904296875,-1.263580322265625,1.0,1.0,1.0,1.0,1.0,20.0,
2023-09-08 00:20:08.109,0.43475276,0.2507042,0.548224,0.4165696,0.39894894,0.04542421,0.28050324,0.5771234,0.7127012,0.57574034,0.53012705,0.65389204,0.33249885,0.8150037,-0.061291195,0.24324192,0.12734763,0.6693079,-0.36887506,0.07803365,799.011,776.04395,799.81683,803.44324,768.7912,0.49139404296875,-0.10760498046875,0.85223388671875,5.121612548828125,-2.594451904296875,-1.263580322265625,1.0,1.0,1.0,1.0,1.0,20.0,
2023-09-08 00:20:08.164,0.43475276,0.2507042,0.548224,0.4165696,0.39894894,0.04542421,0.28050324,0.5771234,0.7127012,0.57574034,0.53012705,0.65389204,0.33249885,0.8150037,-0.061291195,0.24324192,0.12734763,0.6693079,-0.36887506,0.07803365,795.78754,803.8461,794.17584,799.81683,709.15753,0.4918212890625,-0.107421875,0.8414306640625,5.562744140625,-2.175750732421875,-1.68975830078125,1.0,1.0,1.0,1.0,1.0,20.0,
2023-09-08 00:20:08.174,0.43475276,0.2507042,0.548224,0.4165696,0.39894894,0.04542421,0.28050324,0.5771234,0.7127012,0.57574034,0.53012705,0.65389204,0.33249885,0.8150037,-0.061291195,0.24324192,0.12734763,0.6693079,-0.36887506,0.07803365,799.41394,803.0403,803.0403,786.9231,635.0183,0.494140625,-0.107666015625,0.8612060546875,4.5159912109375,-3.207550048828125,-1.8841552734375,1.0,1.0,1.0,1.0,1.0,20.0,
2023-09-08 00:20:08.176,0.39115837,0.23255306,0.5530992,0.42369172,0.3283851,-0.012143314,0.33598614,0.566918,0.668418,0.5360028,0.5279313,0.65389204,0.3167221,0.8204168,-0.058302153,0.26468495,0.14914827,0.6550166,-0.36561102,0.06391109,796.99634,851.39197,807.0696,813.1135,765.16486,0.494140625,-0.107666015625,0.8612060546875,4.5159912109375,-3.207550048828125,-1.8841552734375,1.0,1.0,1.0,1.0,1.0,20.0,
2023-09-08 00:20:08.225,0.39115837,0.23255306,0.5530992,0.42369172,0.3283851,-0.012143314,0.33598614,0.566918,0.668418,0.5360028,0.5279313,0.65389204,0.3167221,0.8204168,-0.058302153,0.26468495,0.14914827,0.6550166,-0.36561102,0.06391109,786.52014,794.17584,788.5348,792.1612,732.52747,0.50299072265625,-0.11065673828125,0.85394287109375,4.5159912109375,-3.566436767578125,-0.82244873046875,1.0,1.0,1.0,1.0,1.0,20.0,
2023-09-08 00:20:08.264,0.34391472,0.21771756,0.56793207,0.42175305,0.22080962,-0.03229854,0.3779394,0.54843843,0.59741503,0.5001462,0.5279313,0.6429252,0.30358085,0.8295205,-0.054249562,0.30437234,0.17008941,0.628787,-0.37107128,0.053524073,786.1172,810.293,796.5934,790.14655,800.6227,0.50299072265625,-0.11065673828125,0.85394287109375,4.5159912109375,-3.566436767578125,-0.82244873046875,1.0,1.0,1.0,1.0,1.0,20.0,
2023-09-08 00:20:08.320,0.34391472,0.21771756,0.56793207,0.42175305,0.22080962,-0.03229854,0.3779394,0.54843843,0.59741503,0.5001462,0.5279313,0.6429252,0.30358085,0.8295205,-0.054249562,0.30437234,0.17008941,0.628787,-0.37107128,0.053524073,799.41394,820.3663,803.0403,784.90845,678.1319,0.49713134765625,-0.11224365234375,0.8560791015625,4.777679443359375,-3.431854248046875,-0.55328369140625,1.0,1.0,1.0,1.0,1.0,20.0,
2023-09-08 00:20:08.385,0.34391472,0.21771756,0.56793207,0.42175305,0.22080962,-0.03229854,0.3779394,0.54843843,0.59741503,0.5001462,0.5279313,0.6429252,0.30358085,0.8295205,-0.054249562,0.30437234,0.17008941,0.628787,-0.37107128,0.053524073,792.1612,814.3223,784.5055,801.8315,798.20514,0.501708984375,-0.1148681640625,0.84906005859375,4.71038818359375,-2.370147705078125,-0.40374755859375,1.0,1.0,1.0,1.0,1.0,20.0,
2023-09-08 00:20:08.392,0.3051248,0.21697778,0.5861297,0.40995756,0.07619931,-0.01637177,0.4003947,0.5317241,0.5619836,0.5052148,0.5279313,0.6429252,0.2937192,0.84060997,-0.053213097,0.35307992,0.18628274,0.5931924,-0.38195986,0.053515065,782.0879,767.1795,787.72894,802.23444,1090.7325,0.501708984375,-0.1148681640625,0.84906005859375,4.71038818359375,-2.370147705078125,-0.40374755859375,1.0,1.0,1.0,1.0,1.0,20.0,
2023-09-08 00:20:08.440,0.3051248,0.21697778,0.5861297,0.40995756,0.07619931,-0.01637177,0.4003947,0.5317241,0.5619836,0.5052148,0.5279313,0.6429252,0.2937192,0.84060997,-0.053213097,0.35307992,0.18628274,0.5931924,-0.38195986,0.053515065,787.326,811.9048,782.49084,792.1612,701.9048,0.4908447265625,-0.103759765625,0.8514404296875,5.001983642578125,-2.34771728515625,-1.77947998046875,1.0,1.0,1.0,1.0,1.0,20.0,
2023-09-08 00:20:08.450,0.3051248,0.21697778,0.5861297,0.40995756,0.07619931,-0.01637177,0.4003947,0.5317241,0.5619836,0.5052148,0.5279313,0.6429252,0.2937192,0.84060997,-0.053213097,0.35307992,0.18628274,0.5931924,-0.38195986,0.053515065,800.2198,814.7253,793.36993,773.22345,640.2564,0.498291015625,-0.11004638671875,0.85479736328125,4.658050537109375,-2.67669677734375,-2.400054931640625,1.0,1.0,1.0,1.0,1.0,20.0,
2023-09-08 00:20:08.457,0.27945307,0.2464277,0.5966916,0.39054587,-0.08844193,0.009527591,0.41207775,0.5245695,0.53876156,0.51257205,0.5373068,0.6429252,0.28757533,0.85190326,-0.05644637,0.39951456,0.19505014,0.5592158,-0.3927237,0.06807557,792.96704,781.28204,787.72894,792.96704,811.50183,0.498291015625,-0.11004638671875,0.85479736328125,4.658050537109375,-2.67669677734375,-2.400054931640625,1.0,1.0,1.0,1.0,1.0,20.0,
2023-09-08 00:20:08.493,0.27945307,0.2464277,0.5966916,0.39054587,-0.08844193,0.009527591,0.41207775,0.5245695,0.53876156,0.51257205,0.5373068,0.6429252,0.28757533,0.85190326,-0.05644637,0.39951456,0.19505014,0.5592158,-0.3927237,0.06807557,792.96704,796.5934,782.8938,801.02563,686.1905,0.50323486328125,-0.112060546875,0.85107421875,4.5159912109375,-3.372039794921875,-0.725250244140625,1.0,1.0,1.0,1.0,1.0,20.0,
2023-09-08 00:20:08.544,0.25791794,0.30212593,0.598868,0.37209877,-0.23165555,0.03691516,0.42917603,0.523715,0.53271466,0.5311424,0.6044964,0.6601988,0.28610486,0.8618481,-0.062533945,0.43709382,0.19580205,0.53829074,-0.39735517,0.094609596,789.7436,809.0842,790.54944,787.326,669.67035,0.50323486328125,-0.112060546875,0.85107421875,4.5159912109375,-3.372039794921875,-0.725250244140625,1.0,1.0,1.0,1.0,1.0,20.0,
2023-09-08 00:20:08.587,0.25791794,0.30212593,0.598868,0.37209877,-0.23165555,0.03691516,0.42917603,0.523715,0.53271466,0.5311424,0.6044964,0.6601988,0.28610486,0.8618481,-0.062533945,0.43709382,0.19580205,0.53829074,-0.39735517,0.094609596,790.14655,793.36993,793.36993,788.93774,763.5531,0.4930419921875,-0.1168212890625,0.8587646484375,4.418792724609375,-3.48419189453125,-0.55328369140625,1.0,1.0,1.0,1.0,1.0,20.0,
2023-09-08 00:20:08.625,0.25791794,0.30212593,0.598868,0.37209877,-0.23165555,0.03691516,0.42917603,0.523715,0.53271466,0.5311424,0.6044964,0.6601988,0.28610486,0.8618481,-0.062533945,0.43709382,0.19580205,0.53829074,-0.39735517,0.094609596,801.02563,799.011,793.7729,806.6667,786.52014,0.49481201171875,-0.11151123046875,0.85888671875,4.74029541015625,-2.968292236328125,-0.710296630859375,1.0,1.0,1.0,1.0,1.0,20.0,
2023-09-08 00:20:08.666,0.25791794,0.30212593,0.598868,0.37209877,-0.23165555,0.03691516,0.42917603,0.523715,0.53271466,0.5311424,0.6044964,0.6601988,0.28610486,0.8618481,-0.062533945,0.43709382,0.19580205,0.53829074,-0.39735517,0.094609596,794.17584,798.20514,799.41394,805.05493,886.4469,0.502197265625,-0.104736328125,0.848388671875,4.658050537109375,-2.833709716796875,-1.263580322265625,1.0,1.0,1.0,1.0,1.0,20.0,
2023-09-08 00:20:08.667,0.23115684,0.36282486,0.59517795,0.36285374,-0.31976095,0.068453416,0.46000263,0.51841116,0.55238104,0.5904011,0.6649131,0.7070768,0.2889789,0.8690727,-0.068098776,0.46372396,0.19138892,0.5300543,-0.39126703,0.12359114,795.38464,831.2454,792.96704,796.99634,653.5531,0.502197265625,-0.104736328125,0.848388671875,4.658050537109375,-2.833709716796875,-1.263580322265625,1.0,1.0,1.0,1.0,1.0,20.0,
2023-09-08 00:20:08.700,0.23115684,0.36282486,0.59517795,0.36285374,-0.31976095,0.068453416,0.46000263,0.51841116,0.55238104,0.5904011,0.6649131,0.7070768,0.2889789,0.8690727,-0.068098776,0.46372396,0.19138892,0.5300543,-0.39126703,0.12359114,795.38464,799.81683,788.5348,776.04395,764.35895,0.4901123046875,-0.11175537109375,0.85064697265625,4.224395751953125,-2.370147705078125,-1.435546875,1.0,1.0,1.0,1.0,1.0,20.0,
2023-09-08 00:20:08.802,0.23115684,0.36282486,0.59517795,0.36285374,-0.31976095,0.068453416,0.46000263,0.51841116,0.55238104,0.5904011,0.6649131,0.7070768,0.2889789,0.8690727,-0.068098776,0.46372396,0.19138892,0.5300543,-0.39126703,0.12359114,783.2967,792.1612,786.52014,785.7143,801.4286,0.5030517578125,-0.11346435546875,0.85009765625,4.867401123046875,-3.96270751953125,-1.136474609375,1.0,1.0,1.0,1.0,1.0,20.0,
2023-09-08 00:20:08.804,0.19274355,0.3703118,0.58909494,0.3622106,-0.3592422,0.07136844,0.4965075,0.501106,0.55839413,0.5904011,0.67364335,0.72347957,0.29358625,0.8747997,-0.06739076,0.48108414,0.18630898,0.52168244,-0.37562573,0.14547825,799.41394,809.4872,800.2198,782.8938,762.74725,0.5030517578125,-0.11346435546875,0.85009765625,4.867401123046875,-3.96270751953125,-1.136474609375,1.0,1.0,1.0,1.0,1.0,20.0,
2023-09-08 00:20:08.892,0.19274355,0.3703118,0.58909494,0.3622106,-0.3592422,0.07136844,0.4965075,0.501106,0.55839413,0.5904011,0.67364335,0.72347957,0.29358625,0.8747997,-0.06739076,0.48108414,0.18630898,0.52168244,-0.37562573,0.14547825,790.9524,811.9048,800.6227,793.36993,668.46155,0.5072021484375,-0.1146240234375,0.85791015625,4.658050537109375,-3.93280029296875,-0.28411865234375,1.0,1.0,1.0,1.0,1.0,20.0,
2023-09-08 00:20:08.895,0.13784075,0.37340313,0.57783186,0.3645916,-0.37671947,0.074854374,0.5257098,0.4732339,0.55492806,0.5904011,0.67364335,0.72179556,0.29838595,0.87576395,-0.05781247,0.49432477,0.1836339,0.5188678,-0.35526264,0.15673953,807.47253,779.67035,797.3993,803.0403,833.2601,0.5072021484375,-0.1146240234375,0.85791015625,4.658050537109375,-3.93280029296875,-0.28411865234375,1.0,1.0,1.0,1.0,1.0,20.0,
2023-09-08 00:20:08.932,0.13784075,0.37340313,0.57783186,0.3645916,-0.37671947,0.074854374,0.5257098,0.4732339,0.55492806,0.5904011,0.67364335,0.72179556,0.29838595,0.87576395,-0.05781247,0.49432477,0.1836339,0.5188678,-0.35526264,0.15673953,797.3993,775.2381,799.011,801.8315,791.3553,0.49774169921875,-0.1099853515625,0.85345458984375,5.18890380859375,-1.6448974609375,-0.530853271484375,1.0,1.0,1.0,1.0,1.0,20.0,
2023-09-08 00:20:08.975,0.13784075,0.37340313,0.57783186,0.3645916,-0.37671947,0.074854374,0.5257098,0.4732339,0.55492806,0.5904011,0.67364335,0.72179556,0.29838595,0.87576395,-0.05781247,0.49432477,0.1836339,0.5188678,-0.35526264,0.15673953,803.44324,795.78754,797.8022,801.4286,780.87915,0.48291015625,-0.10797119140625,0.8450927734375,5.973968505859375,-1.727142333984375,-2.564544677734375,1.0,1.0,1.0,1.0,1.0,20.0,
2023-09-08 00:20:08.982,0.08949297,0.37006244,0.55729276,0.37292066,-0.37705246,0.08154574,0.5404054,0.44556984,0.546543,0.5904011,0.67364335,0.69699305,0.30340508,0.87364906,-0.042795,0.50770986,0.18265024,0.5242579,-0.33548933,0.16013007,798.60803,802.6374,804.65204,806.26373,734.5421,0.48291015625,-0.10797119140625,0.8450927734375,5.973968505859375,-1.727142333984375,-2.564544677734375,1.0,1.0,1.0,1.0,1.0,20.0,
2023-09-08 00:20:09.033,0.08949297,0.37006244,0.55729276,0.37292066,-0.37705246,0.08154574,0.5404054,0.44556984,0.546543,0.5904011,0.67364335,0.69699305,0.30340508,0.87364906,-0.042795,0.50770986,0.18265024,0.5242579,-0.33548933,0.16013007,807.8755,765.56775,802.6374,806.6667,921.50183,0.50494384765625,-0.1004638671875,0.84759521484375,5.854339599609375,-2.52716064453125,-2.7813720703125,1.0,1.0,1.0,1.0,1.0,20.0,
2023-09-08 00:20:09.112,0.080264226,0.36060527,0.5269699,0.39451393,-0.34094673,0.15813601,0.5433727,0.43146783,0.546543,0.5799053,0.67364335,0.68877125,0.30881095,0.88275474,-0.030379064,0.52335453,0.18239658,0.5243773,-0.31984448,0.16008578,784.10254,820.7692,800.2198,800.6227,803.44324,0.50494384765625,-0.1004638671875,0.84759521484375,5.854339599609375,-2.52716064453125,-2.7813720703125,1.0,1.0,1.0,1.0,1.0,20.0,
2023-09-08 00:20:09.121,0.080264226,0.36060527,0.5269699,0.39451393,-0.34094673,0.15813601,0.5433727,0.43146783,0.546543,0.5799053,0.67364335,0.68877125,0.30881095,0.88275474,-0.030379064,0.52335453,0.18239658,0.5243773,-0.31984448,0.16008578,802.23444,811.0989,799.41394,787.72894,726.08057,0.5269775390625,-0.10595703125,0.8499755859375,3.671112060546875,-5.555267333984375,2.28790283203125,1.0,1.0,1.0,1.0,1.0,20.0,
2023-09-08 00:20:09.164,0.080264226,0.36060527,0.5269699,0.39451393,-0.34094673,0.15813601,0.5433727,0.43146783,0.546543,0.5799053,0.67364335,0.68877125,0.30881095,0.88275474,-0.030379064,0.52335453,0.18239658,0.5243773,-0.31984448,0.16008578,807.0696,804.65204,799.41394,791.3553,679.7436,0.5028076171875,-0.1004638671875,0.84796142578125,5.2935791015625,-3.102874755859375,3.84307861328125,1.0,1.0,1.0,1.0,1.0,20.0,
2023-09-08 00:20:09.172,0.110248424,0.33079362,0.49022135,0.42761123,-0.2724993,0.25926375,0.5409575,0.4309663,0.54670715,0.5572426,0.6594232,0.69665956,0.3140009,0.8956296,-0.023647059,0.53939277,0.18474191,0.5319294,-0.31067055,0.1595927,782.8938,812.71063,791.3553,805.4579,963.4066,0.5028076171875,-0.1004638671875,0.84796142578125,5.2935791015625,-3.102874755859375,3.84307861328125,1.0,1.0,1.0,1.0,1.0,20.0,
2023-09-08 00:20:09.219,0.110248424,0.33079362,0.49022135,0.42761123,-0.2724993,0.25926375,0.5409575,0.4309663,0.54670715,0.5572426,0.6594232,0.69665956,0.3140009,0.8956296,-0.023647059,0.53939277,0.18474191,0.5319294,-0.31067055,0.1595927,779.67035,819.9634,793.36993,796.5934,677.72894,0.425537109375,-0.10296630859375,0.85589599609375,5.973968505859375,0.91217041015625,-2.91595458984375,1.0,1.0,1.0,1.0,1.0,20.0,
2023-09-08 00:20:09.285,0.110248424,0.33079362,0.49022135,0.42761123,-0.2724993,0.25926375,0.5409575,0.4309663,0.54670715,0.5572426,0.6594232,0.69665956,0.3140009,0.8956296,-0.023647059,0.53939277,0.18474191,0.5319294,-0.31067055,0.1595927,798.20514,793.36993,793.36993,779.67035,690.6227,0.5318603515625,-0.10986328125,0.85638427734375,4.59075927734375,-7.618865966796875,-6.497344970703125,1.0,1.0,1.0,1.0,1.0,20.0,
2023-09-08 00:20:09.330,0.110248424,0.33079362,0.49022135,0.42761123,-0.2724993,0.25926375,0.5409575,0.4309663,0.54670715,0.5572426,0.6594232,0.69665956,0.3140009,0.8956296,-0.023647059,0.53939277,0.18474191,0.5319294,-0.31067055,0.1595927,784.90845,799.81683,807.0696,781.28204,780.4762,0.54290771484375,-0.10345458984375,0.86175537109375,3.06549072265625,-6.3702392578125,4.523468017578125,1.0,1.0,1.0,1.0,1.0,20.0,
2023-09-08 00:20:09.332,0.17404188,0.2949331,0.4471565,0.46637997,-0.19084944,0.36371273,0.5369141,0.43261373,0.5567795,0.54106164,0.64124495,0.6890653,0.31949827,0.9076223,-0.019782301,0.5531677,0.19222498,0.5462006,-0.30925044,0.16070148,782.0879,784.10254,807.0696,798.60803,891.685,0.54290771484375,-0.10345458984375,0.86175537109375,3.06549072265625,-6.3702392578125,4.523468017578125,1.0,1.0,1.0,1.0,1.0,20.0,
2023-09-08 00:20:09.387,0.17404188,0.2949331,0.4471565,0.46637997,-0.19084944,0.36371273,0.5369141,0.43261373,0.5567795,0.54106164,0.64124495,0.6890653,0.31949827,0.9076223,-0.019782301,0.5531677,0.19222498,0.5462006,-0.30925044,0.16070148,799.011,788.93774,796.99634,778.0586,690.2198,0.44647216796875,-0.1180419921875,0.83026123046875,4.403839111328125,-1.293487548828125,0.538330078125,1.0,1.0,1.0,1.0,1.0,20.0,
2023-09-08 00:20:09.389,0.25354013,0.26645,0.39851248,0.5060343,-0.11203112,0.4461106,0.5310386,0.42647254,0.56235296,0.5450341,0.61286503,0.6983357,0.3267912,0.91380805,-0.015320257,0.56288487,0.20385933,0.56533164,-0.3138123,0.16473797,782.49084,779.2674,789.7436,790.54944,756.30035,0.44647216796875,-0.1180419921875,0.83026123046875,4.403839111328125,-1.293487548828125,0.538330078125,1.0,1.0,1.0,1.0,1.0,20.0,
2023-09-08 00:20:09.428,0.25354013,0.26645,0.39851248,0.5060343,-0.11203112,0.4461106,0.5310386,0.42647254,0.56235296,0.5450341,0.61286503,0.6983357,0.3267912,0.91380805,-0.015320257,0.56288487,0.20385933,0.56533164,-0.3138123,0.16473797,789.34064,800.6227,794.17584,783.2967,770.40295,0.5318603515625,-0.10260009765625,0.8753662109375,5.734710693359375,-5.24871826171875,-8.381500244140625,1.0,1.0,1.0,1.0,1.0,20.0,
2023-09-08 00:20:09.494,0.25354013,0.26645,0.39851248,0.5060343,-0.11203112,0.4461106,0.5310386,0.42647254,0.56235296,0.5450341,0.61286503,0.6983357,0.3267912,0.91380805,-0.015320257,0.56288487,0.20385933,0.56533164,-0.3138123,0.16473797,789.34064,802.6374,811.9048,799.81683,739.3773,0.539306640625,-0.09027099609375,0.84954833984375,2.79632568359375,-4.613189697265625,2.699127197265625,1.0,1.0,1.0,1.0,1.0,20.0,
2023-09-08 00:20:09.498,0.3283654,0.25316277,0.35057086,0.5380516,-0.04618534,0.49741995,0.51802933,0.4092472,0.578081,0.5649411,0.5932568,0.70071495,0.33530635,0.91339767,-0.010299324,0.5669115,0.21454214,0.5837033,-0.3188917,0.17121121,788.1319,783.2967,801.8315,793.7729,730.10986,0.539306640625,-0.09027099609375,0.84954833984375,2.79632568359375,-4.613189697265625,2.699127197265625,1.0,1.0,1.0,1.0,1.0,20.0,
2023-09-08 00:20:09.550,0.3283654,0.25316277,0.35057086,0.5380516,-0.04618534,0.49741995,0.51802933,0.4092472,0.578081,0.5649411,0.5932568,0.70071495,0.33530635,0.91339767,-0.010299324,0.5669115,0.21454214,0.5837033,-0.3188917,0.17121121,801.02563,790.14655,795.38464,794.17584,748.24176,0.4991455078125,-0.11614990234375,0.8175048828125,1.532745361328125,-3.940277099609375,2.205657958984375,1.0,1.0,1.0,1.0,1.0,20.0,
2023-09-08 00:20:09.604,0.37926725,0.2531198,0.3144569,0.55465525,0.00071152684,0.52081895,0.49505922,0.38115355,0.5854104,0.5722666,0.58133304,0.69785166,0.34113777,0.9097863,-0.006561261,0.56328416,0.22026101,0.5937727,-0.31818756,0.17843968,805.05493,829.6337,788.1319,782.8938,916.26373,0.4991455078125,-0.11614990234375,0.8175048828125,1.532745361328125,-3.940277099609375,2.205657958984375,1.0,1.0,1.0,1.0,1.0,20.0,
2023-09-08 00:20:09.650,0.37926725,0.2531198,0.3144569,0.55465525,0.00071152684,0.52081895,0.49505922,0.38115355,0.5854104,0.5722666,0.58133304,0.69785166,0.34113777,0.9097863,-0.006561261,0.56328416,0.22026101,0.5937727,-0.31818756,0.17843968,791.3553,792.96704,791.3553,784.90845,675.7143,0.504150390625,-0.12115478515625,0.837646484375,5.839385986328125,-4.486083984375,-2.788848876953125,1.0,1.0,1.0,1.0,1.0,20.0,
2023-09-08 00:20:09.659,0.37926725,0.2531198,0.3144569,0.55465525,0.00071152684,0.52081895,0.49505922,0.38115355,0.5854104,0.5722666,0.58133304,0.69785166,0.34113777,0.9097863,-0.006561261,0.56328416,0.22026101,0.5937727,-0.31818756,0.17843968,801.02563,813.5165,802.23444,783.69965,704.7253,0.5252685546875,-0.10235595703125,0.8603515625,4.94964599609375,-4.284210205078125,-2.2430419921875,1.0,1.0,1.0,1.0,1.0,20.0,
2023-09-08 00:20:09.666,0.40928844,0.2630191,0.28093022,0.5553136,0.028821707,0.52423763,0.46765053,0.34140056,0.5657702,0.5722666,0.5793305,0.6966791,0.3414654,0.9085706,-0.0031151304,0.55000615,0.22124352,0.5900334,-0.30942547,0.18304184,788.5348,760.7326,790.9524,799.011,1052.4542,0.5252685546875,-0.10235595703125,0.8603515625,4.94964599609375,-4.284210205078125,-2.2430419921875,1.0,1.0,1.0,1.0,1.0,20.0,
2023-09-08 00:20:09.728,0.40928844,0.2630191,0.28093022,0.5553136,0.028821707,0.52423763,0.46765053,0.34140056,0.5657702,0.5722666,0.5793305,0.6966791,0.3414654,0.9085706,-0.0031151304,0.55000615,0.22124352,0.5900334,-0.30942547,0.18304184,776.04395,790.54944,789.34064,796.1905,802.6374,0.5103759765625,-0.1090087890625,0.84783935546875,4.403839111328125,-3.09539794921875,-1.099090576171875,1.0,1.0,1.0,1.0,1.0,20.0,
2023-09-08 00:20:09.767,0.40928844,0.2630191,0.28093022,0.5553136,0.028821707,0.52423763,0.46765053,0.34140056,0.5657702,0.5722666,0.5793305,0.6966791,0.3414654,0.9085706,-0.0031151304,0.55000615,0.22124352,0.5900334,-0.30942547,0.18304184,797.8022,780.07324,796.5934,803.8461,890.4762,0.50787353515625,-0.11114501953125,0.83843994140625,3.70849609375,-2.332763671875,-2.97576904296875,1.0,1.0,1.0,1.0,1.0,20.0,
2023-09-08 00:20:09.775,0.42477962,0.28143987,0.24916597,0.546952,0.04759286,0.51636904,0.4508004,0.288112,0.5516971,0.5722666,0.5810142,0.69551873,0.33942482,0.91236645,0.002480478,0.5267529,0.21943152,0.5733025,-0.2954248,0.18216836,802.6374,794.17584,795.78754,787.72894,661.2088,0.50787353515625,-0.11114501953125,0.83843994140625,3.70849609375,-2.332763671875,-2.97576904296875,1.0,1.0,1.0,1.0,1.0,20.0,
2023-09-08 00:20:09.810,0.42477962,0.28143987,0.24916597,0.546952,0.04759286,0.51636904,0.4508004,0.288112,0.5516971,0.5722666,0.5810142,0.69551873,0.33942482,0.91236645,0.002480478,0.5267529,0.21943152,0.5733025,-0.2954248,0.18216836,793.7729,804.2491,799.81683,782.0879,656.77655,0.50872802734375,-0.11639404296875,0.837158203125,5.241241455078125,-2.70660400390625,-1.637420654296875,1.0,1.0,1.0,1.0,1.0,20.0,
2023-09-08 00:20:09.895,0.42477962,0.28143987,0.24916597,0.546952,0.04759286,0.51636904,0.4508004,0.288112,0.5516971,0.5722666,0.5810142,0.69551873,0.33942482,0.91236645,0.002480478,0.5267529,0.21943152,0.5733025,-0.2954248,0.18216836,792.96704,798.60803,801.02563,791.75824,740.58606,0.52386474609375,-0.1015625,0.84136962890625,6.05621337890625,-4.269256591796875,1.368255615234375,1.0,1.0,1.0,1.0,1.0,20.0,
2023-09-08 00:20:09.896,0.43658277,0.29758644,0.2283611,0.538812,0.06898577,0.5062525,0.4546365,0.22396293,0.54881954,0.5722666,0.5834739,0.7000577,0.34279007,0.9204614,0.010227575,0.49558017,0.2169459,0.54947007,-0.2811318,0.17342408,805.8608,786.1172,799.81683,782.49084,726.08057,0.52386474609375,-0.1015625,0.84136962890625,6.05621337890625,-4.269256591796875,1.368255615234375,1.0,1.0,1.0,1.0,1.0,20.0,
2023-09-08 00:20:09.930,0.43658277,0.29758644,0.2283611,0.538812,0.06898577,0.5062525,0.4546365,0.22396293,0.54881954,0.5722666,0.5834739,0.7000577,0.34279007,0.9204614,0.010227575,0.49558017,0.2169459,0.54947007,-0.2811318,0.17342408,802.23444,828.8278,795.38464,790.9524,967.03296,0.50628662109375,-0.091064453125,0.83856201171875,5.839385986328125,-2.332763671875,1.353302001953125,1.0,1.0,1.0,1.0,1.0,20.0,
2023-09-08 00:20:10.040,0.43658277,0.29758644,0.2283611,0.538812,0.06898577,0.5062525,0.4546365,0.22396293,0.54881954,0.5722666,0.5834739,0.7000577,0.34279007,0.9204614,0.010227575,0.49558017,0.2169459,0.54947007,-0.2811318,0.17342408,784.10254,810.293,791.75824,806.6667,701.0989,0.46771240234375,-0.10906982421875,0.840576171875,5.15899658203125,-1.48040771484375,-4.29168701171875,1.0,1.0,1.0,1.0,1.0,20.0,
2023-09-08 00:20:10.043,0.45472863,0.29865235,0.22918753,0.532482,0.09755958,0.50171596,0.46893954,0.15330648,0.55557054,0.5807437,0.58497363,0.7036868,0.35514286,0.93173623,0.017327651,0.46066093,0.21651983,0.5256048,-0.27066845,0.15585229,790.54944,808.68134,789.7436,782.0879,661.6117,0.46771240234375,-0.10906982421875,0.840576171875,5.15899658203125,-1.48040771484375,-4.29168701171875,1.0,1.0,1.0,1.0,1.0,20.0,
2023-09-08 00:20:10.087,0.45472863,0.29865235,0.22918753,0.532482,0.09755958,0.50171596,0.46893954,0.15330648,0.55557054,0.5807437,0.58497363,0.7036868,0.35514286,0.93173623,0.017327651,0.46066093,0.21651983,0.5256048,-0.27066845,0.15585229,794.17584,794.57874,799.81683,786.1172,682.1612,0.546875,-0.11663818359375,0.8509521484375,4.20196533203125,-8.14971923828125,-3.775787353515625,1.0,1.0,1.0,1.0,1.0,20.0,
2023-09-08 00:20:10.110,0.4777559,0.26704177,0.2487344,0.5247313,0.13140894,0.5027155,0.47352123,0.087898366,0.57344854,0.5931963,0.58001053,0.7003917,0.37170845,0.94503576,0.02250231,0.426357,0.2199465,0.5080021,-0.2644062,0.1309724,797.3993,792.96704,816.7399,790.14655,847.3626,0.546875,-0.11663818359375,0.8509521484375,4.20196533203125,-8.14971923828125,-3.775787353515625,1.0,1.0,1.0,1.0,1.0,20.0,
2023-09-08 00:20:10.145,0.4777559,0.26704177,0.2487344,0.5247313,0.13140894,0.5027155,0.47352123,0.087898366,0.57344854,0.5931963,0.58001053,0.7003917,0.37170845,0.94503576,0.02250231,0.426357,0.2199465,0.5080021,-0.2644062,0.1309724,785.31134,793.36993,811.50183,811.0989,817.9487,0.54034423828125,-0.10455322265625,0.85003662109375,3.768310546875,-5.973968505859375,4.134674072265625,1.0,1.0,1.0,1.0,1.0,20.0,
2023-09-08 00:20:10.179,0.4777559,0.26704177,0.2487344,0.5247313,0.13140894,0.5027155,0.47352123,0.087898366,0.57344854,0.5931963,0.58001053,0.7003917,0.37170845,0.94503576,0.02250231,0.426357,0.2199465,0.5080021,-0.2644062,0.1309724,801.02563,805.4579,802.6374,793.36993,735.34796,0.49591064453125,-0.1236572265625,0.82305908203125,4.927215576171875,-1.15142822265625,-2.549591064453125,1.0,1.0,1.0,1.0,1.0,20.0,
2023-09-08 00:20:10.183,0.49651864,0.19996496,0.27359495,0.51218235,0.16579303,0.5006821,0.4591342,0.044679977,0.6020721,0.5256787,0.5665664,0.70037925,0.3856701,0.9574601,0.028039733,0.39712128,0.22498867,0.50018674,-0.26058185,0.104537904,784.5055,767.5824,793.7729,798.60803,1008.93774,0.49591064453125,-0.1236572265625,0.82305908203125,4.927215576171875,-1.15142822265625,-2.549591064453125,1.0,1.0,1.0,1.0,1.0,20.0,
2023-09-08 00:20:10.211,0.49651864,0.19996496,0.27359495,0.51218235,0.16579303,0.5006821,0.4591342,0.044679977,0.6020721,0.5256787,0.5665664,0.70037925,0.3856701,0.9574601,0.028039733,0.39712128,0.22498867,0.50018674,-0.26058185,0.104537904,804.65204,815.9341,798.60803,792.96704,691.02563,0.54693603515625,-0.09918212890625,0.84576416015625,6.407623291015625,-4.344024658203125,-1.79443359375,1.0,1.0,1.0,1.0,1.0,20.0,
2023-09-08 00:20:10.280,0.49651864,0.19996496,0.27359495,0.51218235,0.16579303,0.5006821,0.4591342,0.044679977,0.6020721,0.5256787,0.5665664,0.70037925,0.3856701,0.9574601,0.028039733,0.39712128,0.22498867,0.50018674,-0.26058185,0.104537904,804.2491,818.7546,807.8755,823.1868,771.6117,0.513916015625,-0.10296630859375,0.8375244140625,4.08233642578125,-3.90289306640625,2.1234130859375,1.0,1.0,1.0,1.0,1.0,20.0,
2023-09-08 00:20:10.286,0.5058374,0.21879211,0.29419842,0.49419293,0.19903201,0.48327875,0.44050628,0.033775102,0.6137226,0.54100555,0.47830427,0.661946,0.39553422,0.9580767,0.03648472,0.37602165,0.22638306,0.50659996,-0.25677454,0.08657826,792.1612,797.8022,796.99634,796.99634,677.72894,0.513916015625,-0.10296630859375,0.8375244140625,4.08233642578125,-3.90289306640625,2.1234130859375,1.0,1.0,1.0,1.0,1.0,20.0,
2023-09-08 00:20:10.314,0.5058374,0.21879211,0.29419842,0.49419293,0.19903201,0.48327875,0.44050628,0.033775102,0.6137226,0.54100555,0.47830427,0.661946,0.39553422,0.9580767,0.03648472,0.37602165,0.22638306,0.50659996,-0.25677454,0.08657826,794.9817,807.8755,790.14655,782.8938,615.2747,0.52777099609375,-0.10693359375,0.8265380859375,5.8917236328125,-4.000091552734375,0.10467529296875,1.0,1.0,1.0,1.0,1.0,20.0,
2023-09-08 00:20:10.399,0.50786793,0.23633115,0.3290929,0.47302356,0.2278869,0.46161264,0.4410049,0.040745858,0.6019157,0.54100555,0.33588636,0.59647506,0.40488762,0.95723206,0.048114058,0.36284822,0.22072789,0.5074679,-0.25252727,0.084154114,791.3553,823.1868,796.99634,794.9817,661.6117,0.52777099609375,-0.10693359375,0.8265380859375,5.8917236328125,-4.000091552734375,0.10467529296875,1.0,1.0,1.0,1.0,1.0,20.0,
2023-09-08 00:20:10.451,0.50786793,0.23633115,0.3290929,0.47302356,0.2278869,0.46161264,0.4410049,0.040745858,0.6019157,0.54100555,0.33588636,0.59647506,0.40488762,0.95723206,0.048114058,0.36284822,0.22072789,0.5074679,-0.25252727,0.084154114,791.3553,787.326,793.36993,788.5348,711.5751,0.53082275390625,-0.08905029296875,0.83770751953125,5.600128173828125,-3.910369873046875,-1.039276123046875,1.0,1.0,1.0,1.0,1.0,20.0,
2023-09-08 00:20:10.492,0.50786793,0.23633115,0.3290929,0.47302356,0.2278869,0.46161264,0.4410049,0.040745858,0.6019157,0.54100555,0.33588636,0.59647506,0.40488762,0.95723206,0.048114058,0.36284822,0.22072789,0.5074679,-0.25252727,0.084154114,807.8755,778.0586,798.60803,792.96704,804.2491,0.52294921875,-0.09893798828125,0.8406982421875,4.17205810546875,-2.930908203125,-1.039276123046875,1.0,1.0,1.0,1.0,1.0,20.0,
2023-09-08 00:20:10.501,0.50786793,0.23633115,0.3290929,0.47302356,0.2278869,0.46161264,0.4410049,0.040745858,0.6019157,0.54100555,0.33588636,0.59647506,0.40488762,0.95723206,0.048114058,0.36284822,0.22072789,0.5074679,-0.25252727,0.084154114,781.685,799.011,786.9231,797.3993,720.0366,0.5240478515625,-0.1031494140625,0.834716796875,5.001983642578125,-3.15521240234375,-0.58319091796875,1.0,1.0,1.0,1.0,1.0,20.0,
2023-09-08 00:20:10.501,0.5039313,0.23633115,0.38687864,0.4493794,0.24602057,0.46161264,0.4653713,0.042286076,0.6077586,0.54100555,0.19021659,0.57076293,0.41954434,0.95723206,0.06011969,0.3555003,0.21019892,0.5074679,-0.24767016,0.09412606,780.4762,812.71063,787.72894,795.38464,722.8571,0.5240478515625,-0.1031494140625,0.834716796875,5.001983642578125,-3.15521240234375,-0.58319091796875,1.0,1.0,1.0,1.0,1.0,20.0,
2023-09-08 00:20:10.565,0.5039313,0.23633115,0.38687864,0.4493794,0.24602057,0.46161264,0.4653713,0.042286076,0.6077586,0.54100555,0.19021659,0.57076293,0.41954434,0.95723206,0.06011969,0.3555003,0.21019892,0.5074679,-0.24767016,0.09412606,786.1172,792.1612,793.36993,789.34064,762.74725,0.5169677734375,-0.10601806640625,0.83551025390625,4.78515625,-3.835601806640625,-1.786956787109375,1.0,1.0,1.0,1.0,1.0,20.0,
2023-09-08 00:20:10.597,0.5039313,0.23633115,0.38687864,0.4493794,0.24602057,0.46161264,0.4653713,0.042286076,0.6077586,0.54100555,0.19021659,0.57076293,0.41954434,0.95723206,0.06011969,0.3555003,0.21019892,0.5074679,-0.24767016,0.09412606,792.1612,798.20514,796.5934,783.69965,669.67035,0.5404052734375,-0.1075439453125,0.83349609375,5.046844482421875,-4.5758056640625,-0.201873779296875,1.0,1.0,1.0,1.0,1.0,20.0,
2023-09-08 00:20:10.600,0.49737868,0.22511825,0.44626015,0.42406002,0.24940768,0.45396557,0.49259502,0.028102003,0.6547517,0.54100555,0.12253666,0.60962844,0.44043332,0.9553511,0.06920388,0.34979844,0.19875866,0.51699567,-0.2418791,0.10758674,778.86444,771.2088,792.96704,789.7436,901.75824,0.5404052734375,-0.1075439453125,0.83349609375,5.046844482421875,-4.5758056640625,-0.201873779296875,1.0,1.0,1.0,1.0,1.0,20.0,
2023-09-08 00:20:10.695,0.49737868,0.22511825,0.44626015,0.42406002,0.24940768,0.45396557,0.49259502,0.028102003,0.6547517,0.54100555,0.12253666,0.60962844,0.44043332,0.9553511,0.06920388,0.34979844,0.19875866,0.51699567,-0.2418791,0.10758674,805.05493,826.8132,798.20514,807.8755,695.8608,0.54339599609375,-0.104736328125,0.840576171875,5.779571533203125,-4.224395751953125,0.351409912109375,1.0,1.0,1.0,1.0,1.0,20.0,
2023-09-08 00:20:10.698,0.48600498,0.23416758,0.48853853,0.3898767,0.24052258,0.42401475,0.50454646,0.010510972,0.67821914,0.54100555,0.17014942,0.6206535,0.46400234,0.9533806,0.07279887,0.34191704,0.18657033,0.52019894,-0.23548616,0.11941598,799.81683,779.67035,812.3077,823.1868,931.978,0.54339599609375,-0.104736328125,0.840576171875,5.779571533203125,-4.224395751953125,0.351409912109375,1.0,1.0,1.0,1.0,1.0,20.0,
2023-09-08 00:20:10.761,0.48600498,0.23416758,0.48853853,0.3898767,0.24052258,0.42401475,0.50454646,0.010510972,0.67821914,0.54100555,0.17014942,0.6206535,0.46400234,0.9533806,0.07279887,0.34191704,0.18657033,0.52019894,-0.23548616,0.11941598,818.7546,806.26373,807.47253,788.1319,653.1502,0.528564453125,-0.09130859375,0.833251953125,5.959014892578125,-1.2261962890625,0.0299072265625,1.0,1.0,1.0,1.0,1.0,20.0,
2023-09-08 00:20:10.797,0.48600498,0.23416758,0.48853853,0.3898767,0.24052258,0.42401475,0.50454646,0.010510972,0.67821914,0.54100555,0.17014942,0.6206535,0.46400234,0.9533806,0.07279887,0.34191704,0.18657033,0.52019894,-0.23548616,0.11941598,808.68134,807.8755,800.6227,809.4872,685.78754,0.500732421875,-0.08544921875,0.83062744140625,5.75714111328125,0.11962890625,-1.712188720703125,1.0,1.0,1.0,1.0,1.0,20.0,
2023-09-08 00:20:10.802,0.46968186,0.25767803,0.5175119,0.34793958,0.22389641,0.36403885,0.49968293,0.009252757,0.68812203,0.54100555,0.22679304,0.61181724,0.4851137,0.9545645,0.0691806,0.3308409,0.17071882,0.5151353,-0.2306394,0.12814628,802.23444,810.293,796.1905,797.3993,745.42126,0.500732421875,-0.08544921875,0.83062744140625,5.75714111328125,0.11962890625,-1.712188720703125,1.0,1.0,1.0,1.0,1.0,20.0,
2023-09-08 00:20:10.841,0.46968186,0.25767803,0.5175119,0.34793958,0.22389641,0.36403885,0.49968293,0.009252757,0.68812203,0.54100555,0.22679304,0.61181724,0.4851137,0.9545645,0.0691806,0.3308409,0.17071882,0.5151353,-0.2306394,0.12814628,805.8608,790.14655,801.8315,796.1905,819.15753,0.4801025390625,-0.10125732421875,0.82843017578125,3.6785888671875,-1.652374267578125,-4.605712890625,1.0,1.0,1.0,1.0,1.0,20.0,
2023-09-08 00:20:10.903,0.4644772,0.29160944,0.5445969,0.31476784,0.20392765,0.28218815,0.4879686,0.033378396,0.6826995,0.5378193,0.23574398,0.5927798,0.5013982,0.96035475,0.058476232,0.32024536,0.15030372,0.50439394,-0.22912355,0.13252713,805.8608,835.6777,806.6667,800.6227,888.0586,0.4801025390625,-0.10125732421875,0.82843017578125,3.6785888671875,-1.652374267578125,-4.605712890625,1.0,1.0,1.0,1.0,1.0,20.0,
2023-09-08 00:20:10.954,0.4644772,0.29160944,0.5445969,0.31476784,0.20392765,0.28218815,0.4879686,0.033378396,0.6826995,0.5378193,0.23574398,0.5927798,0.5013982,0.96035475,0.058476232,0.32024536,0.15030372,0.50439394,-0.22912355,0.13252713,802.23444,805.8608,808.2784,801.4286,740.58606,0.5576171875,-0.1119384765625,0.82958984375,3.536529541015625,-9.891815185546877,-1.45050048828125,1.0,1.0,1.0,1.0,1.0,20.0,
2023-09-08 00:20:10.999,0.4644772,0.29160944,0.5445969,0.31476784,0.20392765,0.28218815,0.4879686,0.033378396,0.6826995,0.5378193,0.23574398,0.5927798,0.5013982,0.96035475,0.058476232,0.32024536,0.15030372,0.50439394,-0.22912355,0.13252713,792.5641,812.71063,803.0403,785.7143,762.3443,0.5689697265625,-0.1165771484375,0.83953857421875,4.42626953125,-6.9683837890625,3.252410888671875,1.0,1.0,1.0,1.0,1.0,20.0,
2023-09-08 00:20:11.007,0.48451453,0.32939026,0.57602626,0.31266874,0.18394335,0.21546677,0.4778512,0.07569135,0.6714153,0.520255,0.23574398,0.5857514,0.51260805,0.9710193,0.043603934,0.31753108,0.12709379,0.49076286,-0.23043998,0.13154738,804.65204,787.72894,794.17584,785.7143,830.0366,0.5689697265625,-0.1165771484375,0.83953857421875,4.42626953125,-6.9683837890625,3.252410888671875,1.0,1.0,1.0,1.0,1.0,20.0,
2023-09-08 00:20:11.059,0.48451453,0.32939026,0.57602626,0.31266874,0.18394335,0.21546677,0.4778512,0.07569135,0.6714153,0.520255,0.23574398,0.5857514,0.51260805,0.9710193,0.043603934,0.31753108,0.12709379,0.49076286,-0.23043998,0.13154738,800.6227,809.0842,792.96704,783.2967,705.12823,0.50689697265625,-0.10650634765625,0.8323974609375,6.871185302734375,-1.517791748046875,0.545806884765625,1.0,1.0,1.0,1.0,1.0,20.0,
2023-09-08 00:20:11.127,0.48451453,0.32939026,0.57602626,0.31266874,0.18394335,0.21546677,0.4778512,0.07569135,0.6714153,0.520255,0.23574398,0.5857514,0.51260805,0.9710193,0.043603934,0.31753108,0.12709379,0.49076286,-0.23043998,0.13154738,803.0403,828.8278,789.7436,791.3553,841.31866,0.5341796875,-0.09234619140625,0.836669921875,6.108551025390625,-2.67669677734375,-3.775787353515625,1.0,1.0,1.0,1.0,1.0,20.0,
2023-09-08 00:20:11.177,0.48451453,0.32939026,0.57602626,0.31266874,0.18394335,0.21546677,0.4778512,0.07569135,0.6714153,0.520255,0.23574398,0.5857514,0.51260805,0.9710193,0.043603934,0.31753108,0.12709379,0.49076286,-0.23043998,0.13154738,800.6227,791.3553,796.1905,793.7729,705.5311,0.5404052734375,-0.087646484375,0.8265380859375,3.476715087890625,-4.882354736328125,1.2261962890625,1.0,1.0,1.0,1.0,1.0,20.0,
2023-09-08 00:20:11.179,0.5280625,0.36702242,0.5988162,0.34481567,0.17031051,0.19816463,0.47071558,0.12729174,0.65913177,0.5021246,0.23574398,0.5898525,0.51953465,0.9780977,0.028352218,0.3267539,0.102982804,0.4751706,-0.23373231,0.12718767,807.47253,784.90845,796.1905,792.5641,711.1722,0.5404052734375,-0.087646484375,0.8265380859375,3.476715087890625,-4.882354736328125,1.2261962890625,1.0,1.0,1.0,1.0,1.0,20.0,
2023-09-08 00:20:11.228,0.5280625,0.36702242,0.5988162,0.34481567,0.17031051,0.19816463,0.47071558,0.12729174,0.65913177,0.5021246,0.23574398,0.5898525,0.51953465,0.9780977,0.028352218,0.3267539,0.102982804,0.4751706,-0.23373231,0.12718767,794.9817,769.19415,783.2967,802.23444,895.7143,0.53631591796875,-0.1083984375,0.81573486328125,4.8150634765625,-4.284210205078125,0.3289794921875,1.0,1.0,1.0,1.0,1.0,20.0,
2023-09-08 00:20:11.230,0.57239,0.39677477,0.62088966,0.39414078,0.16919385,0.20195007,0.4624878,0.17961845,0.6604952,0.48116878,0.23574398,0.6222694,0.52313584,0.9819227,0.012830891,0.34548217,0.08034827,0.47884485,-0.24001952,0.123899035,807.0696,815.5311,782.49084,786.52014,675.31134,0.53631591796875,-0.1083984375,0.81573486328125,4.8150634765625,-4.284210205078125,0.3289794921875,1.0,1.0,1.0,1.0,1.0,20.0,
2023-09-08 00:20:11.275,0.57239,0.39677477,0.62088966,0.39414078,0.16919385,0.20195007,0.4624878,0.17961845,0.6604952,0.48116878,0.23574398,0.6222694,0.52313584,0.9819227,0.012830891,0.34548217,0.08034827,0.47884485,-0.24001952,0.123899035,805.4579,787.72894,797.8022,788.5348,824.7985,0.5550537109375,-0.09454345703125,0.83404541015625,6.02630615234375,-4.05242919921875,-1.016845703125,1.0,1.0,1.0,1.0,1.0,20.0,
2023-09-08 00:20:11.357,0.57239,0.39677477,0.62088966,0.39414078,0.16919385,0.20195007,0.4624878,0.17961845,0.6604952,0.48116878,0.23574398,0.6222694,0.52313584,0.9819227,0.012830891,0.34548217,0.08034827,0.47884485,-0.24001952,0.123899035,799.011,799.81683,790.9524,794.9817,820.7692,0.5567626953125,-0.09234619140625,0.82989501953125,4.9945068359375,-2.549591064453125,-0.261688232421875,1.0,1.0,1.0,1.0,1.0,20.0,
2023-09-08 00:20:11.361,0.60163033,0.41644335,0.64579386,0.39720505,0.17816387,0.22388193,0.44836336,0.1981169,0.6681089,0.47082096,0.23334228,0.6207429,0.5267231,0.9823347,-0.0054451115,0.35853708,0.06453836,0.49012494,-0.25082308,0.12644479,804.65204,794.9817,793.36993,797.3993,712.381,0.5567626953125,-0.09234619140625,0.82989501953125,4.9945068359375,-2.549591064453125,-0.261688232421875,1.0,1.0,1.0,1.0,1.0,20.0,
2023-09-08 00:20:11.400,0.60163033,0.41644335,0.64579386,0.39720505,0.17816387,0.22388193,0.44836336,0.1981169,0.6681089,0.47082096,0.23334228,0.6207429,0.5267231,0.9823347,-0.0054451115,0.35853708,0.06453836,0.49012494,-0.25082308,0.12644479,809.4872,805.05493,797.8022,806.26373,778.0586,0.52398681640625,-0.09722900390625,0.8150634765625,4.059906005859375,0.3289794921875,-0.620574951171875,1.0,1.0,1.0,1.0,1.0,20.0,
2023-09-08 00:20:11.422,0.6108233,0.42134547,0.66806644,0.4378065,0.1891271,0.24562065,0.4284205,0.2310831,0.69221914,0.46680868,0.22577518,0.645416,0.53249186,0.9807077,-0.026950452,0.3860047,0.060209572,0.5024889,-0.2626983,0.12537602,810.696,775.2381,799.011,813.1135,1299.8535,0.52398681640625,-0.09722900390625,0.8150634765625,4.059906005859375,0.3289794921875,-0.620574951171875,1.0,1.0,1.0,1.0,1.0,20.0,
2023-09-08 00:20:11.476,0.6108233,0.42134547,0.66806644,0.4378065,0.1891271,0.24562065,0.4284205,0.2310831,0.69221914,0.46680868,0.22577518,0.645416,0.53249186,0.9807077,-0.026950452,0.3860047,0.060209572,0.5024889,-0.2626983,0.12537602,801.4286,813.5165,799.41394,793.7729,618.0952,0.52471923828125,-0.09783935546875,0.83868408203125,4.08233642578125,-2.788848876953125,-2.026214599609375,1.0,1.0,1.0,1.0,1.0,20.0,
2023-09-08 00:20:11.544,0.6108233,0.42134547,0.66806644,0.4378065,0.1891271,0.24562065,0.4284205,0.2310831,0.69221914,0.46680868,0.22577518,0.645416,0.53249186,0.9807077,-0.026950452,0.3860047,0.060209572,0.5024889,-0.2626983,0.12537602,786.9231,817.9487,801.8315,798.60803,713.9927,0.52728271484375,-0.10565185546875,0.83740234375,3.42437744140625,-4.02252197265625,-0.276641845703125,1.0,1.0,1.0,1.0,1.0,20.0,
2023-09-08 00:20:11.551,0.60436636,0.40857258,0.68704414,0.46936598,0.19390452,0.25335547,0.40952352,0.25242743,0.7252277,0.46152836,0.23504823,0.64155006,0.5393781,0.9779554,-0.047916017,0.41232938,0.06365035,0.50979257,-0.2677042,0.118553,804.2491,780.87915,800.2198,806.26373,968.6447,0.52728271484375,-0.10565185546875,0.83740234375,3.42437744140625,-4.02252197265625,-0.276641845703125,1.0,1.0,1.0,1.0,1.0,20.0,
2023-09-08 00:20:11.559,0.60436636,0.40857258,0.68704414,0.46936598,0.19390452,0.25335547,0.40952352,0.25242743,0.7252277,0.46152836,0.23504823,0.64155006,0.5393781,0.9779554,-0.047916017,0.41232938,0.06365035,0.50979257,-0.2677042,0.118553,812.71063,811.0989,804.65204,785.7143,656.77655,0.5380859375,-0.10650634765625,0.84405517578125,3.880462646484375,-2.930908203125,-0.171966552734375,1.0,1.0,1.0,1.0,1.0,20.0,
2023-09-08 00:20:11.649,0.60436636,0.40857258,0.68704414,0.46936598,0.19390452,0.25335547,0.40952352,0.25242743,0.7252277,0.46152836,0.23504823,0.64155006,0.5393781,0.9779554,-0.047916017,0.41232938,0.06365035,0.50979257,-0.2677042,0.118553,805.05493,797.8022,803.0403,809.4872,815.9341,0.5450439453125,-0.1087646484375,0.82049560546875,4.059906005859375,-2.1832275390625,0.76263427734375,1.0,1.0,1.0,1.0,1.0,20.0,
2023-09-08 00:20:11.656,0.590387,0.3901831,0.70225185,0.49799827,0.18642908,0.24224022,0.3985228,0.26896194,0.7402229,0.4131985,0.32036155,0.62193215,0.5447498,0.97345245,-0.06475627,0.43681064,0.06586244,0.5067742,-0.26408663,0.10597561,779.2674,787.72894,788.5348,784.10254,742.1978,0.5450439453125,-0.1087646484375,0.82049560546875,4.059906005859375,-2.1832275390625,0.76263427734375,1.0,1.0,1.0,1.0,1.0,20.0,
2023-09-08 00:20:11.661,0.590387,0.3901831,0.70225185,0.49799827,0.18642908,0.24224022,0.3985228,0.26896194,0.7402229,0.4131985,0.32036155,0.62193215,0.5447498,0.97345245,-0.06475627,0.43681064,0.06586244,0.5067742,-0.26408663,0.10597561,781.685,788.1319,790.9524,789.34064,822.7839,0.511474609375,-0.10430908203125,0.81494140625,6.093597412109375,-1.2261962890625,-0.418701171875,1.0,1.0,1.0,1.0,1.0,20.0,
2023-09-08 00:20:11.731,0.590387,0.3901831,0.70225185,0.49799827,0.18642908,0.24224022,0.3985228,0.26896194,0.7402229,0.4131985,0.32036155,0.62193215,0.5447498,0.97345245,-0.06475627,0.43681064,0.06586244,0.5067742,-0.26408663,0.10597561,814.3223,825.6044,794.57874,786.9231,709.9634,0.50958251953125,-0.1036376953125,0.8345947265625,6.56463623046875,-2.355194091796875,-5.7122802734375,1.0,1.0,1.0,1.0,1.0,20.0,
2023-09-08 00:20:11.732,0.57402885,0.38106507,0.708982,0.5163317,0.16421872,0.22467574,0.39342627,0.28514737,0.74489284,0.31053066,0.37000763,0.60490197,0.54779506,0.96890616,-0.07873479,0.45894286,0.061088253,0.48835814,-0.26091164,0.09245911,805.4579,813.91943,793.7729,799.81683,678.5348,0.50958251953125,-0.1036376953125,0.8345947265625,6.56463623046875,-2.355194091796875,-5.7122802734375,1.0,1.0,1.0,1.0,1.0,20.0,
2023-09-08 00:20:11.791,0.57402885,0.38106507,0.708982,0.5163317,0.16421872,0.22467574,0.39342627,0.28514737,0.74489284,0.31053066,0.37000763,0.60490197,0.54779506,0.96890616,-0.07873479,0.45894286,0.061088253,0.48835814,-0.26091164,0.09245911,796.1905,811.0989,803.44324,802.6374,711.1722,0.566650390625,-0.08648681640625,0.85028076171875,4.583282470703125,-6.53472900390625,-2.0037841796875,1.0,1.0,1.0,1.0,1.0,20.0,
2023-09-08 00:20:11.829,0.57402885,0.38106507,0.708982,0.5163317,0.16421872,0.22467574,0.39342627,0.28514737,0.74489284,0.31053066,0.37000763,0.60490197,0.54779506,0.96890616,-0.07873479,0.45894286,0.061088253,0.48835814,-0.26091164,0.09245911,801.4286,822.381,797.8022,782.49084,639.85345,0.533447265625,-0.1019287109375,0.82354736328125,2.70660400390625,-3.69354248046875,0.515899658203125,1.0,1.0,1.0,1.0,1.0,20.0,
2023-09-08 00:20:11.832,0.5624239,0.38106507,0.7098751,0.5288177,0.13198702,0.22467574,0.3811477,0.3076815,0.74033016,0.31053066,0.36782762,0.6028088,0.55036765,0.96890616,-0.09464597,0.47628275,0.051382605,0.48835814,-0.26945895,0.08163346,789.34064,801.8315,794.9817,803.8461,759.12085,0.533447265625,-0.1019287109375,0.82354736328125,2.70660400390625,-3.69354248046875,0.515899658203125,1.0,1.0,1.0,1.0,1.0,20.0,
2023-09-08 00:20:11.872,0.5624239,0.38106507,0.7098751,0.5288177,0.13198702,0.22467574,0.3811477,0.3076815,0.74033016,0.31053066,0.36782762,0.6028088,0.55036765,0.96890616,-0.09464597,0.47628275,0.051382605,0.48835814,-0.26945895,0.08163346,803.0403,795.78754,802.23444,797.8022,763.1502,0.5343017578125,-0.10589599609375,0.82794189453125,4.7552490234375,-2.85614013671875,-2.190704345703125,1.0,1.0,1.0,1.0,1.0,20.0,
2023-09-08 00:20:11.909,0.55972034,0.38106507,0.6991759,0.5377878,0.10670914,0.22467574,0.35020676,0.340239,0.72911966,0.31053066,0.37347534,0.6028088,0.5540488,0.96890616,-0.11716682,0.4841392,0.04253932,0.48835814,-0.29238304,0.07340323,809.89014,778.0586,797.3993,819.9634,1056.0806,0.5343017578125,-0.10589599609375,0.82794189453125,4.7552490234375,-2.85614013671875,-2.190704345703125,1.0,1.0,1.0,1.0,1.0,20.0,
2023-09-08 00:20:11.960,0.55972034,0.38106507,0.6991759,0.5377878,0.10670914,0.22467574,0.35020676,0.340239,0.72911966,0.31053066,0.37347534,0.6028088,0.5540488,0.96890616,-0.11716682,0.4841392,0.04253932,0.48835814,-0.29238304,0.07340323,803.44324,790.54944,797.8022,786.52014,682.5641,0.548828125,-0.0977783203125,0.816162109375,4.77020263671875,-3.013153076171875,-2.773895263671875,1.0,1.0,1.0,1.0,1.0,20.0,
2023-09-08 00:20:12.017,0.55972034,0.38106507,0.6991759,0.5377878,0.10670914,0.22467574,0.35020676,0.340239,0.72911966,0.31053066,0.37347534,0.6028088,0.5540488,0.96890616,-0.11716682,0.4841392,0.04253932,0.48835814,-0.29238304,0.07340323,808.68134,792.5641,807.0696,805.8608,740.58606,0.54681396484375,-0.09326171875,0.830078125,4.358978271484375,-4.358978271484375,-0.725250244140625,1.0,1.0,1.0,1.0,1.0,20.0,
2023-09-08 00:20:12.022,0.56334114,0.38106507,0.67192537,0.5405581,0.10966324,0.22467574,0.30104294,0.37519374,0.7073935,0.31053066,0.38369814,0.6660824,0.5555912,0.96890616,-0.146663,0.47978348,0.038053714,0.48835814,-0.3241166,0.06808469,786.1172,772.01465,805.05493,791.75824,889.67035,0.54681396484375,-0.09326171875,0.830078125,4.358978271484375,-4.358978271484375,-0.725250244140625,1.0,1.0,1.0,1.0,1.0,20.0,
2023-09-08 00:20:12.086,0.56334114,0.38106507,0.67192537,0.5405581,0.10966324,0.22467574,0.30104294,0.37519374,0.7073935,0.31053066,0.38369814,0.6660824,0.5555912,0.96890616,-0.146663,0.47978348,0.038053714,0.48835814,-0.3241166,0.06808469,798.60803,800.2198,791.75824,797.8022,801.4286,0.55584716796875,-0.0946044921875,0.8187255859375,5.30853271484375,-3.768310546875,-1.68975830078125,1.0,1.0,1.0,1.0,1.0,20.0,
2023-09-08 00:20:12.119,0.56334114,0.38106507,0.67192537,0.5405581,0.10966324,0.22467574,0.30104294,0.37519374,0.7073935,0.31053066,0.38369814,0.6660824,0.5555912,0.96890616,-0.146663,0.47978348,0.038053714,0.48835814,-0.3241166,0.06808469,805.05493,807.0696,789.7436,786.9231,698.2784,0.549560546875,-0.092529296875,0.8280029296875,4.927215576171875,-3.289794921875,-1.338348388671875,1.0,1.0,1.0,1.0,1.0,20.0,
2023-09-08 00:20:12.129,0.56562835,0.24902683,0.6355253,0.53630906,0.14317364,0.3632861,0.2502516,0.3987541,0.7014322,0.14769147,0.3881075,0.7115714,0.55029064,0.9752029,-0.17688629,0.46719375,0.037243284,0.40152246,-0.35725096,0.066110775,793.7729,809.4872,790.54944,778.86444,705.5311,0.549560546875,-0.092529296875,0.8280029296875,4.927215576171875,-3.289794921875,-1.338348388671875,1.0,1.0,1.0,1.0,1.0,20.0,
2023-09-08 00:20:12.141,0.56562835,0.24902683,0.6355253,0.53630906,0.14317364,0.3632861,0.2502516,0.3987541,0.7014322,0.14769147,0.3881075,0.7115714,0.55029064,0.9752029,-0.17688629,0.46719375,0.037243284,0.40152246,-0.35725096,0.066110775,802.6374,799.011,809.89014,802.23444,740.58606,0.54486083984375,-0.09320068359375,0.82379150390625,5.136566162109375,-3.1402587890625,-1.158905029296875,1.0,1.0,1.0,1.0,1.0,20.0,
2023-09-08 00:20:12.250,0.56420475,0.21746819,0.601408,0.5285496,0.1863099,0.38994345,0.22007361,0.40494892,0.695507,0.16771543,0.3918734,0.71816367,0.5366921,0.9767426,-0.19655143,0.4560991,0.036895182,0.36104923,-0.3866045,0.06640352,802.23444,819.5604,805.8608,800.6227,703.1135,0.54486083984375,-0.09320068359375,0.82379150390625,5.136566162109375,-3.1402587890625,-1.158905029296875,1.0,1.0,1.0,1.0,1.0,20.0,
2023-09-08 00:20:12.294,0.56420475,0.21746819,0.601408,0.5285496,0.1863099,0.38994345,0.22007361,0.40494892,0.695507,0.16771543,0.3918734,0.71816367,0.5366921,0.9767426,-0.19655143,0.4560991,0.036895182,0.36104923,-0.3866045,0.06640352,805.05493,798.20514,808.2784,795.38464,656.3736,0.5413818359375,-0.09808349609375,0.83087158203125,4.628143310546875,-2.76641845703125,-1.74957275390625,1.0,1.0,1.0,1.0,1.0,20.0,
2023-09-08 00:20:12.303,0.56420475,0.21746819,0.601408,0.5285496,0.1863099,0.38994345,0.22007361,0.40494892,0.695507,0.16771543,0.3918734,0.71816367,0.5366921,0.9767426,-0.19655143,0.4560991,0.036895182,0.36104923,-0.3866045,0.06640352,798.60803,822.381,815.5311,803.0403,726.4835,0.54022216796875,-0.10369873046875,0.823974609375,4.486083984375,-3.043060302734375,-0.471038818359375,1.0,1.0,1.0,1.0,1.0,20.0,
2023-09-08 00:20:12.369,0.56420475,0.21746819,0.601408,0.5285496,0.1863099,0.38994345,0.22007361,0.40494892,0.695507,0.16771543,0.3918734,0.71816367,0.5366921,0.9767426,-0.19655143,0.4560991,0.036895182,0.36104923,-0.3866045,0.06640352,799.41394,796.1905,801.4286,793.36993,713.9927,0.52911376953125,-0.099365234375,0.82330322265625,5.14404296875,-3.349609375,-1.024322509765625,1.0,1.0,1.0,1.0,1.0,20.0,
2023-09-08 00:20:12.370,0.5561422,0.21462527,0.57629436,0.520779,0.21726105,0.38958135,0.2244224,0.39803317,0.6787757,0.1706032,0.38711435,0.71816367,0.519175,0.9724042,-0.19749953,0.4529857,0.036034267,0.3346957,-0.40424553,0.06840279,809.4872,805.8608,801.4286,791.3553,664.83514,0.52911376953125,-0.099365234375,0.82330322265625,5.14404296875,-3.349609375,-1.024322509765625,1.0,1.0,1.0,1.0,1.0,20.0,
2023-09-08 00:20:12.423,0.5561422,0.21462527,0.57629436,0.520779,0.21726105,0.38958135,0.2244224,0.39803317,0.6787757,0.1706032,0.38711435,0.71816367,0.519175,0.9724042,-0.19749953,0.4529857,0.036034267,0.3346957,-0.40424553,0.06840279,812.3077,803.8461,811.9048,800.2198,806.26373,0.55010986328125,-0.093017578125,0.8250732421875,5.973968505859375,-2.594451904296875,-2.415008544921875,1.0,1.0,1.0,1.0,1.0,20.0,
2023-09-08 00:20:12.439,0.5561422,0.21462527,0.57629436,0.520779,0.21726105,0.38958135,0.2244224,0.39803317,0.6787757,0.1706032,0.38711435,0.71816367,0.519175,0.9724042,-0.19749953,0.4529857,0.036034267,0.3346957,-0.40424553,0.06840279,806.6667,802.6374,805.8608,803.44324,789.7436,0.5701904296875,-0.0914306640625,0.8233642578125,4.127197265625,-4.68048095703125,0.979461669921875,1.0,1.0,1.0,1.0,1.0,20.0,
2023-09-08 00:20:12.442,0.52844924,0.21462527,0.56527936,0.50667673,0.22807327,0.38958135,0.25368077,0.38388884,0.67622375,0.1706032,0.37921038,0.71816367,0.50344205,0.9724042,-0.18016699,0.45551944,0.0365899,0.3346957,-0.4000296,0.07530632,807.0696,786.1172,807.0696,798.20514,750.2564,0.5701904296875,-0.0914306640625,0.8233642578125,4.127197265625,-4.68048095703125,0.979461669921875,1.0,1.0,1.0,1.0,1.0,20.0,
2023-09-08 00:20:12.568,0.52844924,0.21462527,0.56527936,0.50667673,0.22807327,0.38958135,0.25368077,0.38388884,0.67622375,0.1706032,0.37921038,0.71816367,0.50344205,0.9724042,-0.18016699,0.45551944,0.0365899,0.3346957,-0.4000296,0.07530632,802.6374,801.02563,801.02563,789.7436,673.69965,0.56512451171875,-0.09075927734375,0.8134765625,4.90478515625,-3.386993408203125,2.3626708984375,1.0,1.0,1.0,1.0,1.0,20.0,
2023-09-08 00:20:12.577,0.4705868,0.18986823,0.5758703,0.47944254,0.2246898,0.40474477,0.2876389,0.36329392,0.67622375,0.11872334,0.3834847,0.71816367,0.49190494,0.9689613,-0.15171285,0.45772955,0.043567434,0.30258837,-0.37138635,0.08900137,795.38464,779.67035,795.38464,793.7729,715.2015,0.56512451171875,-0.09075927734375,0.8134765625,4.90478515625,-3.386993408203125,2.3626708984375,1.0,1.0,1.0,1.0,1.0,20.0,
2023-09-08 00:20:12.589,0.4705868,0.18986823,0.5758703,0.47944254,0.2246898,0.40474477,0.2876389,0.36329392,0.67622375,0.11872334,0.3834847,0.71816367,0.49190494,0.9689613,-0.15171285,0.45772955,0.043567434,0.30258837,-0.37138635,0.08900137,786.52014,828.8278,803.44324,785.31134,718.022,0.49591064453125,-0.09063720703125,0.82720947265625,6.332855224609375,0.231781005859375,-1.099090576171875,1.0,1.0,1.0,1.0,1.0,20.0,
2023-09-08 00:20:12.632,0.4705868,0.18986823,0.5758703,0.47944254,0.2246898,0.40474477,0.2876389,0.36329392,0.67622375,0.11872334,0.3834847,0.71816367,0.49190494,0.9689613,-0.15171285,0.45772955,0.043567434,0.30258837,-0.37138635,0.08900137,803.44324,804.65204,801.02563,793.36993,649.5238,0.54425048828125,-0.10113525390625,0.82073974609375,4.433746337890625,-4.762725830078125,-5.316009521484375,1.0,1.0,1.0,1.0,1.0,20.0,
2023-09-08 00:20:12.638,0.38613784,0.124138944,0.6160248,0.43212295,0.21746932,0.42010137,0.31014863,0.33376893,0.67622375,0.03972414,0.38687074,0.71816367,0.48322186,0.96774715,-0.11960894,0.45859367,0.058652956,0.28605112,-0.32812005,0.10211167,804.2491,803.44324,801.4286,794.9817,768.3883,0.54425048828125,-0.10113525390625,0.82073974609375,4.433746337890625,-4.762725830078125,-5.316009521484375,1.0,1.0,1.0,1.0,1.0,20.0,
2023-09-08 00:20:12.675,0.38613784,0.124138944,0.6160248,0.43212295,0.21746932,0.42010137,0.31014863,0.33376893,0.67622375,0.03972414,0.38687074,0.71816367,0.48322186,0.96774715,-0.11960894,0.45859367,0.058652956,0.28605112,-0.32812005,0.10211167,790.54944,794.57874,787.72894,773.22345,708.7546,0.58306884765625,-0.09893798828125,0.82080078125,3.7384033203125,-6.519775390625,1.15142822265625,1.0,1.0,1.0,1.0,1.0,20.0,
2023-09-08 00:20:12.720,0.29578862,0.124138944,0.6581672,0.37130615,0.21369372,0.42010137,0.3144879,0.29795232,0.67998254,0.03972414,0.38687074,0.71816367,0.47625652,0.96774715,-0.087768674,0.46123856,0.07609366,0.28605112,-0.2852449,0.10524164,786.1172,785.7143,803.44324,806.6667,1090.3297,0.58306884765625,-0.09893798828125,0.82080078125,3.7384033203125,-6.519775390625,1.15142822265625,1.0,1.0,1.0,1.0,1.0,20.0,
2023-09-08 00:20:12.749,0.29578862,0.124138944,0.6581672,0.37130615,0.21369372,0.42010137,0.3144879,0.29795232,0.67998254,0.03972414,0.38687074,0.71816367,0.47625652,0.96774715,-0.087768674,0.46123856,0.07609366,0.28605112,-0.2852449,0.10524164,786.1172,788.5348,799.41394,776.04395,680.14655,0.55364990234375,-0.10174560546875,0.81597900390625,4.5458984375,-4.329071044921875,4.179534912109375,1.0,1.0,1.0,1.0,1.0,20.0,
2023-09-08 00:20:12.785,0.29578862,0.124138944,0.6581672,0.37130615,0.21369372,0.42010137,0.3144879,0.29795232,0.67998254,0.03972414,0.38687074,0.71816367,0.47625652,0.96774715,-0.087768674,0.46123856,0.07609366,0.28605112,-0.2852449,0.10524164,786.52014,749.85345,798.60803,800.6227,1097.5824,0.49017333984375,-0.100341796875,0.81280517578125,7.603912353515625,0.35888671875,-3.297271728515625,1.0,1.0,1.0,1.0,1.0,20.0,
2023-09-08 00:20:12.791,0.2392569,0.124138944,0.6822015,0.37634447,0.21493694,0.42010137,0.30175832,0.28276983,0.7059989,0.03972414,0.38687074,0.71816367,0.46860257,0.96774715,-0.057029124,0.46954137,0.08713167,0.28605112,-0.2532644,0.09794911,800.2198,797.3993,807.0696,812.71063,779.2674,0.49017333984375,-0.100341796875,0.81280517578125,7.603912353515625,0.35888671875,-3.297271728515625,1.0,1.0,1.0,1.0,1.0,20.0,
2023-09-08 00:20:12.852,0.2392569,0.124138944,0.6822015,0.37634447,0.21493694,0.42010137,0.30175832,0.28276983,0.7059989,0.03972414,0.38687074,0.71816367,0.46860257,0.96774715,-0.057029124,0.46954137,0.08713167,0.28605112,-0.2532644,0.09794911,800.2198,808.68134,804.65204,817.5458,753.8828,0.5589599609375,-0.08319091796875,0.8316650390625,7.020721435546875,-5.839385986328125,-5.93658447265625,1.0,1.0,1.0,1.0,1.0,20.0,
2023-09-08 00:20:12.909,0.2392569,0.124138944,0.6822015,0.37634447,0.21493694,0.42010137,0.30175832,0.28276983,0.7059989,0.03972414,0.38687074,0.71816367,0.46860257,0.96774715,-0.057029124,0.46954137,0.08713167,0.28605112,-0.2532644,0.09794911,803.8461,808.68134,798.60803,787.72894,733.73627,0.58349609375,-0.078369140625,0.831787109375,3.887939453125,-6.9384765625,1.854248046875,1.0,1.0,1.0,1.0,1.0,20.0,
2023-09-08 00:20:12.984,0.2392569,0.124138944,0.6822015,0.37634447,0.21493694,0.42010137,0.30175832,0.28276983,0.7059989,0.03972414,0.38687074,0.71816367,0.46860257,0.96774715,-0.057029124,0.46954137,0.08713167,0.28605112,-0.2532644,0.09794911,799.011,813.5165,794.57874,790.14655,667.6557,0.53338623046875,-0.10052490234375,0.80792236328125,4.299163818359375,-2.489776611328125,0.43365478515625,1.0,1.0,1.0,1.0,1.0,20.0,
2023-09-08 00:20:12.985,0.23316316,0.16621937,0.68575394,0.3557546,0.22007301,0.35221326,0.27628958,0.2645579,0.723971,0.30140877,0.38687074,0.652421,0.45871392,0.9910522,-0.025858482,0.4789188,0.088840395,0.3005473,-0.2353646,0.09236898,791.75824,787.326,793.36993,803.44324,766.77655,0.53338623046875,-0.10052490234375,0.80792236328125,4.299163818359375,-2.489776611328125,0.43365478515625,1.0,1.0,1.0,1.0,1.0,20.0,
2023-09-08 00:20:13.051,0.23316316,0.16621937,0.68575394,0.3557546,0.22007301,0.35221326,0.27628958,0.2645579,0.723971,0.30140877,0.38687074,0.652421,0.45871392,0.9910522,-0.025858482,0.4789188,0.088840395,0.3005473,-0.2353646,0.09236898,795.78754,806.6667,789.34064,783.69965,649.5238,0.59857177734375,-0.084228515625,0.82659912109375,6.377716064453125,-4.717864990234375,-2.67669677734375,1.0,1.0,1.0,1.0,1.0,20.0,
2023-09-08 00:20:13.053,0.24956872,0.17358512,0.6733281,0.3496965,0.23102109,0.31202546,0.2429963,0.25806993,0.70763147,0.34564835,0.38687074,0.6346583,0.44931427,0.9949642,0.006684678,0.49113837,0.087336116,0.33717784,-0.22925399,0.09367763,793.36993,815.12823,793.7729,799.41394,688.20514,0.59857177734375,-0.084228515625,0.82659912109375,6.377716064453125,-4.717864990234375,-2.67669677734375,1.0,1.0,1.0,1.0,1.0,20.0,
2023-09-08 00:20:13.091,0.24956872,0.17358512,0.6733281,0.3496965,0.23102109,0.31202546,0.2429963,0.25806993,0.70763147,0.34564835,0.38687074,0.6346583,0.44931427,0.9949642,0.006684678,0.49113837,0.087336116,0.33717784,-0.22925399,0.09367763,805.05493,809.0842,805.05493,815.5311,664.83514,0.5716552734375,-0.08099365234375,0.8154296875,3.416900634765625,-2.160797119140625,1.39068603515625,1.0,1.0,1.0,1.0,1.0,20.0,
2023-09-08 00:20:13.127,0.24956872,0.17358512,0.6733281,0.3496965,0.23102109,0.31202546,0.2429963,0.25806993,0.70763147,0.34564835,0.38687074,0.6346583,0.44931427,0.9949642,0.006684678,0.49113837,0.087336116,0.33717784,-0.22925399,0.09367763,794.9817,805.05493,795.38464,797.3993,769.19415,0.54339599609375,-0.09417724609375,0.8031005859375,3.895416259765625,-1.54022216796875,-1.233673095703125,1.0,1.0,1.0,1.0,1.0,20.0,
2023-09-08 00:20:13.130,0.26265314,0.18571512,0.6522177,0.34721544,0.25433224,0.29686782,0.21169347,0.2614217,0.688338,0.38207057,0.38687074,0.6471602,0.4458362,0.9850644,0.037567906,0.50377786,0.08994812,0.3940087,-0.22969703,0.096282825,801.02563,800.6227,791.75824,803.0403,815.5311,0.54339599609375,-0.09417724609375,0.8031005859375,3.895416259765625,-1.54022216796875,-1.233673095703125,1.0,1.0,1.0,1.0,1.0,20.0,
2023-09-08 00:20:13.169,0.26265314,0.18571512,0.6522177,0.34721544,0.25433224,0.29686782,0.21169347,0.2614217,0.688338,0.38207057,0.38687074,0.6471602,0.4458362,0.9850644,0.037567906,0.50377786,0.08994812,0.3940087,-0.22969703,0.096282825,792.1612,792.1612,789.34064,788.93774,761.13556,0.540771484375,-0.08331298828125,0.82391357421875,4.20196533203125,-2.61688232421875,-4.02252197265625,1.0,1.0,1.0,1.0,1.0,20.0,
2023-09-08 00:20:13.258,0.27423528,0.19768105,0.63780385,0.3510382,0.29117543,0.30206966,0.20193325,0.27514824,0.6499661,0.3915284,0.3767477,0.65287054,0.44926617,0.97098005,0.06114197,0.5123519,0.099134184,0.45109972,-0.23034315,0.09100308,795.78754,768.3883,799.011,805.4579,1202.3444,0.540771484375,-0.08331298828125,0.82391357421875,4.20196533203125,-2.61688232421875,-4.02252197265625,1.0,1.0,1.0,1.0,1.0,20.0,
2023-09-08 00:20:13.308,0.27423528,0.19768105,0.63780385,0.3510382,0.29117543,0.30206966,0.20193325,0.27514824,0.6499661,0.3915284,0.3767477,0.65287054,0.44926617,0.97098005,0.06114197,0.5123519,0.099134184,0.45109972,-0.23034315,0.09100308,784.5055,806.26373,790.54944,801.8315,652.74725,0.5650634765625,-0.09295654296875,0.82000732421875,3.46923828125,-4.358978271484375,-1.712188720703125,1.0,1.0,1.0,1.0,1.0,20.0,
2023-09-08 00:20:13.356,0.27423528,0.19768105,0.63780385,0.3510382,0.29117543,0.30206966,0.20193325,0.27514824,0.6499661,0.3915284,0.3767477,0.65287054,0.44926617,0.97098005,0.06114197,0.5123519,0.099134184,0.45109972,-0.23034315,0.09100308,799.41394,809.89014,793.36993,776.4469,718.4249,0.556640625,-0.09759521484375,0.8175048828125,4.388885498046875,-3.506622314453125,-0.0299072265625,1.0,1.0,1.0,1.0,1.0,20.0,
2023-09-08 00:20:13.364,0.2788391,0.21631414,0.6346671,0.3591749,0.32957813,0.31818062,0.23079188,0.2967722,0.6166654,0.40482038,0.37216672,0.66277117,0.45190954,0.9614174,0.07340544,0.5141505,0.11205721,0.48943117,-0.2262461,0.076198,792.5641,779.67035,796.99634,796.99634,838.0952,0.556640625,-0.09759521484375,0.8175048828125,4.388885498046875,-3.506622314453125,-0.0299072265625,1.0,1.0,1.0,1.0,1.0,20.0,
2023-09-08 00:20:13.409,0.2788391,0.21631414,0.6346671,0.3591749,0.32957813,0.31818062,0.23079188,0.2967722,0.6166654,0.40482038,0.37216672,0.66277117,0.45190954,0.9614174,0.07340544,0.5141505,0.11205721,0.48943117,-0.2262461,0.076198,792.5641,816.337,804.65204,796.5934,634.21246,0.55621337890625,-0.093505859375,0.814453125,4.762725830078125,-3.36456298828125,-0.515899658203125,1.0,1.0,1.0,1.0,1.0,20.0,
2023-09-08 00:20:13.419,0.2788391,0.21631414,0.6346671,0.3591749,0.32957813,0.31818062,0.23079188,0.2967722,0.6166654,0.40482038,0.37216672,0.66277117,0.45190954,0.9614174,0.07340544,0.5141505,0.11205721,0.48943117,-0.2262461,0.076198,807.47253,815.9341,799.81683,792.96704,720.4396,0.560791015625,-0.088134765625,0.81005859375,5.30853271484375,-3.3197021484375,-0.471038818359375,1.0,1.0,1.0,1.0,1.0,20.0,
2023-09-08 00:20:13.428,0.27124172,0.240165,0.6384242,0.37661344,0.35386676,0.33031243,0.29033408,0.31905267,0.59328943,0.4229035,0.3674123,0.6825385,0.44497398,0.9602724,0.075884864,0.5119152,0.12557244,0.5039744,-0.21516569,0.05867205,794.9817,814.3223,797.8022,780.4762,687.8022,0.560791015625,-0.088134765625,0.81005859375,5.30853271484375,-3.3197021484375,-0.471038818359375,1.0,1.0,1.0,1.0,1.0,20.0,
2023-09-08 00:20:13.483,0.27124172,0.240165,0.6384242,0.37661344,0.35386676,0.33031243,0.29033408,0.31905267,0.59328943,0.4229035,0.3674123,0.6825385,0.44497398,0.9602724,0.075884864,0.5119152,0.12557244,0.5039744,-0.21516569,0.05867205,804.65204,788.93774,795.38464,776.4469,717.619,0.55975341796875,-0.087646484375,0.8143310546875,5.66741943359375,-3.327178955078125,-1.338348388671875,1.0,1.0,1.0,1.0,1.0,20.0,
2023-09-08 00:20:13.568,0.27124172,0.240165,0.6384242,0.37661344,0.35386676,0.33031243,0.29033408,0.31905267,0.59328943,0.4229035,0.3674123,0.6825385,0.44497398,0.9602724,0.075884864,0.5119152,0.12557244,0.5039744,-0.21516569,0.05867205,805.4579,803.44324,800.2198,792.5641,782.8938,0.56890869140625,-0.0880126953125,0.81707763671875,4.2767333984375,-4.000091552734375,-1.8243408203125,1.0,1.0,1.0,1.0,1.0,20.0,
2023-09-08 00:20:13.569,0.25733885,0.27357277,0.6422073,0.4083496,0.35654837,0.32985234,0.35393116,0.33571833,0.53490585,0.4197079,0.3988279,0.6952357,0.428124,0.9668812,0.075437255,0.5102203,0.13718632,0.5073267,-0.19500779,0.051717587,812.71063,808.2784,794.57874,777.25275,680.54944,0.56890869140625,-0.0880126953125,0.81707763671875,4.2767333984375,-4.000091552734375,-1.8243408203125,1.0,1.0,1.0,1.0,1.0,20.0,
2023-09-08 00:20:13.603,0.25733885,0.27357277,0.6422073,0.4083496,0.35654837,0.32985234,0.35393116,0.33571833,0.53490585,0.4197079,0.3988279,0.6952357,0.428124,0.9668812,0.075437255,0.5102203,0.13718632,0.5073267,-0.19500779,0.051717587,806.26373,799.81683,795.78754,799.41394,995.2381,0.56719970703125,-0.09356689453125,0.8125,4.044952392578125,-2.7215576171875,-1.57012939453125,1.0,1.0,1.0,1.0,1.0,20.0,
2023-09-08 00:20:13.659,0.25733885,0.27357277,0.6422073,0.4083496,0.35654837,0.32985234,0.35393116,0.33571833,0.53490585,0.4197079,0.3988279,0.6952357,0.428124,0.9668812,0.075437255,0.5102203,0.13718632,0.5073267,-0.19500779,0.051717587,795.38464,823.1868,794.17584,811.0989,748.6447,0.5740966796875,-0.08709716796875,0.8092041015625,4.91973876953125,-2.325286865234375,-1.00189208984375,1.0,1.0,1.0,1.0,1.0,20.0,
2023-09-08 00:20:13.662,0.24221027,0.30793372,0.6430074,0.43790144,0.3402545,0.3025766,0.39979637,0.34563524,0.488634,0.43248132,0.40315607,0.6953667,0.40980357,0.97290504,0.07843519,0.51022494,0.1441099,0.5240141,-0.16669096,0.06611655,799.011,803.0403,796.5934,786.1172,689.011,0.5740966796875,-0.08709716796875,0.8092041015625,4.91973876953125,-2.325286865234375,-1.00189208984375,1.0,1.0,1.0,1.0,1.0,20.0,
2023-09-08 00:20:13.725,0.24221027,0.30793372,0.6430074,0.43790144,0.3402545,0.3025766,0.39979637,0.34563524,0.488634,0.43248132,0.40315607,0.6953667,0.40980357,0.97290504,0.07843519,0.51022494,0.1441099,0.5240141,-0.16669096,0.06611655,794.9817,802.23444,799.81683,798.60803,666.8498,0.57183837890625,-0.08599853515625,0.8175048828125,4.9346923828125,-2.160797119140625,-0.46356201171875,1.0,1.0,1.0,1.0,1.0,20.0,
2023-09-08 00:20:13.779,0.23147161,0.33817056,0.6428076,0.4577467,0.31538087,0.2712161,0.42173982,0.3503789,0.5018722,0.4351413,0.33531293,0.69951177,0.40070686,0.9806393,0.08548212,0.5099263,0.1452454,0.5496163,-0.13687958,0.0994728,821.5751,773.22345,797.8022,800.6227,957.3626,0.57183837890625,-0.08599853515625,0.8175048828125,4.9346923828125,-2.160797119140625,-0.46356201171875,1.0,1.0,1.0,1.0,1.0,20.0,
2023-09-08 00:20:13.815,0.23147161,0.33817056,0.6428076,0.4577467,0.31538087,0.2712161,0.42173982,0.3503789,0.5018722,0.4351413,0.33531293,0.69951177,0.40070686,0.9806393,0.08548212,0.5099263,0.1452454,0.5496163,-0.13687958,0.0994728,805.8608,809.89014,803.8461,817.9487,665.2381,0.56103515625,-0.0787353515625,0.8082275390625,5.106658935546875,-0.9869384765625,1.39068603515625,1.0,1.0,1.0,1.0,1.0,20.0,
2023-09-08 00:20:13.857,0.23147161,0.33817056,0.6428076,0.4577467,0.31538087,0.2712161,0.42173982,0.3503789,0.5018722,0.4351413,0.33531293,0.69951177,0.40070686,0.9806393,0.08548212,0.5099263,0.1452454,0.5496163,-0.13687958,0.0994728,804.65204,796.99634,793.7729,792.96704,743.8095,0.52197265625,-0.08038330078125,0.82061767578125,4.964599609375,-0.897216796875,-1.143951416015625,1.0,1.0,1.0,1.0,1.0,20.0,
2023-09-08 00:20:13.861,0.22550724,0.36131427,0.6380784,0.46699625,0.2956754,0.26518163,0.42104104,0.35220245,0.53150994,0.43269834,0.2916726,0.701799,0.40504235,0.9937498,0.092883505,0.5095474,0.14163823,0.5715551,-0.11491267,0.13687792,812.3077,803.8461,795.78754,788.5348,736.9597,0.52197265625,-0.08038330078125,0.82061767578125,4.964599609375,-0.897216796875,-1.143951416015625,1.0,1.0,1.0,1.0,1.0,20.0,
2023-09-08 00:20:13.869,0.22550724,0.36131427,0.6380784,0.46699625,0.2956754,0.26518163,0.42104104,0.35220245,0.53150994,0.43269834,0.2916726,0.701799,0.40504235,0.9937498,0.092883505,0.5095474,0.14163823,0.5715551,-0.11491267,0.13687792,801.4286,774.43225,792.1612,794.9817,867.1062,0.56744384765625,-0.090576171875,0.816162109375,3.147735595703125,-4.822540283203125,-3.701019287109375,1.0,1.0,1.0,1.0,1.0,20.0,
2023-09-08 00:20:13.955,0.22550724,0.36131427,0.6380784,0.46699625,0.2956754,0.26518163,0.42104104,0.35220245,0.53150994,0.43269834,0.2916726,0.701799,0.40504235,0.9937498,0.092883505,0.5095474,0.14163823,0.5715551,-0.11491267,0.13687792,799.011,765.56775,791.75824,801.8315,1128.2051,0.59088134765625,-0.101806640625,0.81500244140625,3.117828369140625,-5.62255859375,0.964508056640625,1.0,1.0,1.0,1.0,1.0,20.0,
2023-09-08 00:20:13.962,0.22697137,0.3707394,0.62024117,0.46626276,0.29545024,0.28460413,0.40238738,0.35474786,0.5471528,0.43972722,0.28372115,0.707919,0.41732338,1.0040444,0.096685745,0.5109003,0.13495384,0.56297463,-0.106754914,0.16214213,790.54944,831.6484,790.54944,797.8022,879.59705,0.59088134765625,-0.101806640625,0.81500244140625,3.117828369140625,-5.62255859375,0.964508056640625,1.0,1.0,1.0,1.0,1.0,20.0,
2023-09-08 00:20:13.968,0.22697137,0.3707394,0.62024117,0.46626276,0.29545024,0.28460413,0.40238738,0.35474786,0.5471528,0.43972722,0.28372115,0.707919,0.41732338,1.0040444,0.096685745,0.5109003,0.13495384,0.56297463,-0.106754914,0.16214213,784.5055,799.41394,792.5641,780.87915,693.0403,0.5654296875,-0.09295654296875,0.81591796875,5.226287841796875,-2.1533203125,2.534637451171875,1.0,1.0,1.0,1.0,1.0,20.0,
2023-09-08 00:20:14.065,0.2492444,0.37204045,0.5762648,0.46218973,0.31873286,0.3037189,0.37332767,0.36374447,0.5474418,0.44750205,0.27954674,0.7100831,0.4289533,1.0119073,0.09486615,0.5139823,0.12676495,0.5527923,-0.111695975,0.16885069,798.60803,813.5165,801.8315,813.1135,740.989,0.5654296875,-0.09295654296875,0.81591796875,5.226287841796875,-2.1533203125,2.534637451171875,1.0,1.0,1.0,1.0,1.0,20.0,
2023-09-08 00:20:14.102,0.2492444,0.37204045,0.5762648,0.46218973,0.31873286,0.3037189,0.37332767,0.36374447,0.5474418,0.44750205,0.27954674,0.7100831,0.4289533,1.0119073,0.09486615,0.5139823,0.12676495,0.5527923,-0.111695975,0.16885069,799.011,806.6667,801.8315,814.3223,745.0183,0.51776123046875,-0.0863037109375,0.81292724609375,5.644989013671875,0.478515625,-2.220611572265625,1.0,1.0,1.0,1.0,1.0,20.0,
2023-09-08 00:20:14.145,0.2492444,0.37204045,0.5762648,0.46218973,0.31873286,0.3037189,0.37332767,0.36374447,0.5474418,0.44750205,0.27954674,0.7100831,0.4289533,1.0119073,0.09486615,0.5139823,0.12676495,0.5527923,-0.111695975,0.16885069,791.3553,808.68134,796.5934,783.2967,701.9048,0.55511474609375,-0.0772705078125,0.82373046875,5.443115234375,-3.63372802734375,-4.5458984375,1.0,1.0,1.0,1.0,1.0,20.0,
2023-09-08 00:20:14.194,0.2492444,0.37204045,0.5762648,0.46218973,0.31873286,0.3037189,0.37332767,0.36374447,0.5474418,0.44750205,0.27954674,0.7100831,0.4289533,1.0119073,0.09486615,0.5139823,0.12676495,0.5527923,-0.111695975,0.16885069,794.9817,811.0989,809.89014,772.8205,654.7619,0.57476806640625,-0.088134765625,0.80279541015625,3.87298583984375,-4.11224365234375,-0.0299072265625,1.0,1.0,1.0,1.0,1.0,20.0,
2023-09-08 00:20:14.195,0.29909313,0.36540452,0.49751562,0.4667887,0.35415924,0.31421676,0.34473568,0.38105562,0.54630876,0.44953492,0.27562597,0.7100831,0.4361761,1.0141244,0.08758714,0.51700443,0.119508356,0.5455676,-0.12563004,0.16380341,786.9231,785.31134,805.05493,790.9524,771.2088,0.57476806640625,-0.088134765625,0.80279541015625,3.87298583984375,-4.11224365234375,-0.0299072265625,1.0,1.0,1.0,1.0,1.0,20.0,
2023-09-08 00:20:14.255,0.29909313,0.36540452,0.49751562,0.4667887,0.35415924,0.31421676,0.34473568,0.38105562,0.54630876,0.44953492,0.27562597,0.7100831,0.4361761,1.0141244,0.08758714,0.51700443,0.119508356,0.5455676,-0.12563004,0.16380341,799.011,766.3736,786.1172,800.2198,883.6264,0.5596923828125,-0.0926513671875,0.81195068359375,5.465545654296875,-5.001983642578125,0.351409912109375,1.0,1.0,1.0,1.0,1.0,20.0,
2023-09-08 00:20:14.264,0.29909313,0.36540452,0.49751562,0.4667887,0.35415924,0.31421676,0.34473568,0.38105562,0.54630876,0.44953492,0.27562597,0.7100831,0.4361761,1.0141244,0.08758714,0.51700443,0.119508356,0.5455676,-0.12563004,0.16380341,787.72894,754.2857,793.7729,790.14655,937.619,0.57257080078125,-0.090087890625,0.81622314453125,5.78704833984375,-2.863616943359375,-1.36077880859375,1.0,1.0,1.0,1.0,1.0,20.0,
2023-09-08 00:20:14.266,0.36191726,0.35823232,0.39047846,0.47912294,0.3860605,0.31373402,0.3260594,0.40148458,0.542973,0.45048177,0.27284554,0.7100831,0.44036242,1.0101166,0.07713966,0.51999664,0.11492848,0.54577875,-0.14481929,0.15842535,797.3993,801.4286,796.5934,805.05493,820.3663,0.57257080078125,-0.090087890625,0.81622314453125,5.78704833984375,-2.863616943359375,-1.36077880859375,1.0,1.0,1.0,1.0,1.0,20.0,
2023-09-08 00:20:14.367,0.36191726,0.35823232,0.39047846,0.47912294,0.3860605,0.31373402,0.3260594,0.40148458,0.542973,0.45048177,0.27284554,0.7100831,0.44036242,1.0101166,0.07713966,0.51999664,0.11492848,0.54577875,-0.14481929,0.15842535,793.7729,811.0989,790.9524,804.2491,760.32965,0.5633544921875,-0.08489990234375,0.81329345703125,4.59075927734375,-2.041168212890625,-1.24114990234375,1.0,1.0,1.0,1.0,1.0,20.0,
2023-09-08 00:20:14.371,0.40885144,0.3519545,0.2764551,0.48794195,0.40741667,0.30271345,0.31864944,0.41763824,0.542973,0.45048177,0.27711138,0.7100831,0.4438656,1.0018648,0.06768973,0.52327573,0.113517314,0.55403364,-0.16541366,0.16162238,793.7729,786.9231,794.57874,807.47253,755.09155,0.5633544921875,-0.08489990234375,0.81329345703125,4.59075927734375,-2.041168212890625,-1.24114990234375,1.0,1.0,1.0,1.0,1.0,20.0,
2023-09-08 00:20:14.416,0.40885144,0.3519545,0.2764551,0.48794195,0.40741667,0.30271345,0.31864944,0.41763824,0.542973,0.45048177,0.27711138,0.7100831,0.4438656,1.0018648,0.06768973,0.52327573,0.113517314,0.55403364,-0.16541366,0.16162238,792.5641,815.9341,790.54944,785.31134,707.5458,0.5567626953125,-0.0931396484375,0.8099365234375,3.93280029296875,-2.190704345703125,-1.786956787109375,1.0,1.0,1.0,1.0,1.0,20.0,
2023-09-08 00:20:14.452,0.40885144,0.3519545,0.2764551,0.48794195,0.40741667,0.30271345,0.31864944,0.41763824,0.542973,0.45048177,0.27711138,0.7100831,0.4438656,1.0018648,0.06768973,0.52327573,0.113517314,0.55403364,-0.16541366,0.16162238,785.7143,826.0073,791.3553,777.25275,855.82416,0.56597900390625,-0.08636474609375,0.809326171875,4.62066650390625,-3.0206298828125,-0.5084228515625,1.0,1.0,1.0,1.0,1.0,20.0,
2023-09-08 00:20:14.458,0.42719454,0.34685493,0.1841568,0.48538914,0.41770542,0.30270556,0.31842571,0.4260337,0.52056247,0.45048177,0.289198,0.7078771,0.44575477,0.98630005,0.0608001,0.5234348,0.115439065,0.5784075,-0.18433757,0.17557214,786.1172,806.6667,792.1612,787.72894,863.8828,0.56597900390625,-0.08636474609375,0.809326171875,4.62066650390625,-3.0206298828125,-0.5084228515625,1.0,1.0,1.0,1.0,1.0,20.0,
2023-09-08 00:20:14.499,0.42719454,0.34685493,0.1841568,0.48538914,0.41770542,0.30270556,0.31842571,0.4260337,0.52056247,0.45048177,0.289198,0.7078771,0.44575477,0.98630005,0.0608001,0.5234348,0.115439065,0.5784075,-0.18433757,0.17557214,794.9817,801.4286,789.34064,795.78754,755.4945,0.5535888671875,-0.08428955078125,0.81768798828125,4.732818603515625,-3.4991455078125,-0.3289794921875,1.0,1.0,1.0,1.0,1.0,20.0,
2023-09-08 00:20:14.536,0.4221304,0.34323376,0.12778045,0.47367463,0.4176122,0.29413366,0.32099155,0.42703664,0.48995677,0.45048177,0.31313652,0.6983131,0.441801,0.9761456,0.053276107,0.51426303,0.1211945,0.5987706,-0.20106402,0.19588023,786.9231,788.93774,792.1612,795.78754,883.6264,0.5535888671875,-0.08428955078125,0.81768798828125,4.732818603515625,-3.4991455078125,-0.3289794921875,1.0,1.0,1.0,1.0,1.0,20.0,
2023-09-08 00:20:14.571,0.4221304,0.34323376,0.12778045,0.47367463,0.4176122,0.29413366,0.32099155,0.42703664,0.48995677,0.45048177,0.31313652,0.6983131,0.441801,0.9761456,0.053276107,0.51426303,0.1211945,0.5987706,-0.20106402,0.19588023,791.75824,782.8938,790.14655,794.9817,748.24176,0.56500244140625,-0.07940673828125,0.81353759765625,5.084228515625,-2.31781005859375,-1.6748046875,1.0,1.0,1.0,1.0,1.0,20.0,
2023-09-08 00:20:14.605,0.4221304,0.34323376,0.12778045,0.47367463,0.4176122,0.29413366,0.32099155,0.42703664,0.48995677,0.45048177,0.31313652,0.6983131,0.441801,0.9761456,0.053276107,0.51426303,0.1211945,0.5987706,-0.20106402,0.19588023,796.1905,795.38464,804.2491,815.12823,709.9634,0.56024169921875,-0.0811767578125,0.8148193359375,4.179534912109375,-2.564544677734375,-1.278533935546875,1.0,1.0,1.0,1.0,1.0,20.0,
2023-09-08 00:20:14.611,0.41287124,0.335392,0.09811823,0.45747754,0.4048594,0.27883083,0.3214748,0.42059466,0.4641601,0.45309564,0.34171116,0.6954101,0.42974988,0.97710633,0.04113508,0.49380067,0.12943844,0.6099329,-0.21628268,0.21703887,795.78754,778.46155,799.41394,794.17584,820.7692,0.56024169921875,-0.0811767578125,0.8148193359375,4.179534912109375,-2.564544677734375,-1.278533935546875,1.0,1.0,1.0,1.0,1.0,20.0,
2023-09-08 00:20:14.674,0.41287124,0.335392,0.09811823,0.45747754,0.4048594,0.27883083,0.3214748,0.42059466,0.4641601,0.45309564,0.34171116,0.6954101,0.42974988,0.97710633,0.04113508,0.49380067,0.12943844,0.6099329,-0.21628268,0.21703887,801.4286,792.1612,798.60803,798.60803,826.4103,0.5655517578125,-0.0875244140625,0.809814453125,3.93280029296875,-4.059906005859375,-1.652374267578125,1.0,1.0,1.0,1.0,1.0,20.0,
2023-09-08 00:20:14.707,0.41287124,0.335392,0.09811823,0.45747754,0.4048594,0.27883083,0.3214748,0.42059466,0.4641601,0.45309564,0.34171116,0.6954101,0.42974988,0.97710633,0.04113508,0.49380067,0.12943844,0.6099329,-0.21628268,0.21703887,793.36993,815.12823,800.2198,806.6667,786.52014,0.575439453125,-0.0888671875,0.8079833984375,3.656158447265625,-3.30474853515625,0.10467529296875,1.0,1.0,1.0,1.0,1.0,20.0,
2023-09-08 00:20:14.795,0.41287124,0.335392,0.09811823,0.45747754,0.4048594,0.27883083,0.3214748,0.42059466,0.4641601,0.45309564,0.34171116,0.6954101,0.42974988,0.97710633,0.04113508,0.49380067,0.12943844,0.6099329,-0.21628268,0.21703887,803.0403,805.05493,798.60803,799.41394,747.03296,0.56451416015625,-0.0904541015625,0.806640625,4.85992431640625,-2.3626708984375,-0.231781005859375,1.0,1.0,1.0,1.0,1.0,20.0,
2023-09-08 00:20:14.797,0.4109769,0.32481632,0.071520045,0.44502723,0.37986594,0.25709364,0.31088766,0.40413788,0.45382103,0.43913758,0.37320292,0.6954101,0.4129126,0.98645294,0.025649542,0.46809536,0.13536529,0.6123191,-0.2292444,0.23422454,807.8755,790.54944,797.3993,799.41394,682.5641,0.56451416015625,-0.0904541015625,0.806640625,4.85992431640625,-2.3626708984375,-0.231781005859375,1.0,1.0,1.0,1.0,1.0,20.0,
2023-09-08 00:20:14.889,0.4109769,0.32481632,0.071520045,0.44502723,0.37986594,0.25709364,0.31088766,0.40413788,0.45382103,0.43913758,0.37320292,0.6954101,0.4129126,0.98645294,0.025649542,0.46809536,0.13536529,0.6123191,-0.2292444,0.23422454,815.12823,806.26373,803.44324,809.89014,648.315,0.56982421875,-0.09393310546875,0.80755615234375,5.046844482421875,-2.205657958984375,-0.994415283203125,1.0,1.0,1.0,1.0,1.0,20.0,
2023-09-08 00:20:14.892,0.4210894,0.30713177,0.03066051,0.43930957,0.34888732,0.22837171,0.277085,0.37332565,0.46241277,0.4175601,0.37795106,0.69169945,0.40015495,0.9953871,0.013197413,0.44729516,0.1358513,0.6100014,-0.23735592,0.24569425,798.60803,809.4872,807.0696,795.78754,675.7143,0.56982421875,-0.09393310546875,0.80755615234375,5.046844482421875,-2.205657958984375,-0.994415283203125,1.0,1.0,1.0,1.0,1.0,20.0,
2023-09-08 00:20:14.946,0.4210894,0.30713177,0.03066051,0.43930957,0.34888732,0.22837171,0.277085,0.37332565,0.46241277,0.4175601,0.37795106,0.69169945,0.40015495,0.9953871,0.013197413,0.44729516,0.1358513,0.6100014,-0.23735592,0.24569425,799.81683,809.89014,802.23444,807.0696,727.28937,0.563720703125,-0.08648681640625,0.8067626953125,4.78515625,-2.071075439453125,-0.4486083984375,1.0,1.0,1.0,1.0,1.0,20.0,
2023-09-08 00:20:15.011,0.4210894,0.30713177,0.03066051,0.43930957,0.34888732,0.22837171,0.277085,0.37332565,0.46241277,0.4175601,0.37795106,0.69169945,0.40015495,0.9953871,0.013197413,0.44729516,0.1358513,0.6100014,-0.23735592,0.24569425,811.0989,783.2967,817.5458,805.05493,831.2454,0.54840087890625,-0.0848388671875,0.8155517578125,5.03936767578125,-2.310333251953125,-1.233673095703125,1.0,1.0,1.0,1.0,1.0,20.0,
2023-09-08 00:20:15.017,0.44426095,0.28166902,-0.006872233,0.43912703,0.32226124,0.19696529,0.21286324,0.32895595,0.45160967,0.38145924,0.37795106,0.6778718,0.40000153,0.9973483,0.008909388,0.4364068,0.13191126,0.6068894,-0.2410841,0.2521512,811.9048,797.3993,811.50183,791.3553,710.3663,0.54840087890625,-0.0848388671875,0.8155517578125,5.03936767578125,-2.310333251953125,-1.233673095703125,1.0,1.0,1.0,1.0,1.0,20.0,
2023-09-08 00:20:15.027,0.44426095,0.28166902,-0.006872233,0.43912703,0.32226124,0.19696529,0.21286324,0.32895595,0.45160967,0.38145924,0.37795106,0.6778718,0.40000153,0.9973483,0.008909388,0.4364068,0.13191126,0.6068894,-0.2410841,0.2521512,793.7729,807.8755,807.0696,798.60803,855.42126,0.5601806640625,-0.0889892578125,0.810302734375,5.5328369140625,-2.13836669921875,-3.0804443359375,1.0,1.0,1.0,1.0,1.0,20.0,
2023-09-08 00:20:15.098,0.4683556,0.25189865,-0.027828554,0.43168893,0.30545768,0.17290163,0.124704376,0.2792571,0.44996226,0.3580553,0.37795106,0.6462749,0.4129973,0.9925249,0.012141411,0.43277565,0.12688287,0.6045261,-0.24884798,0.25147566,818.3516,788.5348,808.68134,805.8608,936.0073,0.5601806640625,-0.0889892578125,0.810302734375,5.5328369140625,-2.13836669921875,-3.0804443359375,1.0,1.0,1.0,1.0,1.0,20.0,
2023-09-08 00:20:15.136,0.4683556,0.25189865,-0.027828554,0.43168893,0.30545768,0.17290163,0.124704376,0.2792571,0.44996226,0.3580553,0.37795106,0.6462749,0.4129973,0.9925249,0.012141411,0.43277565,0.12688287,0.6045261,-0.24884798,0.25147566,793.7729,814.7253,791.3553,791.75824,647.1062,0.563720703125,-0.08197021484375,0.8145751953125,5.0244140625,-2.863616943359375,-1.428070068359375,1.0,1.0,1.0,1.0,1.0,20.0,
2023-09-08 00:20:15.180,0.4683556,0.25189865,-0.027828554,0.43168893,0.30545768,0.17290163,0.124704376,0.2792571,0.44996226,0.3580553,0.37795106,0.6462749,0.4129973,0.9925249,0.012141411,0.43277565,0.12688287,0.6045261,-0.24884798,0.25147566,797.3993,815.5311,803.0403,813.5165,675.7143,0.56964111328125,-0.0853271484375,0.81146240234375,4.85992431640625,-4.9346923828125,0.575714111328125,1.0,1.0,1.0,1.0,1.0,20.0,
2023-09-08 00:20:15.186,0.48507857,0.2250771,-0.017108127,0.41956538,0.29710755,0.16249366,0.03660717,0.23524864,0.44996226,0.3540581,0.3818086,0.6317483,0.43140915,0.9850436,0.019195627,0.43134508,0.12312477,0.60308033,-0.2696037,0.23948556,797.8022,809.0842,799.81683,800.6227,642.27106,0.56964111328125,-0.0853271484375,0.81146240234375,4.85992431640625,-4.9346923828125,0.575714111328125,1.0,1.0,1.0,1.0,1.0,20.0,
2023-09-08 00:20:15.240,0.48507857,0.2250771,-0.017108127,0.41956538,0.29710755,0.16249366,0.03660717,0.23524864,0.44996226,0.3540581,0.3818086,0.6317483,0.43140915,0.9850436,0.019195627,0.43134508,0.12312477,0.60308033,-0.2696037,0.23948556,793.7729,818.3516,799.011,808.2784,663.22345,0.5916748046875,-0.0848388671875,0.81146240234375,4.493560791015625,-5.420684814453125,2.9010009765625,1.0,1.0,1.0,1.0,1.0,20.0,
2023-09-08 00:20:15.275,0.48507857,0.2250771,-0.017108127,0.41956538,0.29710755,0.16249366,0.03660717,0.23524864,0.44996226,0.3540581,0.3818086,0.6317483,0.43140915,0.9850436,0.019195627,0.43134508,0.12312477,0.60308033,-0.2696037,0.23948556,794.9817,817.5458,805.4579,776.04395,672.49084,0.55712890625,-0.07476806640625,0.8104248046875,5.914154052734375,-1.4056396484375,0.814971923828125,1.0,1.0,1.0,1.0,1.0,20.0,
2023-09-08 00:20:15.282,0.50025386,0.20671831,0.03468173,0.41285998,0.2939792,0.16065261,-0.02417799,0.2026303,0.45202035,0.37527916,0.36087817,0.60896736,0.44507226,0.9763232,0.027852349,0.42894587,0.121083386,0.60432106,-0.300631,0.21642752,779.67035,809.0842,793.36993,777.6557,690.2198,0.55712890625,-0.07476806640625,0.8104248046875,5.914154052734375,-1.4056396484375,0.814971923828125,1.0,1.0,1.0,1.0,1.0,20.0,
2023-09-08 00:20:15.287,0.50025386,0.20671831,0.03468173,0.41285998,0.2939792,0.16065261,-0.02417799,0.2026303,0.45202035,0.37527916,0.36087817,0.60896736,0.44507226,0.9763232,0.027852349,0.42894587,0.121083386,0.60432106,-0.300631,0.21642752,777.6557,787.72894,794.17584,794.57874,679.7436,0.52935791015625,-0.06927490234375,0.81109619140625,5.203857421875,0.059814453125,-3.342132568359375,1.0,1.0,1.0,1.0,1.0,20.0,
2023-09-08 00:20:15.377,0.50025386,0.20671831,0.03468173,0.41285998,0.2939792,0.16065261,-0.02417799,0.2026303,0.45202035,0.37527916,0.36087817,0.60896736,0.44507226,0.9763232,0.027852349,0.42894587,0.121083386,0.60432106,-0.300631,0.21642752,806.6667,799.011,811.50183,800.2198,686.99634,0.52886962890625,-0.0875244140625,0.808837890625,3.671112060546875,-3.050537109375,-4.964599609375,1.0,1.0,1.0,1.0,1.0,20.0,
2023-09-08 00:20:15.378,0.51905483,0.20492351,0.10921007,0.4175707,0.29359505,0.15340856,-0.051427636,0.17924927,0.45514274,0.42986745,0.35078683,0.5871265,0.44796485,0.96320504,0.038460396,0.42361885,0.11935483,0.612519,-0.32671285,0.1904012,799.81683,807.47253,811.50183,814.7253,695.05493,0.52886962890625,-0.0875244140625,0.808837890625,3.671112060546875,-3.050537109375,-4.964599609375,1.0,1.0,1.0,1.0,1.0,20.0,
2023-09-08 00:20:15.434,0.51905483,0.20492351,0.10921007,0.4175707,0.29359505,0.15340856,-0.051427636,0.17924927,0.45514274,0.42986745,0.35078683,0.5871265,0.44796485,0.96320504,0.038460396,0.42361885,0.11935483,0.612519,-0.32671285,0.1904012,794.9817,799.41394,797.8022,785.31134,767.98535,0.61468505859375,-0.09423828125,0.81024169921875,2.452392578125,-9.0618896484375,-1.03179931640625,1.0,1.0,1.0,1.0,1.0,20.0,
2023-09-08 00:20:15.505,0.51905483,0.20492351,0.10921007,0.4175707,0.29359505,0.15340856,-0.051427636,0.17924927,0.45514274,0.42986745,0.35078683,0.5871265,0.44796485,0.96320504,0.038460396,0.42361885,0.11935483,0.612519,-0.32671285,0.1904012,797.3993,806.26373,792.5641,785.7143,783.69965,0.611572265625,-0.0887451171875,0.8056640625,4.149627685546875,-6.078643798828125,7.61138916015625,1.0,1.0,1.0,1.0,1.0,20.0,
2023-09-08 00:20:15.508,0.5460531,0.23082554,0.1828103,0.42465276,0.29236466,0.130531,-0.05571788,0.17641939,0.43933338,0.46020782,0.35078683,0.56115985,0.44167483,0.94364417,0.05048223,0.42797774,0.11593071,0.6273102,-0.33386475,0.16701086,794.57874,782.49084,789.34064,793.7729,787.72894,0.611572265625,-0.0887451171875,0.8056640625,4.149627685546875,-6.078643798828125,7.61138916015625,1.0,1.0,1.0,1.0,1.0,20.0,
2023-09-08 00:20:15.557,0.5460531,0.23082554,0.1828103,0.42465276,0.29236466,0.130531,-0.05571788,0.17641939,0.43933338,0.46020782,0.35078683,0.56115985,0.44167483,0.94364417,0.05048223,0.42797774,0.11593071,0.6273102,-0.33386475,0.16701086,777.6557,790.54944,787.72894,780.07324,681.3553,0.51885986328125,-0.0882568359375,0.80120849609375,6.71417236328125,-0.179443359375,0.605621337890625,1.0,1.0,1.0,1.0,1.0,20.0,
2023-09-08 00:20:15.605,0.57485104,0.2172838,0.24876362,0.42553583,0.29381865,0.09175737,-0.040451538,0.16968812,0.41421327,0.46020782,0.35078683,0.50618386,0.43346673,0.9310178,0.06111273,0.43097082,0.10798628,0.6388648,-0.3255265,0.15616514,799.81683,783.69965,792.96704,799.41394,768.7912,0.51885986328125,-0.0882568359375,0.80120849609375,6.71417236328125,-0.179443359375,0.605621337890625,1.0,1.0,1.0,1.0,1.0,20.0,
2023-09-08 00:20:15.648,0.57485104,0.2172838,0.24876362,0.42553583,0.29381865,0.09175737,-0.040451538,0.16968812,0.41421327,0.46020782,0.35078683,0.50618386,0.43346673,0.9310178,0.06111273,0.43097082,0.10798628,0.6388648,-0.3255265,0.15616514,803.0403,790.9524,799.81683,792.5641,678.1319,0.556396484375,-0.08203125,0.81329345703125,6.317901611328125,-1.592559814453125,-9.49554443359375,1.0,1.0,1.0,1.0,1.0,20.0,
2023-09-08 00:20:15.680,0.57485104,0.2172838,0.24876362,0.42553583,0.29381865,0.09175737,-0.040451538,0.16968812,0.41421327,0.46020782,0.35078683,0.50618386,0.43346673,0.9310178,0.06111273,0.43097082,0.10798628,0.6388648,-0.3255265,0.15616514,803.44324,800.2198,801.8315,791.3553,624.1392,0.61090087890625,-0.07464599609375,0.81915283203125,2.88604736328125,-6.2506103515625,0.934600830078125,1.0,1.0,1.0,1.0,1.0,20.0,
2023-09-08 00:20:15.686,0.59010416,0.21235923,0.30209595,0.41544753,0.30774727,0.051630106,-0.0013737293,0.1519141,0.43495268,0.46020782,0.35078683,0.50361276,0.43169573,0.92139477,0.06758864,0.43131042,0.09660122,0.6505881,-0.31492877,0.15976074,807.0696,812.71063,815.12823,815.12823,818.3516,0.61090087890625,-0.07464599609375,0.81915283203125,2.88604736328125,-6.2506103515625,0.934600830078125,1.0,1.0,1.0,1.0,1.0,20.0,
2023-09-08 00:20:15.746,0.59010416,0.21235923,0.30209595,0.41544753,0.30774727,0.051630106,-0.0013737293,0.1519141,0.43495268,0.46020782,0.35078683,0.50361276,0.43169573,0.92139477,0.06758864,0.43131042,0.09660122,0.6505881,-0.31492877,0.15976074,799.41394,797.8022,799.81683,810.696,745.0183,0.5693359375,-0.103759765625,0.79046630859375,2.609405517578125,-3.611297607421875,2.400054931640625,1.0,1.0,1.0,1.0,1.0,20.0,
2023-09-08 00:20:15.778,0.59010416,0.21235923,0.30209595,0.41544753,0.30774727,0.051630106,-0.0013737293,0.1519141,0.43495268,0.46020782,0.35078683,0.50361276,0.43169573,0.92139477,0.06758864,0.43131042,0.09660122,0.6505881,-0.31492877,0.15976074,800.2198,803.44324,802.23444,790.9524,796.5934,0.56878662109375,-0.08935546875,0.8072509765625,5.78704833984375,-2.609405517578125,-1.18133544921875,1.0,1.0,1.0,1.0,1.0,20.0,
2023-09-08 00:20:15.787,0.5914983,0.20886016,0.36012155,0.39544687,0.33416262,0.021585448,0.05209607,0.121567436,0.460955,0.46020782,0.35078683,0.50361276,0.44001132,0.91853297,0.07052555,0.42262703,0.090432845,0.6581031,-0.3086739,0.17243256,792.96704,817.1429,801.4286,811.9048,899.34064,0.56878662109375,-0.08935546875,0.8072509765625,5.78704833984375,-2.609405517578125,-1.18133544921875,1.0,1.0,1.0,1.0,1.0,20.0,
2023-09-08 00:20:15.827,0.5914983,0.20886016,0.36012155,0.39544687,0.33416262,0.021585448,0.05209607,0.121567436,0.460955,0.46020782,0.35078683,0.50361276,0.44001132,0.91853297,0.07052555,0.42262703,0.090432845,0.6581031,-0.3086739,0.17243256,778.86444,789.34064,798.20514,794.17584,701.50183,0.57281494140625,-0.0814208984375,0.812255859375,5.7122802734375,-2.295379638671875,-0.7476806640625,1.0,1.0,1.0,1.0,1.0,20.0,
2023-09-08 00:20:15.842,0.59219146,0.25188383,0.43033233,0.47424892,0.35727128,0.044854503,0.10006572,0.28356203,0.46690297,0.46178326,0.35795593,0.50580174,0.45579514,0.92771834,0.07188114,0.38452202,0.09799416,0.65566874,-0.30459675,0.18192726,796.99634,799.011,795.78754,797.8022,754.68866,0.57281494140625,-0.0814208984375,0.812255859375,5.7122802734375,-2.295379638671875,-0.7476806640625,1.0,1.0,1.0,1.0,1.0,20.0,
2023-09-08 00:20:15.907,0.59219146,0.25188383,0.43033233,0.47424892,0.35727128,0.044854503,0.10006572,0.28356203,0.46690297,0.46178326,0.35795593,0.50580174,0.45579514,0.92771834,0.07188114,0.38452202,0.09799416,0.65566874,-0.30459675,0.18192726,793.7729,805.4579,794.57874,784.90845,667.25275,0.56402587890625,-0.07818603515625,0.8045654296875,4.059906005859375,-2.27294921875,-1.308441162109375,1.0,1.0,1.0,1.0,1.0,20.0,
2023-09-08 00:20:15.939,0.59219146,0.25188383,0.43033233,0.47424892,0.35727128,0.044854503,0.10006572,0.28356203,0.46690297,0.46178326,0.35795593,0.50580174,0.45579514,0.92771834,0.07188114,0.38452202,0.09799416,0.65566874,-0.30459675,0.18192726,802.6374,827.2161,797.8022,786.1172,657.5824,0.55743408203125,-0.089111328125,0.8052978515625,3.566436767578125,-3.0206298828125,-1.861724853515625,1.0,1.0,1.0,1.0,1.0,20.0,
2023-09-08 00:20:15.986,0.59219146,0.25188383,0.43033233,0.47424892,0.35727128,0.044854503,0.10006572,0.28356203,0.46690297,0.46178326,0.35795593,0.50580174,0.45579514,0.92771834,0.07188114,0.38452202,0.09799416,0.65566874,-0.30459675,0.18192726,787.326,804.65204,800.6227,792.5641,669.67035,0.5677490234375,-0.09442138671875,0.7998046875,4.179534912109375,-4.66552734375,-0.35888671875,1.0,1.0,1.0,1.0,1.0,20.0,
2023-09-08 00:20:15.987,0.6031539,0.2878949,0.49829996,0.54296714,0.36420384,0.10143489,0.12781757,0.3633546,0.45728934,0.47861508,0.3593926,0.54216975,0.47397575,0.94089556,0.07330553,0.336742,0.11868318,0.6522458,-0.2999394,0.1749828,790.14655,792.1612,805.05493,788.93774,688.60803,0.5677490234375,-0.09442138671875,0.7998046875,4.179534912109375,-4.66552734375,-0.35888671875,1.0,1.0,1.0,1.0,1.0,20.0,
2023-09-08 00:20:16.043,0.6031539,0.2878949,0.49829996,0.54296714,0.36420384,0.10143489,0.12781757,0.3633546,0.45728934,0.47861508,0.3593926,0.54216975,0.47397575,0.94089556,0.07330553,0.336742,0.11868318,0.6522458,-0.2999394,0.1749828,811.0989,807.47253,787.326,788.1319,695.8608,0.5751953125,-0.08990478515625,0.8070068359375,5.1739501953125,-4.508514404296875,-0.321502685546875,1.0,1.0,1.0,1.0,1.0,20.0,
2023-09-08 00:20:16.117,0.6031539,0.2878949,0.49829996,0.54296714,0.36420384,0.10143489,0.12781757,0.3633546,0.45728934,0.47861508,0.3593926,0.54216975,0.47397575,0.94089556,0.07330553,0.336742,0.11868318,0.6522458,-0.2999394,0.1749828,794.17584,796.99634,796.99634,800.6227,739.7802,0.577392578125,-0.08258056640625,0.80645751953125,5.241241455078125,-3.3795166015625,-1.55517578125,1.0,1.0,1.0,1.0,1.0,20.0,
2023-09-08 00:20:16.120,0.6233451,0.31418315,0.54716873,0.5982477,0.35760915,0.17317219,0.13944627,0.3980501,0.43951848,0.540475,0.35804313,0.5589231,0.49051362,0.9495202,0.0752454,0.29842263,0.14315195,0.6525876,-0.29323733,0.1514127,784.5055,799.81683,793.36993,782.0879,715.2015,0.577392578125,-0.08258056640625,0.80645751953125,5.241241455078125,-3.3795166015625,-1.55517578125,1.0,1.0,1.0,1.0,1.0,20.0,
2023-09-08 00:20:16.197,0.6233451,0.31418315,0.54716873,0.5982477,0.35760915,0.17317219,0.13944627,0.3980501,0.43951848,0.540475,0.35804313,0.5589231,0.49051362,0.9495202,0.0752454,0.29842263,0.14315195,0.6525876,-0.29323733,0.1514127,788.1319,772.4176,784.90845,783.69965,968.24176,0.5711669921875,-0.0821533203125,0.8072509765625,4.74029541015625,-3.03558349609375,-1.562652587890625,1.0,1.0,1.0,1.0,1.0,20.0,
2023-09-08 00:20:16.200,0.6412082,0.33225286,0.57681924,0.63475657,0.3493482,0.24263248,0.14912501,0.41709614,0.48111105,0.5734222,0.3437795,0.5603274,0.5040062,0.9492771,0.078563236,0.28163904,0.16298245,0.6534897,-0.28474987,0.119142756,787.72894,784.10254,796.99634,787.326,747.8388,0.5711669921875,-0.0821533203125,0.8072509765625,4.74029541015625,-3.03558349609375,-1.562652587890625,1.0,1.0,1.0,1.0,1.0,20.0,
2023-09-08 00:20:16.242,0.6412082,0.33225286,0.57681924,0.63475657,0.3493482,0.24263248,0.14912501,0.41709614,0.48111105,0.5734222,0.3437795,0.5603274,0.5040062,0.9492771,0.078563236,0.28163904,0.16298245,0.6534897,-0.28474987,0.119142756,805.05493,810.293,800.2198,803.44324,763.1502,0.57720947265625,-0.0899658203125,0.8021240234375,4.209442138671875,-3.985137939453125,-1.697235107421875,1.0,1.0,1.0,1.0,1.0,20.0,
2023-09-08 00:20:16.310,0.6412082,0.33225286,0.57681924,0.63475657,0.3493482,0.24263248,0.14912501,0.41709614,0.48111105,0.5734222,0.3437795,0.5603274,0.5040062,0.9492771,0.078563236,0.28163904,0.16298245,0.6534897,-0.28474987,0.119142756,795.38464,810.293,793.7729,796.99634,765.56775,0.5811767578125,-0.09283447265625,0.79833984375,4.000091552734375,-3.96270751953125,-0.7476806640625,1.0,1.0,1.0,1.0,1.0,20.0,
2023-09-08 00:20:16.315,0.6457346,0.3425495,0.5901525,0.64720315,0.34746948,0.3004863,0.17028016,0.43305784,0.5402551,0.57450897,0.36658773,0.56875366,0.51456344,0.9418351,0.08356176,0.27849725,0.17608017,0.6481436,-0.276461,0.092233926,820.7692,782.49084,791.3553,801.02563,1089.9268,0.5811767578125,-0.09283447265625,0.79833984375,4.000091552734375,-3.96270751953125,-0.7476806640625,1.0,1.0,1.0,1.0,1.0,20.0,
2023-09-08 00:20:16.346,0.6457346,0.3425495,0.5901525,0.64720315,0.34746948,0.3004863,0.17028016,0.43305784,0.5402551,0.57450897,0.36658773,0.56875366,0.51456344,0.9418351,0.08356176,0.27849725,0.17608017,0.6481436,-0.276461,0.092233926,809.4872,808.2784,799.41394,802.6374,641.4652,0.5714111328125,-0.0947265625,0.8040771484375,4.964599609375,-3.57391357421875,-0.1495361328125,1.0,1.0,1.0,1.0,1.0,20.0,
2023-09-08 00:20:16.398,0.64039403,0.35092217,0.59120727,0.64099514,0.35287616,0.34319204,0.20187593,0.44442928,0.5994393,0.57450897,0.40798163,0.5863305,0.52082676,0.9325982,0.0882575,0.2741566,0.18254717,0.635933,-0.2722209,0.07798867,810.696,776.8498,794.57874,798.20514,834.0659,0.5714111328125,-0.0947265625,0.8040771484375,4.964599609375,-3.57391357421875,-0.1495361328125,1.0,1.0,1.0,1.0,1.0,20.0,
2023-09-08 00:20:16.432,0.64039403,0.35092217,0.59120727,0.64099514,0.35287616,0.34319204,0.20187593,0.44442928,0.5994393,0.57450897,0.40798163,0.5863305,0.52082676,0.9325982,0.0882575,0.2741566,0.18254717,0.635933,-0.2722209,0.07798867,803.44324,795.38464,795.78754,798.60803,696.26373,0.56787109375,-0.08709716796875,0.806884765625,7.140350341796875,-3.028106689453125,-1.00189208984375,1.0,1.0,1.0,1.0,1.0,20.0,
2023-09-08 00:20:16.488,0.64039403,0.35092217,0.59120727,0.64099514,0.35287616,0.34319204,0.20187593,0.44442928,0.5994393,0.57450897,0.40798163,0.5863305,0.52082676,0.9325982,0.0882575,0.2741566,0.18254717,0.635933,-0.2722209,0.07798867,798.60803,796.1905,786.9231,789.34064,718.022,0.58837890625,-0.07720947265625,0.80535888671875,6.108551025390625,-2.88604736328125,-2.295379638671875,1.0,1.0,1.0,1.0,1.0,20.0,
2023-09-08 00:20:16.499,0.63144505,0.35853496,0.5822269,0.6217487,0.3605674,0.37017238,0.23211513,0.4491157,0.6553474,0.5697785,0.44238156,0.5870932,0.52002466,0.9253541,0.089148104,0.26305354,0.18284732,0.62420887,-0.27420348,0.071603544,789.34064,826.4103,788.93774,789.34064,624.1392,0.58837890625,-0.07720947265625,0.80535888671875,6.108551025390625,-2.88604736328125,-2.295379638671875,1.0,1.0,1.0,1.0,1.0,20.0,
2023-09-08 00:20:16.539,0.63144505,0.35853496,0.5822269,0.6217487,0.3605674,0.37017238,0.23211513,0.4491157,0.6553474,0.5697785,0.44238156,0.5870932,0.52002466,0.9253541,0.089148104,0.26305354,0.18284732,0.62420887,-0.27420348,0.071603544,790.54944,799.011,793.7729,796.99634,671.685,0.5948486328125,-0.087158203125,0.79254150390625,4.29168701171875,-4.02252197265625,1.233673095703125,1.0,1.0,1.0,1.0,1.0,20.0,
2023-09-08 00:20:16.550,0.63144505,0.35853496,0.5822269,0.6217487,0.3605674,0.37017238,0.23211513,0.4491157,0.6553474,0.5697785,0.44238156,0.5870932,0.52002466,0.9253541,0.089148104,0.26305354,0.18284732,0.62420887,-0.27420348,0.071603544,794.9817,788.5348,787.72894,792.5641,901.75824,0.586669921875,-0.07928466796875,0.7957763671875,5.570220947265625,-3.3197021484375,1.981353759765625,1.0,1.0,1.0,1.0,1.0,20.0,
2023-09-08 00:20:16.632,0.63144505,0.35853496,0.5822269,0.6217487,0.3605674,0.37017238,0.23211513,0.4491157,0.6553474,0.5697785,0.44238156,0.5870932,0.52002466,0.9253541,0.089148104,0.26305354,0.18284732,0.62420887,-0.27420348,0.071603544,794.17584,796.1905,793.7729,784.90845,690.6227,0.51995849609375,-0.0762939453125,0.8062744140625,6.041259765625,0.04486083984375,-1.906585693359375,1.0,1.0,1.0,1.0,1.0,20.0,
2023-09-08 00:20:16.633,0.6308212,0.3643851,0.5711004,0.60550725,0.3641065,0.3810872,0.25306484,0.44953075,0.6649031,0.54329276,0.44763327,0.5870932,0.51137334,0.9190616,0.0838743,0.25215355,0.1797018,0.6174743,-0.2800832,0.06459396,791.3553,782.49084,794.17584,804.2491,696.26373,0.51995849609375,-0.0762939453125,0.8062744140625,6.041259765625,0.04486083984375,-1.906585693359375,1.0,1.0,1.0,1.0,1.0,20.0,
2023-09-08 00:20:16.727,0.6308212,0.3643851,0.5711004,0.60550725,0.3641065,0.3810872,0.25306484,0.44953075,0.6649031,0.54329276,0.44763327,0.5870932,0.51137334,0.9190616,0.0838743,0.25215355,0.1797018,0.6174743,-0.2800832,0.06459396,809.4872,814.3223,800.2198,795.38464,710.3663,0.60333251953125,-0.0821533203125,0.8082275390625,4.4561767578125,-6.280517578125,-4.7552490234375,1.0,1.0,1.0,1.0,1.0,20.0,
2023-09-08 00:20:16.729,0.642248,0.36297157,0.5607209,0.60052216,0.3602112,0.37633222,0.26666003,0.4489955,0.6730338,0.52376705,0.44763327,0.5757653,0.49902016,0.91049206,0.07120459,0.2539762,0.17754184,0.61135155,-0.2840054,0.054366305,798.20514,788.1319,803.44324,812.71063,1167.6923,0.60333251953125,-0.0821533203125,0.8082275390625,4.4561767578125,-6.280517578125,-4.7552490234375,1.0,1.0,1.0,1.0,1.0,20.0,
2023-09-08 00:20:16.796,0.642248,0.36297157,0.5607209,0.60052216,0.3602112,0.37633222,0.26666003,0.4489955,0.6730338,0.52376705,0.44763327,0.5757653,0.49902016,0.91049206,0.07120459,0.2539762,0.17754184,0.61135155,-0.2840054,0.054366305,803.0403,811.9048,807.0696,796.99634,640.65936,0.61627197265625,-0.0887451171875,0.79742431640625,3.27484130859375,-7.07305908203125,3.3795166015625,1.0,1.0,1.0,1.0,1.0,20.0,
2023-09-08 00:20:16.805,0.642248,0.36297157,0.5607209,0.60052216,0.3602112,0.37633222,0.26666003,0.4489955,0.6730338,0.52376705,0.44763327,0.5757653,0.49902016,0.91049206,0.07120459,0.2539762,0.17754184,0.61135155,-0.2840054,0.054366305,788.5348,797.3993,793.7729,804.65204,676.1172,0.544189453125,-0.08599853515625,0.79034423828125,6.0113525390625,-1.27105712890625,0.46356201171875,1.0,1.0,1.0,1.0,1.0,20.0,
2023-09-08 00:20:16.809,0.6560011,0.3527756,0.5485606,0.602225,0.34997222,0.3608168,0.27912366,0.44908872,0.6926896,0.5284883,0.43806425,0.5507797,0.49000832,0.9001043,0.0510706,0.27307528,0.17941672,0.6003339,-0.28394163,0.0416919,799.81683,786.1172,797.8022,801.4286,937.2161,0.544189453125,-0.08599853515625,0.79034423828125,6.0113525390625,-1.27105712890625,0.46356201171875,1.0,1.0,1.0,1.0,1.0,20.0,
2023-09-08 00:20:16.857,0.6560011,0.3527756,0.5485606,0.602225,0.34997222,0.3608168,0.27912366,0.44908872,0.6926896,0.5284883,0.43806425,0.5507797,0.49000832,0.9001043,0.0510706,0.27307528,0.17941672,0.6003339,-0.28394163,0.0416919,803.0403,773.22345,799.011,807.0696,878.7912,0.60321044921875,-0.07147216796875,0.813232421875,6.56463623046875,-3.506622314453125,-7.29736328125,1.0,1.0,1.0,1.0,1.0,20.0,
2023-09-08 00:20:16.924,0.66050684,0.33426243,0.53600365,0.5998499,0.33784553,0.34453326,0.29353237,0.4497748,0.7061255,0.5286585,0.41791937,0.55012673,0.48873994,0.892529,0.023736462,0.29995453,0.18718691,0.5831504,-0.2848511,0.023983981,790.54944,788.1319,796.5934,805.4579,832.0513,0.60321044921875,-0.07147216796875,0.813232421875,6.56463623046875,-3.506622314453125,-7.29736328125,1.0,1.0,1.0,1.0,1.0,20.0,
2023-09-08 00:20:16.968,0.66050684,0.33426243,0.53600365,0.5998499,0.33784553,0.34453326,0.29353237,0.4497748,0.7061255,0.5286585,0.41791937,0.55012673,0.48873994,0.892529,0.023736462,0.29995453,0.18718691,0.5831504,-0.2848511,0.023983981,801.4286,803.44324,796.5934,815.9341,794.9817,0.6002197265625,-0.06951904296875,0.7952880859375,2.729034423828125,-4.224395751953125,2.4822998046875,1.0,1.0,1.0,1.0,1.0,20.0,
2023-09-08 00:20:16.976,0.66050684,0.33426243,0.53600365,0.5998499,0.33784553,0.34453326,0.29353237,0.4497748,0.7061255,0.5286585,0.41791937,0.55012673,0.48873994,0.892529,0.023736462,0.29995453,0.18718691,0.5831504,-0.2848511,0.023983981,803.0403,811.0989,804.65204,794.9817,712.7839,0.57342529296875,-0.09161376953125,0.77862548828125,3.349609375,-3.925323486328125,0.097198486328125,1.0,1.0,1.0,1.0,1.0,20.0,
2023-09-08 00:20:16.982,0.65007836,0.30676275,0.5275938,0.58527637,0.32517862,0.33888593,0.30887648,0.42442942,0.7136187,0.52051693,0.40723372,0.55012673,0.49318132,0.88971037,-0.007993157,0.3107661,0.20144053,0.5642279,-0.29518872,0.02510477,793.36993,828.8278,798.60803,798.20514,739.7802,0.57342529296875,-0.09161376953125,0.77862548828125,3.349609375,-3.925323486328125,0.097198486328125,1.0,1.0,1.0,1.0,1.0,20.0,
