TimeStamp,Delta_TP9,Delta_AF7,Delta_AF8,Delta_TP10,Theta_TP9,Theta_AF7,Theta_AF8,Theta_TP10,Alpha_TP9,Alpha_AF7,Alpha_AF8,Alpha_TP10,Beta_TP9,Beta_AF7,Beta_AF8,Beta_TP10,Gamma_TP9,Gamma_AF7,Gamma_AF8,Gamma_TP10,RAW_TP9,RAW_AF7,RAW_AF8,RAW_TP10,AUX_RIGHT,Accelerometer_X,Accelerometer_Y,Accelerometer_Z,Gyro_X,Gyro_Y,Gyro_Z,HeadBandOn,HSI_TP9,HSI_AF7,HSI_AF8,HSI_TP10,Battery,Elements
2023-09-08 00:14:03.713,0.8859812,0.8490227,0.5053736,0.92988276,0.7045752,0.17483835,-0.02681491,0.32184237,0.5928894,0.42491448,0.36287522,0.43652818,0.61014605,0.2950929,0.19236884,0.5442581,-0.098472655,-0.23315345,-0.44327176,0.006203761,772.01465,803.8461,795.38464,781.685,637.4359,0.2310791015625,0.0665283203125,0.96234130859375,4.478607177734375,-3.237457275390625,-0.979461669921875,1.0,1.0,1.0,1.0,1.0,20.0,
2023-09-08 00:14:03.715,0.8859812,0.8742197,0.49293303,0.9022067,0.7045752,0.17082058,-0.05544169,0.30583662,0.5928894,0.42491448,0.35386437,0.41499418,0.61014605,0.28524867,0.19934726,0.5578433,-0.098472655,-0.25060692,-0.4300036,0.0030914827,769.59705,801.8315,796.5934,805.05493,763.5531,0.2310791015625,0.0665283203125,0.96234130859375,4.478607177734375,-3.237457275390625,-0.979461669921875,1.0,1.0,1.0,1.0,1.0,20.0,
2023-09-08 00:14:03.773,0.8859812,0.8742197,0.49293303,0.9022067,0.7045752,0.17082058,-0.05544169,0.30583662,0.5928894,0.42491448,0.35386437,0.41499418,0.61014605,0.28524867,0.19934726,0.5578433,-0.098472655,-0.25060692,-0.4300036,0.0030914827,770.0,815.5311,779.67035,787.72894,715.6044,0.233642578125,0.06890869140625,0.96478271484375,4.62066650390625,-3.3197021484375,-0.9869384765625,1.0,1.0,1.0,1.0,1.0,20.0,
2023-09-08 00:14:03.781,0.8859812,0.8742197,0.49293303,0.9022067,0.7045752,0.17082058,-0.05544169,0.30583662,0.5928894,0.42491448,0.35386437,0.41499418,0.61014605,0.28524867,0.19934726,0.5578433,-0.098472655,-0.25060692,-0.4300036,0.0030914827,780.4762,817.5458,797.3993,782.8938,743.00366,0.23370361328125,0.06597900390625,0.962158203125,4.53094482421875,-3.4393310546875,-0.777587890625,1.0,1.0,1.0,1.0,1.0,20.0,
2023-09-08 00:14:03.783,0.8859812,0.9039533,0.47511634,0.8702679,0.7045752,0.1620793,-0.045136835,0.29556522,0.5928894,0.42491448,0.29938442,0.36373746,0.61014605,0.27109715,0.20547214,0.5744496,-0.098472655,-0.2710748,-0.41103423,0.0030761324,769.19415,809.0842,792.96704,811.9048,761.9414,0.23370361328125,0.06597900390625,0.962158203125,4.53094482421875,-3.4393310546875,-0.777587890625,1.0,1.0,1.0,1.0,1.0,20.0,
2023-09-08 00:14:03.836,0.8859812,0.9039533,0.47511634,0.8702679,0.7045752,0.1620793,-0.045136835,0.29556522,0.5928894,0.42491448,0.29938442,0.36373746,0.61014605,0.27109715,0.20547214,0.5744496,-0.098472655,-0.2710748,-0.41103423,0.0030761324,774.83514,811.0989,792.5641,799.81683,842.1245,0.236328125,0.07501220703125,0.9649658203125,4.852447509765625,-2.519683837890625,-0.530853271484375,1.0,1.0,1.0,1.0,1.0,20.0,
2023-09-08 00:14:03.874,0.8859812,0.9039533,0.47511634,0.8702679,0.7045752,0.1620793,-0.045136835,0.29556522,0.5928894,0.42491448,0.29938442,0.36373746,0.61014605,0.27109715,0.20547214,0.5744496,-0.098472655,-0.2710748,-0.41103423,0.0030761324,772.01465,814.3223,798.60803,814.7253,830.84247,0.229248046875,0.07073974609375,0.96173095703125,4.6954345703125,-2.579498291015625,-0.426177978515625,1.0,1.0,1.0,1.0,1.0,20.0,
2023-09-08 00:14:03.877,0.8859812,0.93458986,0.471259,0.8592241,0.7045752,0.1518262,-0.008024484,0.29216227,0.5928894,0.42491448,0.23830368,0.2880947,0.61014605,0.25626308,0.21187489,0.59107924,-0.098472655,-0.2862684,-0.3864475,0.008340052,774.83514,814.3223,797.3993,812.71063,858.24176,0.229248046875,0.07073974609375,0.96173095703125,4.6954345703125,-2.579498291015625,-0.426177978515625,1.0,1.0,1.0,1.0,1.0,20.0,
2023-09-08 00:14:03.959,0.8859812,0.93458986,0.471259,0.8592241,0.7045752,0.1518262,-0.008024484,0.29216227,0.5928894,0.42491448,0.23830368,0.2880947,0.61014605,0.25626308,0.21187489,0.59107924,-0.098472655,-0.2862684,-0.3864475,0.008340052,778.0586,814.3223,801.02563,796.99634,647.1062,0.233154296875,0.0701904296875,0.96087646484375,4.643096923828125,-2.624359130859375,-1.03179931640625,1.0,1.0,1.0,1.0,1.0,20.0,
2023-09-08 00:14:03.963,0.8110398,0.96236974,0.4913186,0.8427004,0.71667236,0.1366995,0.026766546,0.28399736,0.56735957,0.42491448,0.23547992,0.3483158,0.6365328,0.24419592,0.21636505,0.57322776,-0.113608636,-0.29233262,-0.3613682,-0.0019091717,814.3223,811.9048,809.0842,812.3077,1195.4945,0.233154296875,0.0701904296875,0.96087646484375,4.643096923828125,-2.624359130859375,-1.03179931640625,1.0,1.0,1.0,1.0,1.0,20.0,
2023-09-08 00:14:04.011,0.8110398,0.96236974,0.4913186,0.8427004,0.71667236,0.1366995,0.026766546,0.28399736,0.56735957,0.42491448,0.23547992,0.3483158,0.6365328,0.24419592,0.21636505,0.57322776,-0.113608636,-0.29233262,-0.3613682,-0.0019091717,827.2161,814.7253,808.68134,813.1135,720.84247,0.22845458984375,0.07275390625,0.96734619140625,4.687957763671875,-3.30474853515625,-0.73272705078125,1.0,1.0,1.0,1.0,1.0,20.0,
2023-09-08 00:14:04.042,0.8110398,0.96236974,0.4913186,0.8427004,0.71667236,0.1366995,0.026766546,0.28399736,0.56735957,0.42491448,0.23547992,0.3483158,0.6365328,0.24419592,0.21636505,0.57322776,-0.113608636,-0.29233262,-0.3613682,-0.0019091717,832.4542,804.65204,813.5165,765.56775,647.50916,0.2335205078125,0.071044921875,0.96173095703125,4.7552490234375,-3.072967529296875,-1.128997802734375,1.0,1.0,1.0,1.0,1.0,20.0,
2023-09-08 00:14:04.045,0.77447635,0.9844707,0.52645695,0.8372456,0.7192566,0.11548665,0.04656348,0.27074566,0.56735957,0.42738232,0.24143374,0.35732132,0.6609896,0.23589878,0.2169325,0.54330057,-0.14095251,-0.28902847,-0.34026366,-0.036605984,818.7546,800.6227,790.54944,795.38464,959.7802,0.2335205078125,0.071044921875,0.96173095703125,4.7552490234375,-3.072967529296875,-1.128997802734375,1.0,1.0,1.0,1.0,1.0,20.0,
2023-09-08 00:14:04.080,0.77447635,0.9844707,0.52645695,0.8372456,0.7192566,0.11548665,0.04656348,0.27074566,0.56735957,0.42738232,0.24143374,0.35732132,0.6609896,0.23589878,0.2169325,0.54330057,-0.14095251,-0.28902847,-0.34026366,-0.036605984,815.5311,803.8461,793.36993,799.81683,861.06226,0.2354736328125,0.07354736328125,0.9630126953125,4.478607177734375,-2.654266357421875,-0.874786376953125,1.0,1.0,1.0,1.0,1.0,20.0,
2023-09-08 00:14:04.112,0.79116386,1.0010713,0.5670352,0.8346589,0.7110277,0.09123861,0.055577513,0.2577307,0.5627646,0.45274553,0.25336748,0.35732132,0.67481357,0.22962621,0.21442519,0.5010025,-0.18262383,-0.27844873,-0.3251565,-0.09289637,787.326,794.57874,796.1905,782.0879,773.22345,0.2354736328125,0.07354736328125,0.9630126953125,4.478607177734375,-2.654266357421875,-0.874786376953125,1.0,1.0,1.0,1.0,1.0,20.0,
2023-09-08 00:14:04.168,0.79116386,1.0010713,0.5670352,0.8346589,0.7110277,0.09123861,0.055577513,0.2577307,0.5627646,0.45274553,0.25336748,0.35732132,0.67481357,0.22962621,0.21442519,0.5010025,-0.18262383,-0.27844873,-0.3251565,-0.09289637,796.1905,801.02563,797.3993,778.46155,676.52014,0.2308349609375,0.0706787109375,0.9605712890625,4.32159423828125,-3.409423828125,-0.695343017578125,1.0,1.0,1.0,1.0,1.0,20.0,
2023-09-08 00:14:04.201,0.79116386,1.0010713,0.5670352,0.8346589,0.7110277,0.09123861,0.055577513,0.2577307,0.5627646,0.45274553,0.25336748,0.35732132,0.67481357,0.22962621,0.21442519,0.5010025,-0.18262383,-0.27844873,-0.3251565,-0.09289637,794.57874,813.5165,800.6227,808.68134,724.4689,0.23712158203125,0.0706787109375,0.95867919921875,4.50103759765625,-3.043060302734375,-1.128997802734375,1.0,1.0,1.0,1.0,1.0,20.0,
2023-09-08 00:14:04.275,0.79116386,1.0010713,0.5670352,0.8346589,0.7110277,0.09123861,0.055577513,0.2577307,0.5627646,0.45274553,0.25336748,0.35732132,0.67481357,0.22962621,0.21442519,0.5010025,-0.18262383,-0.27844873,-0.3251565,-0.09289637,798.20514,808.68134,804.2491,792.96704,710.7692,0.2281494140625,0.0726318359375,0.96697998046875,4.3963623046875,-2.504730224609375,-1.114044189453125,1.0,1.0,1.0,1.0,1.0,20.0,
2023-09-08 00:14:04.276,0.79116386,1.0095904,0.6015464,0.8258736,0.7110277,0.07196496,0.061974585,0.24340881,0.5627646,0.46142146,0.2767999,0.35991383,0.67481357,0.22230457,0.21285574,0.44661152,-0.18262383,-0.2646136,-0.31590274,-0.1539032,803.44324,803.8461,803.8461,774.43225,627.3626,0.2281494140625,0.0726318359375,0.96697998046875,4.3963623046875,-2.504730224609375,-1.114044189453125,1.0,1.0,1.0,1.0,1.0,20.0,
2023-09-08 00:14:04.329,0.79116386,1.0095904,0.6015464,0.8258736,0.7110277,0.07196496,0.061974585,0.24340881,0.5627646,0.46142146,0.2767999,0.35991383,0.67481357,0.22230457,0.21285574,0.44661152,-0.18262383,-0.2646136,-0.31590274,-0.1539032,822.381,812.71063,799.81683,782.0879,614.4689,0.23486328125,0.066650390625,0.959716796875,4.5159912109375,-2.833709716796875,-1.054229736328125,1.0,1.0,1.0,1.0,1.0,20.0,
2023-09-08 00:14:04.419,0.79116386,1.0095904,0.6015464,0.8258736,0.7110277,0.07196496,0.061974585,0.24340881,0.5627646,0.46142146,0.2767999,0.35991383,0.67481357,0.22230457,0.21285574,0.44661152,-0.18262383,-0.2646136,-0.31590274,-0.1539032,822.7839,820.3663,808.2784,815.9341,674.10254,0.23406982421875,0.07305908203125,0.95782470703125,4.47113037109375,-2.6318359375,-0.800018310546875,1.0,1.0,1.0,1.0,1.0,20.0,
2023-09-08 00:14:04.421,0.79116386,1.0084938,0.6259026,0.7999242,0.7110277,0.06274751,0.068225294,0.22352234,0.5627646,0.4686845,0.2805284,0.36579803,0.67481357,0.21166757,0.21379726,0.3809242,-0.18262383,-0.25324807,-0.31049648,-0.20685616,822.381,815.9341,815.5311,786.1172,621.7216,0.23406982421875,0.07305908203125,0.95782470703125,4.47113037109375,-2.6318359375,-0.800018310546875,1.0,1.0,1.0,1.0,1.0,20.0,
2023-09-08 00:14:04.466,0.79116386,1.0084938,0.6259026,0.7999242,0.7110277,0.06274751,0.068225294,0.22352234,0.5627646,0.4686845,0.2805284,0.36579803,0.67481357,0.21166757,0.21379726,0.3809242,-0.18262383,-0.25324807,-0.31049648,-0.20685616,788.93774,802.23444,801.4286,775.2381,790.14655,0.23095703125,0.075927734375,0.962890625,4.673004150390625,-2.930908203125,-0.157012939453125,1.0,1.0,1.0,1.0,1.0,20.0,
2023-09-08 00:14:04.470,0.79116386,1.0018022,0.6393985,0.745639,0.7110277,0.0617273,0.07018535,0.19423412,0.5627646,0.4690002,0.2750458,0.36989033,0.67481357,0.19675101,0.21304189,0.30696148,-0.18262383,-0.24869451,-0.306824,-0.25381482,778.86444,800.2198,803.0403,778.86444,679.34064,0.23095703125,0.075927734375,0.962890625,4.673004150390625,-2.930908203125,-0.157012939453125,1.0,1.0,1.0,1.0,1.0,20.0,
2023-09-08 00:14:04.506,0.79116386,1.0018022,0.6393985,0.745639,0.7110277,0.0617273,0.07018535,0.19423412,0.5627646,0.4690002,0.2750458,0.36989033,0.67481357,0.19675101,0.21304189,0.30696148,-0.18262383,-0.24869451,-0.306824,-0.25381482,782.49084,807.47253,800.2198,809.4872,789.7436,0.23345947265625,0.07196044921875,0.9613037109375,4.7552490234375,-3.48419189453125,-0.61309814453125,1.0,1.0,1.0,1.0,1.0,20.0,
2023-09-08 00:14:04.565,0.79116386,1.0018022,0.6393985,0.745639,0.7110277,0.0617273,0.07018535,0.19423412,0.5627646,0.4690002,0.2750458,0.36989033,0.67481357,0.19675101,0.21304189,0.30696148,-0.18262383,-0.24869451,-0.306824,-0.25381482,790.14655,804.65204,795.78754,787.326,838.49817,0.2352294921875,0.071533203125,0.96722412109375,4.50103759765625,-2.220611572265625,-0.934600830078125,1.0,1.0,1.0,1.0,1.0,20.0,
2023-09-08 00:14:04.572,0.79116386,0.9922259,0.6486615,0.6513585,0.7110277,0.0654187,0.05992987,0.15460384,0.5627646,0.47682723,0.27492905,0.37501237,0.67481357,0.17888868,0.2037069,0.23010305,-0.18262383,-0.25297347,-0.30456465,-0.31300408,806.26373,807.8755,788.5348,789.7436,868.315,0.2352294921875,0.071533203125,0.96722412109375,4.50103759765625,-2.220611572265625,-0.934600830078125,1.0,1.0,1.0,1.0,1.0,20.0,
2023-09-08 00:14:04.605,0.79116386,0.9922259,0.6486615,0.6513585,0.7110277,0.0654187,0.05992987,0.15460384,0.5627646,0.47682723,0.27492905,0.37501237,0.67481357,0.17888868,0.2037069,0.23010305,-0.18262383,-0.25297347,-0.30456465,-0.31300408,792.5641,812.3077,800.6227,781.28204,772.8205,0.23138427734375,0.07037353515625,0.95721435546875,4.418792724609375,-2.474822998046875,-1.128997802734375,1.0,1.0,1.0,1.0,1.0,20.0,
2023-09-08 00:14:04.697,0.79116386,0.9744461,0.6609253,0.4395987,0.7110277,0.068378784,0.03484701,0.10729246,0.5627646,0.4787201,0.27642936,0.37154567,0.67481357,0.1610996,0.18227243,0.15875018,-0.18262383,-0.2647845,-0.30606672,-0.40763366,783.2967,805.4579,786.52014,780.87915,652.3443,0.23138427734375,0.07037353515625,0.95721435546875,4.418792724609375,-2.474822998046875,-1.128997802734375,1.0,1.0,1.0,1.0,1.0,20.0,
2023-09-08 00:14:04.733,0.79116386,0.9744461,0.6609253,0.4395987,0.7110277,0.068378784,0.03484701,0.10729246,0.5627646,0.4787201,0.27642936,0.37154567,0.67481357,0.1610996,0.18227243,0.15875018,-0.18262383,-0.2647845,-0.30606672,-0.40763366,778.86444,810.696,794.57874,774.0293,701.0989,0.234130859375,0.07415771484375,0.96112060546875,4.8748779296875,-2.51220703125,-0.9869384765625,1.0,1.0,1.0,1.0,1.0,20.0,
2023-09-08 00:14:04.743,0.79116386,0.9744461,0.6609253,0.4395987,0.7110277,0.068378784,0.03484701,0.10729246,0.5627646,0.4787201,0.27642936,0.37154567,0.67481357,0.1610996,0.18227243,0.15875018,-0.18262383,-0.2647845,-0.30606672,-0.40763366,774.43225,813.5165,799.81683,774.83514,681.75824,0.23101806640625,0.070556640625,0.96453857421875,4.194488525390625,-3.06549072265625,-0.94207763671875,1.0,1.0,1.0,1.0,1.0,20.0,
2023-09-08 00:14:04.748,0.79116386,0.93876755,0.67225444,0.44580022,0.7110277,0.06341884,0.0028270695,0.14875919,0.5627646,0.46689633,0.2692207,0.3863048,0.67481357,0.14553292,0.1519433,0.15775946,-0.18262383,-0.28002426,-0.31289905,-0.40250963,783.2967,817.5458,799.011,794.57874,729.707,0.23101806640625,0.070556640625,0.96453857421875,4.194488525390625,-3.06549072265625,-0.94207763671875,1.0,1.0,1.0,1.0,1.0,20.0,
2023-09-08 00:14:04.836,0.79116386,0.93876755,0.67225444,0.44580022,0.7110277,0.06341884,0.0028270695,0.14875919,0.5627646,0.46689633,0.2692207,0.3863048,0.67481357,0.14553292,0.1519433,0.15775946,-0.18262383,-0.28002426,-0.31289905,-0.40250963,780.87915,814.3223,799.81683,807.8755,736.9597,0.230224609375,0.06884765625,0.9637451171875,4.11224365234375,-3.1103515625,-0.6878662109375,1.0,1.0,1.0,1.0,1.0,25.0,
2023-09-08 00:14:04.855,0.79116386,0.93876755,0.67225444,0.44580022,0.7110277,0.06341884,0.0028270695,0.14875919,0.5627646,0.46689633,0.2692207,0.3863048,0.67481357,0.14553292,0.1519433,0.15775946,-0.18262383,-0.28002426,-0.31289905,-0.40250963,796.5934,807.47253,796.99634,785.7143,769.59705,0.22772216796875,0.06658935546875,0.963623046875,4.4561767578125,-2.392578125,-0.83740234375,1.0,1.0,1.0,1.0,1.0,25.0,
2023-09-08 00:14:04.888,0.79116386,0.93876755,0.67225444,0.44580022,0.7110277,0.06341884,0.0028270695,0.14875919,0.5627646,0.46689633,0.2692207,0.3863048,0.67481357,0.14553292,0.1519433,0.15775946,-0.18262383,-0.28002426,-0.31289905,-0.40250963,793.36993,803.8461,797.3993,786.52014,698.2784,0.2257080078125,0.0711669921875,0.95892333984375,4.486083984375,-2.5421142578125,-1.15142822265625,1.0,1.0,1.0,1.0,1.0,25.0,
2023-09-08 00:14:04.889,0.79116386,0.8825086,0.6796089,0.45794058,0.7110277,0.05230538,-0.021382457,0.18682724,0.5627646,0.43172464,0.24610455,0.3863048,0.67481357,0.13277526,0.11974406,0.15496986,-0.18262383,-0.29444978,-0.322443,-0.39935333,784.5055,809.89014,793.7729,801.02563,771.2088,0.2257080078125,0.0711669921875,0.95892333984375,4.486083984375,-2.5421142578125,-1.15142822265625,1.0,1.0,1.0,1.0,1.0,25.0,
2023-09-08 00:14:04.961,0.79116386,0.8825086,0.6796089,0.45794058,0.7110277,0.05230538,-0.021382457,0.18682724,0.5627646,0.43172464,0.24610455,0.3863048,0.67481357,0.13277526,0.11974406,0.15496986,-0.18262383,-0.29444978,-0.322443,-0.39935333,790.9524,804.65204,788.93774,777.6557,801.4286,0.2315673828125,0.06671142578125,0.9700927734375,4.897308349609375,-3.409423828125,-0.710296630859375,1.0,1.0,1.0,1.0,1.0,25.0,
2023-09-08 00:14:04.963,0.79116386,0.8198647,0.68584317,0.46593243,0.7110277,0.037443,-0.031685263,0.21200365,0.5627646,0.3644949,0.23767209,0.3871579,0.67481357,0.12508722,0.091403805,0.15500939,-0.18262383,-0.30580828,-0.3297666,-0.38903883,779.67035,800.6227,792.96704,797.8022,796.5934,0.2315673828125,0.06671142578125,0.9700927734375,4.897308349609375,-3.409423828125,-0.710296630859375,1.0,1.0,1.0,1.0,1.0,25.0,
2023-09-08 00:14:05.027,0.79116386,0.8198647,0.68584317,0.46593243,0.7110277,0.037443,-0.031685263,0.21200365,0.5627646,0.3644949,0.23767209,0.3871579,0.67481357,0.12508722,0.091403805,0.15500939,-0.18262383,-0.30580828,-0.3297666,-0.38903883,793.36993,817.5458,803.44324,799.41394,688.20514,0.2349853515625,0.0718994140625,0.956787109375,4.418792724609375,-2.938385009765625,-1.039276123046875,1.0,1.0,1.0,1.0,1.0,25.0,
2023-09-08 00:14:05.086,0.79116386,0.8198647,0.68584317,0.46593243,0.7110277,0.037443,-0.031685263,0.21200365,0.5627646,0.3644949,0.23767209,0.3871579,0.67481357,0.12508722,0.091403805,0.15500939,-0.18262383,-0.30580828,-0.3297666,-0.38903883,759.12085,817.5458,799.011,813.5165,792.5641,0.2366943359375,0.070556640625,0.962158203125,4.7552490234375,-2.878570556640625,-1.099090576171875,1.0,1.0,1.0,1.0,1.0,25.0,
2023-09-08 00:14:05.089,0.79116386,0.75834984,0.6891812,0.46343738,0.7110277,0.027777322,-0.03836386,0.22226223,0.5627646,0.30093735,0.23677246,0.3871579,0.67481357,0.12782735,0.06619809,0.16383593,-0.18262383,-0.3149478,-0.33458394,-0.3685238,763.1502,804.65204,802.23444,809.0842,927.5458,0.2366943359375,0.070556640625,0.962158203125,4.7552490234375,-2.878570556640625,-1.099090576171875,1.0,1.0,1.0,1.0,1.0,25.0,
2023-09-08 00:14:05.126,0.79116386,0.75834984,0.6891812,0.46343738,0.7110277,0.027777322,-0.03836386,0.22226223,0.5627646,0.30093735,0.23677246,0.3871579,0.67481357,0.12782735,0.06619809,0.16383593,-0.18262383,-0.3149478,-0.33458394,-0.3685238,778.46155,817.5458,803.8461,783.69965,640.65936,0.23382568359375,0.07196044921875,0.9649658203125,4.463653564453125,-3.33465576171875,-0.299072265625,1.0,1.0,1.0,1.0,1.0,25.0,
2023-09-08 00:14:05.176,0.79116386,0.75834984,0.6891812,0.46343738,0.7110277,0.027777322,-0.03836386,0.22226223,0.5627646,0.30093735,0.23677246,0.3871579,0.67481357,0.12782735,0.06619809,0.16383593,-0.18262383,-0.3149478,-0.33458394,-0.3685238,756.30035,803.8461,799.81683,792.5641,673.69965,0.23345947265625,0.06439208984375,0.96649169921875,4.942169189453125,-2.968292236328125,-1.188812255859375,1.0,1.0,1.0,1.0,1.0,25.0,
2023-09-08 00:14:05.181,0.79116386,0.69145465,0.6893471,0.4583406,0.7110277,0.028336007,-0.060558427,0.22257009,0.5627646,0.26294288,0.22671147,0.3871579,0.67481357,0.14497674,0.040381134,0.18092535,-0.18262383,-0.3236925,-0.34133056,-0.3448248,755.89746,811.9048,800.6227,805.8608,759.92676,0.23345947265625,0.06439208984375,0.96649169921875,4.942169189453125,-2.968292236328125,-1.188812255859375,1.0,1.0,1.0,1.0,1.0,25.0,
2023-09-08 00:14:05.296,0.79116386,0.69145465,0.6893471,0.4583406,0.7110277,0.028336007,-0.060558427,0.22257009,0.5627646,0.26294288,0.22671147,0.3871579,0.67481357,0.14497674,0.040381134,0.18092535,-0.18262383,-0.3236925,-0.34133056,-0.3448248,764.35895,803.44324,796.5934,770.0,675.7143,0.2298583984375,0.07061767578125,0.9666748046875,4.972076416015625,-1.77947998046875,-0.800018310546875,1.0,1.0,1.0,1.0,1.0,25.0,
2023-09-08 00:14:05.303,0.79116386,0.60634243,0.6875272,0.45412797,0.7110277,0.03798686,-0.107895784,0.2193618,0.5627646,0.23791778,0.22571713,0.3871579,0.67481357,0.1720568,0.01367499,0.2004141,-0.18262383,-0.33195892,-0.35421896,-0.32448247,771.2088,799.81683,800.6227,812.3077,1126.5934,0.2298583984375,0.07061767578125,0.9666748046875,4.972076416015625,-1.77947998046875,-0.800018310546875,1.0,1.0,1.0,1.0,1.0,25.0,
2023-09-08 00:14:05.316,0.79116386,0.60634243,0.6875272,0.45412797,0.7110277,0.03798686,-0.107895784,0.2193618,0.5627646,0.23791778,0.22571713,0.3871579,0.67481357,0.1720568,0.01367499,0.2004141,-0.18262383,-0.33195892,-0.35421896,-0.32448247,780.4762,816.337,801.02563,803.0403,673.2967,0.2349853515625,0.0670166015625,0.9598388671875,4.26177978515625,-2.82623291015625,-1.114044189453125,1.0,1.0,1.0,1.0,1.0,25.0,
2023-09-08 00:14:05.359,0.79116386,0.60634243,0.6875272,0.45412797,0.7110277,0.03798686,-0.107895784,0.2193618,0.5627646,0.23791778,0.22571713,0.3871579,0.67481357,0.1720568,0.01367499,0.2004141,-0.18262383,-0.33195892,-0.35421896,-0.32448247,775.64105,810.293,795.38464,803.8461,830.0366,0.22589111328125,0.07171630859375,0.95782470703125,4.792633056640625,-1.68975830078125,-0.7177734375,1.0,1.0,1.0,1.0,1.0,25.0,
2023-09-08 00:14:05.367,0.79116386,0.51618683,0.6794397,0.4503208,0.7110277,0.049771197,-0.1701952,0.21376173,0.5627646,0.24590442,0.22591724,0.43011343,0.67481357,0.198822,-0.008784949,0.21620065,-0.18262383,-0.33965412,-0.3723591,-0.30892602,827.619,805.4579,789.7436,796.99634,750.2564,0.22589111328125,0.07171630859375,0.95782470703125,4.792633056640625,-1.68975830078125,-0.7177734375,1.0,1.0,1.0,1.0,1.0,25.0,
2023-09-08 00:14:05.427,0.79116386,0.51618683,0.6794397,0.4503208,0.7110277,0.049771197,-0.1701952,0.21376173,0.5627646,0.24590442,0.22591724,0.43011343,0.67481357,0.198822,-0.008784949,0.21620065,-0.18262383,-0.33965412,-0.3723591,-0.30892602,825.6044,803.8461,788.1319,780.4762,665.64105,0.2286376953125,0.07037353515625,0.964111328125,5.181427001953125,-3.289794921875,-0.49346923828125,1.0,1.0,1.0,1.0,1.0,25.0,
2023-09-08 00:14:05.527,0.79116386,0.51618683,0.6794397,0.4503208,0.7110277,0.049771197,-0.1701952,0.21376173,0.5627646,0.24590442,0.22591724,0.43011343,0.67481357,0.198822,-0.008784949,0.21620065,-0.18262383,-0.33965412,-0.3723591,-0.30892602,783.69965,805.8608,790.14655,787.72894,700.696,0.23455810546875,0.075439453125,0.96435546875,4.88983154296875,-3.701019287109375,-0.31402587890625,1.0,1.0,1.0,1.0,1.0,25.0,
2023-09-08 00:14:05.528,0.79116386,0.4332435,0.6603644,0.4471802,0.7110277,0.060684577,-0.21833728,0.20347056,0.5627646,0.26239341,0.23263535,0.47815046,0.67481357,0.21733455,-0.022045057,0.22334054,-0.18262383,-0.3446667,-0.39099923,-0.31320328,787.326,802.23444,794.57874,771.2088,682.96704,0.23455810546875,0.075439453125,0.96435546875,4.88983154296875,-3.701019287109375,-0.31402587890625,1.0,1.0,1.0,1.0,1.0,25.0,
2023-09-08 00:14:05.583,0.79116386,0.4332435,0.6603644,0.4471802,0.7110277,0.060684577,-0.21833728,0.20347056,0.5627646,0.26239341,0.23263535,0.47815046,0.67481357,0.21733455,-0.022045057,0.22334054,-0.18262383,-0.3446667,-0.39099923,-0.31320328,791.75824,801.4286,794.57874,782.49084,658.3883,0.23272705078125,0.0775146484375,0.9632568359375,4.6954345703125,-3.050537109375,-0.456085205078125,1.0,1.0,1.0,1.0,1.0,25.0,
2023-09-08 00:14:05.655,0.79116386,0.4332435,0.6603644,0.4471802,0.7110277,0.060684577,-0.21833728,0.20347056,0.5627646,0.26239341,0.23263535,0.47815046,0.67481357,0.21733455,-0.022045057,0.22334054,-0.18262383,-0.3446667,-0.39099923,-0.31320328,795.78754,814.7253,802.6374,824.7985,842.1245,0.2310791015625,0.07330322265625,0.96417236328125,4.42626953125,-3.1103515625,-1.039276123046875,1.0,1.0,1.0,1.0,1.0,25.0,
2023-09-08 00:14:05.658,0.79116386,0.3666343,0.62730163,0.4384353,0.7110277,0.071777724,-0.23532474,0.19395149,0.5627646,0.28881449,0.25181296,0.5135729,0.67481357,0.2288095,-0.026861956,0.23112912,-0.18262383,-0.34555328,-0.40551746,-0.3022336,796.5934,819.15753,817.5458,785.31134,662.4176,0.2310791015625,0.07330322265625,0.96417236328125,4.42626953125,-3.1103515625,-1.039276123046875,1.0,1.0,1.0,1.0,1.0,25.0,
2023-09-08 00:14:05.668,0.79116386,0.3666343,0.62730163,0.4384353,0.7110277,0.071777724,-0.23532474,0.19395149,0.5627646,0.28881449,0.25181296,0.5135729,0.67481357,0.2288095,-0.026861956,0.23112912,-0.18262383,-0.34555328,-0.40551746,-0.3022336,785.7143,810.696,819.5604,804.2491,912.23444,0.2330322265625,0.072998046875,0.96044921875,4.463653564453125,-2.998199462890625,-1.218719482421875,1.0,1.0,1.0,1.0,1.0,25.0,
2023-09-08 00:14:05.703,0.79116386,0.3666343,0.62730163,0.4384353,0.7110277,0.071777724,-0.23532474,0.19395149,0.5627646,0.28881449,0.25181296,0.5135729,0.67481357,0.2288095,-0.026861956,0.23112912,-0.18262383,-0.34555328,-0.40551746,-0.3022336,794.17584,809.89014,817.5458,783.69965,661.2088,0.23760986328125,0.0745849609375,0.96551513671875,4.02252197265625,-3.60382080078125,-0.59814453125,1.0,1.0,1.0,1.0,1.0,25.0,
2023-09-08 00:14:05.706,0.79116386,0.30967662,0.58188796,0.41743666,0.7110277,0.08485157,-0.22671942,0.18754819,0.5627646,0.30946335,0.26473406,0.56228966,0.67481357,0.24100763,-0.027817851,0.25049546,-0.18262383,-0.3441748,-0.41402352,-0.279073,794.17584,811.9048,817.1429,787.326,724.87177,0.23760986328125,0.0745849609375,0.96551513671875,4.02252197265625,-3.60382080078125,-0.59814453125,1.0,1.0,1.0,1.0,1.0,25.0,
2023-09-08 00:14:05.805,0.79116386,0.30967662,0.58188796,0.41743666,0.7110277,0.08485157,-0.22671942,0.18754819,0.5627646,0.30946335,0.26473406,0.56228966,0.67481357,0.24100763,-0.027817851,0.25049546,-0.18262383,-0.3441748,-0.41402352,-0.279073,785.7143,803.44324,802.23444,783.69965,714.7985,0.23455810546875,0.07086181640625,0.961181640625,4.306640625,-2.788848876953125,-1.1962890625,1.0,1.0,1.0,1.0,1.0,25.0,
2023-09-08 00:14:05.810,0.79116386,0.26455903,0.5464393,0.38877133,0.7110277,0.09995203,-0.18837017,0.19039579,0.5627646,0.34143358,0.2978532,0.64338136,0.67481357,0.25975558,-0.024995975,0.29413757,-0.18262383,-0.3424041,-0.41702703,-0.24510123,780.4762,802.23444,803.0403,780.4762,1001.28204,0.23455810546875,0.07086181640625,0.961181640625,4.306640625,-2.788848876953125,-1.1962890625,1.0,1.0,1.0,1.0,1.0,25.0,
2023-09-08 00:14:05.839,0.79116386,0.26455903,0.5464393,0.38877133,0.7110277,0.09995203,-0.18837017,0.19039579,0.5627646,0.34143358,0.2978532,0.64338136,0.67481357,0.25975558,-0.024995975,0.29413757,-0.18262383,-0.3424041,-0.41702703,-0.24510123,781.685,817.1429,813.91943,792.5641,614.87177,0.2349853515625,0.0684814453125,0.965576171875,4.388885498046875,-2.983245849609375,-1.009368896484375,1.0,1.0,1.0,1.0,1.0,25.0,
2023-09-08 00:14:05.884,0.79116386,0.26455903,0.5464393,0.38877133,0.7110277,0.09995203,-0.18837017,0.19039579,0.5627646,0.34143358,0.2978532,0.64338136,0.67481357,0.25975558,-0.024995975,0.29413757,-0.18262383,-0.3424041,-0.41702703,-0.24510123,797.3993,812.3077,804.2491,819.5604,736.9597,0.2303466796875,0.07220458984375,0.971923828125,3.9776611328125,-3.3197021484375,0.201873779296875,1.0,1.0,1.0,1.0,1.0,25.0,
2023-09-08 00:14:05.892,0.79116386,0.24652742,0.563882,0.36347032,0.7110277,0.11744949,-0.09205844,0.21159956,0.5627646,0.36373565,0.31236747,0.7346028,0.67481357,0.28347373,-0.014927676,0.35940763,-0.18262383,-0.33844846,-0.41734463,-0.20284204,791.3553,798.20514,808.68134,801.8315,846.9597,0.2303466796875,0.07220458984375,0.971923828125,3.9776611328125,-3.3197021484375,0.201873779296875,1.0,1.0,1.0,1.0,1.0,25.0,
2023-09-08 00:14:05.923,0.79116386,0.24652742,0.563882,0.36347032,0.7110277,0.11744949,-0.09205844,0.21159956,0.5627646,0.36373565,0.31236747,0.7346028,0.67481357,0.28347373,-0.014927676,0.35940763,-0.18262383,-0.33844846,-0.41734463,-0.20284204,778.0586,799.011,800.2198,775.64105,753.47986,0.2392578125,0.06683349609375,0.96160888671875,4.299163818359375,-3.24493408203125,-0.500946044921875,1.0,1.0,1.0,1.0,1.0,25.0,
2023-09-08 00:14:05.974,0.79116386,0.24304518,0.6415221,0.3494947,0.7110277,0.13822211,0.04697041,0.2530864,0.5627646,0.39280865,0.3379683,0.8271088,0.67481357,0.30603492,0.0015810562,0.42667443,-0.18262383,-0.33065906,-0.4183139,-0.16076626,736.55676,808.68134,800.2198,800.6227,724.87177,0.2392578125,0.06683349609375,0.96160888671875,4.299163818359375,-3.24493408203125,-0.500946044921875,1.0,1.0,1.0,1.0,1.0,25.0,
2023-09-08 00:14:06.022,0.79116386,0.24304518,0.6415221,0.3494947,0.7110277,0.13822211,0.04697041,0.2530864,0.5627646,0.39280865,0.3379683,0.8271088,0.67481357,0.30603492,0.0015810562,0.42667443,-0.18262383,-0.33065906,-0.4183139,-0.16076626,740.18317,805.8608,800.2198,820.7692,822.381,0.23681640625,0.0692138671875,0.96002197265625,4.403839111328125,-2.340240478515625,-0.94207763671875,1.0,1.0,1.0,1.0,1.0,25.0,
2023-09-08 00:14:06.077,0.79116386,0.24304518,0.6415221,0.3494947,0.7110277,0.13822211,0.04697041,0.2530864,0.5627646,0.39280865,0.3379683,0.8271088,0.67481357,0.30603492,0.0015810562,0.42667443,-0.18262383,-0.33065906,-0.4183139,-0.16076626,746.63007,805.4579,805.05493,792.1612,748.6447,0.23211669921875,0.0687255859375,0.96051025390625,3.955230712890625,-3.0206298828125,-1.443023681640625,1.0,1.0,1.0,1.0,1.0,25.0,
2023-09-08 00:14:06.105,0.79116386,0.24304518,0.6415221,0.3494947,0.7110277,0.13822211,0.04697041,0.2530864,0.5627646,0.39280865,0.3379683,0.8271088,0.67481357,0.30603492,0.0015810562,0.42667443,-0.18262383,-0.33065906,-0.4183139,-0.16076626,757.1062,817.9487,813.91943,790.9524,754.68866,0.23992919921875,0.06170654296875,0.96533203125,4.32159423828125,-3.33465576171875,-1.33087158203125,1.0,1.0,1.0,1.0,1.0,25.0,
2023-09-08 00:14:06.107,0.79116386,0.24517584,0.72770256,0.34172904,0.7110277,0.16104999,0.18213215,0.31041047,0.5627646,0.4627318,0.39619458,0.88830036,0.67481357,0.3228616,0.019120093,0.47852427,-0.18262383,-0.32088482,-0.42198336,-0.12667857,754.2857,820.3663,817.1429,816.7399,748.24176,0.23992919921875,0.06170654296875,0.96533203125,4.32159423828125,-3.33465576171875,-1.33087158203125,1.0,1.0,1.0,1.0,1.0,25.0,
2023-09-08 00:14:06.185,0.79116386,0.24517584,0.72770256,0.34172904,0.7110277,0.16104999,0.18213215,0.31041047,0.5627646,0.4627318,0.39619458,0.88830036,0.67481357,0.3228616,0.019120093,0.47852427,-0.18262383,-0.32088482,-0.42198336,-0.12667857,743.8095,815.5311,803.44324,816.337,696.26373,0.23455810546875,0.06463623046875,0.96697998046875,4.47113037109375,-2.64678955078125,-0.575714111328125,1.0,1.0,1.0,1.0,1.0,25.0,
2023-09-08 00:14:06.225,0.79116386,0.24517584,0.72770256,0.34172904,0.7110277,0.16104999,0.18213215,0.31041047,0.5627646,0.4627318,0.39619458,0.88830036,0.67481357,0.3228616,0.019120093,0.47852427,-0.18262383,-0.32088482,-0.42198336,-0.12667857,747.03296,803.0403,798.20514,769.19415,640.2564,0.238525390625,0.06829833984375,0.9615478515625,4.957122802734375,-2.579498291015625,-1.15142822265625,1.0,1.0,1.0,1.0,1.0,25.0,
2023-09-08 00:14:06.227,0.79116386,0.24605249,0.78244185,0.33186093,0.7110277,0.18497166,0.2850535,0.37321362,0.5627646,0.48167586,0.40791157,0.9050982,0.67481357,0.33280084,0.032994673,0.5108804,-0.18262383,-0.31421968,-0.42830542,-0.10050871,749.85345,807.0696,802.6374,814.3223,826.8132,0.238525390625,0.06829833984375,0.9615478515625,4.957122802734375,-2.579498291015625,-1.15142822265625,1.0,1.0,1.0,1.0,1.0,25.0,
2023-09-08 00:14:06.321,0.79116386,0.24605249,0.78244185,0.33186093,0.7110277,0.18497166,0.2850535,0.37321362,0.5627646,0.48167586,0.40791157,0.9050982,0.67481357,0.33280084,0.032994673,0.5108804,-0.18262383,-0.31421968,-0.42830542,-0.10050871,755.4945,790.54944,790.54944,801.02563,703.91943,0.232177734375,0.06475830078125,0.95684814453125,5.3533935546875,-1.7645263671875,-0.46356201171875,1.0,1.0,1.0,1.0,1.0,25.0,
2023-09-08 00:14:06.324,0.79116386,0.2561633,0.8034982,0.3193754,0.7110277,0.20787692,0.35195297,0.42809522,0.5627646,0.4808874,0.40791157,0.9058422,0.67481357,0.3359066,0.040696606,0.5288813,-0.18262383,-0.3153328,-0.43672398,-0.07788226,757.9121,777.25275,794.17584,806.26373,1163.2601,0.232177734375,0.06475830078125,0.95684814453125,5.3533935546875,-1.7645263671875,-0.46356201171875,1.0,1.0,1.0,1.0,1.0,25.0,
2023-09-08 00:14:06.359,0.79116386,0.2561633,0.8034982,0.3193754,0.7110277,0.20787692,0.35195297,0.42809522,0.5627646,0.4808874,0.40791157,0.9058422,0.67481357,0.3359066,0.040696606,0.5288813,-0.18262383,-0.3153328,-0.43672398,-0.07788226,761.13556,785.31134,795.38464,776.4469,638.24176,0.23333740234375,0.07000732421875,0.96142578125,5.21881103515625,-3.1103515625,-0.538330078125,1.0,1.0,1.0,1.0,1.0,25.0,
2023-09-08 00:14:06.410,0.79116386,0.2561633,0.8034982,0.3193754,0.7110277,0.20787692,0.35195297,0.42809522,0.5627646,0.4808874,0.40791157,0.9058422,0.67481357,0.3359066,0.040696606,0.5288813,-0.18262383,-0.3153328,-0.43672398,-0.07788226,770.0,786.52014,792.1612,802.23444,897.326,0.2318115234375,0.069580078125,0.9635009765625,5.001983642578125,-2.79632568359375,-0.478515625,1.0,1.0,1.0,1.0,1.0,25.0,
2023-09-08 00:14:06.420,0.79116386,0.28520563,0.80593175,0.31272632,0.7110277,0.2262466,0.39134434,0.46549594,0.5627646,0.4802532,0.40791157,0.9058422,0.67481357,0.3317919,0.04272956,0.53976446,-0.18262383,-0.3235674,-0.44792163,-0.05556841,781.685,781.685,791.75824,798.20514,797.8022,0.2318115234375,0.069580078125,0.9635009765625,5.001983642578125,-2.79632568359375,-0.478515625,1.0,1.0,1.0,1.0,1.0,25.0,
2023-09-08 00:14:06.490,0.79116386,0.28520563,0.80593175,0.31272632,0.7110277,0.2262466,0.39134434,0.46549594,0.5627646,0.4802532,0.40791157,0.9058422,0.67481357,0.3317919,0.04272956,0.53976446,-0.18262383,-0.3235674,-0.44792163,-0.05556841,801.8315,792.1612,795.78754,805.4579,828.8278,0.2364501953125,0.07086181640625,0.9678955078125,4.762725830078125,-2.893524169921875,-0.545806884765625,1.0,1.0,1.0,1.0,1.0,25.0,
2023-09-08 00:14:06.508,0.79116386,0.35786387,0.8069314,0.32245293,0.7110277,0.23942734,0.41519892,0.4835376,0.5627646,0.4839777,0.40399662,0.906108,0.67481357,0.32127717,0.04084833,0.54776454,-0.18262383,-0.33298025,-0.46505958,-0.03863164,800.6227,824.3956,810.696,799.81683,808.68134,0.2364501953125,0.07086181640625,0.9678955078125,4.762725830078125,-2.893524169921875,-0.545806884765625,1.0,1.0,1.0,1.0,1.0,25.0,
2023-09-08 00:14:06.541,0.79116386,0.35786387,0.8069314,0.32245293,0.7110277,0.23942734,0.41519892,0.4835376,0.5627646,0.4839777,0.40399662,0.906108,0.67481357,0.32127717,0.04084833,0.54776454,-0.18262383,-0.33298025,-0.46505958,-0.03863164,813.1135,818.7546,808.68134,801.4286,671.685,0.23455810546875,0.07275390625,0.96246337890625,4.23187255859375,-3.028106689453125,-0.85235595703125,1.0,1.0,1.0,1.0,1.0,25.0,
2023-09-08 00:14:06.581,0.79116386,0.35786387,0.8069314,0.32245293,0.7110277,0.23942734,0.41519892,0.4835376,0.5627646,0.4839777,0.40399662,0.906108,0.67481357,0.32127717,0.04084833,0.54776454,-0.18262383,-0.33298025,-0.46505958,-0.03863164,800.2198,816.337,807.0696,805.8608,706.337,0.2337646484375,0.06884765625,0.9581298828125,4.658050537109375,-2.803802490234375,-1.054229736328125,1.0,1.0,1.0,1.0,1.0,25.0,
2023-09-08 00:14:06.588,0.79116386,0.47375867,0.8189074,0.34694272,0.7110277,0.25152463,0.42988268,0.4871896,0.5627646,0.48964837,0.40399662,0.9075114,0.67481357,0.30636182,0.039087623,0.55436903,-0.18262383,-0.33366707,-0.48912597,-0.0306484,796.99634,805.8608,790.54944,784.5055,1073.0037,0.2337646484375,0.06884765625,0.9581298828125,4.658050537109375,-2.803802490234375,-1.054229736328125,1.0,1.0,1.0,1.0,1.0,25.0,
2023-09-08 00:14:06.649,0.79116386,0.47375867,0.8189074,0.34694272,0.7110277,0.25152463,0.42988268,0.4871896,0.5627646,0.48964837,0.40399662,0.9075114,0.67481357,0.30636182,0.039087623,0.55436903,-0.18262383,-0.33366707,-0.48912597,-0.0306484,802.6374,816.337,791.3553,766.77655,648.71796,0.2353515625,0.06536865234375,0.9593505859375,4.538421630859375,-3.117828369140625,-0.85235595703125,1.0,1.0,1.0,1.0,1.0,25.0,
2023-09-08 00:14:06.684,0.79116386,0.47375867,0.8189074,0.34694272,0.7110277,0.25152463,0.42988268,0.4871896,0.5627646,0.48964837,0.40399662,0.9075114,0.67481357,0.30636182,0.039087623,0.55436903,-0.18262383,-0.33366707,-0.48912597,-0.0306484,795.78754,813.5165,796.1905,803.0403,747.4359,0.24005126953125,0.06884765625,0.959228515625,4.807586669921875,-3.12530517578125,-0.6878662109375,1.0,1.0,1.0,1.0,1.0,25.0,
2023-09-08 00:14:06.744,0.79116386,0.47375867,0.8189074,0.34694272,0.7110277,0.25152463,0.42988268,0.4871896,0.5627646,0.48964837,0.40399662,0.9075114,0.67481357,0.30636182,0.039087623,0.55436903,-0.18262383,-0.33366707,-0.48912597,-0.0306484,786.1172,805.4579,796.99634,804.2491,753.8828,0.2347412109375,0.06866455078125,0.96417236328125,4.717864990234375,-3.27484130859375,-0.52337646484375,1.0,1.0,1.0,1.0,1.0,25.0,
2023-09-08 00:14:06.745,0.79116386,0.60895056,0.83899516,0.36586514,0.7110277,0.26576045,0.43952593,0.4836973,0.5627646,0.49484524,0.40399662,0.9112052,0.67481357,0.28996006,0.040997364,0.5595216,-0.18262383,-0.3182521,-0.51775724,-0.029548135,786.9231,807.0696,797.3993,785.31134,732.1245,0.2347412109375,0.06866455078125,0.96417236328125,4.717864990234375,-3.27484130859375,-0.52337646484375,1.0,1.0,1.0,1.0,1.0,25.0,
2023-09-08 00:14:06.811,0.79116386,0.60895056,0.83899516,0.36586514,0.7110277,0.26576045,0.43952593,0.4836973,0.5627646,0.49484524,0.40399662,0.9112052,0.67481357,0.28996006,0.040997364,0.5595216,-0.18262383,-0.3182521,-0.51775724,-0.029548135,790.14655,804.65204,788.93774,799.41394,740.989,0.23492431640625,0.06939697265625,0.96142578125,4.598236083984375,-2.85614013671875,-1.2860107421875,1.0,1.0,1.0,1.0,1.0,25.0,
2023-09-08 00:14:06.816,0.79116386,0.7354362,0.8581149,0.3671541,0.7110277,0.27967355,0.44917274,0.4775671,0.5627646,0.49484524,0.40399662,0.92140037,0.67481357,0.27413854,0.046666373,0.5627843,-0.18262383,-0.28925174,-0.5466258,-0.031034052,802.23444,807.0696,797.3993,772.4176,676.1172,0.23492431640625,0.06939697265625,0.96142578125,4.598236083984375,-2.85614013671875,-1.2860107421875,1.0,1.0,1.0,1.0,1.0,25.0,
2023-09-08 00:14:06.878,0.79116386,0.7354362,0.8581149,0.3671541,0.7110277,0.27967355,0.44917274,0.4775671,0.5627646,0.49484524,0.40399662,0.92140037,0.67481357,0.27413854,0.046666373,0.5627843,-0.18262383,-0.28925174,-0.5466258,-0.031034052,806.6667,823.9927,806.6667,812.3077,747.4359,0.23779296875,0.06793212890625,0.96588134765625,4.717864990234375,-3.33465576171875,-0.979461669921875,1.0,1.0,1.0,1.0,1.0,25.0,
2023-09-08 00:14:06.931,0.79116386,0.7354362,0.8581149,0.3671541,0.7110277,0.27967355,0.44917274,0.4775671,0.5627646,0.49484524,0.40399662,0.92140037,0.67481357,0.27413854,0.046666373,0.5627843,-0.18262383,-0.28925174,-0.5466258,-0.031034052,795.78754,818.3516,794.57874,780.87915,624.1392,0.23480224609375,0.0728759765625,0.9659423828125,4.493560791015625,-3.551483154296875,-0.037384033203125,1.0,1.0,1.0,1.0,1.0,25.0,
2023-09-08 00:14:06.935,0.79116386,0.8337156,0.8751176,0.35820702,0.7110277,0.28827596,0.46261713,0.4720258,0.5627646,0.49680904,0.40399662,0.9227274,0.67481357,0.25978407,0.053003244,0.56401074,-0.18262383,-0.25515547,-0.57131046,-0.033774305,801.02563,807.0696,800.2198,779.67035,689.011,0.23480224609375,0.0728759765625,0.9659423828125,4.493560791015625,-3.551483154296875,-0.037384033203125,1.0,1.0,1.0,1.0,1.0,25.0,
2023-09-08 00:14:06.973,0.79116386,0.8337156,0.8751176,0.35820702,0.7110277,0.28827596,0.46261713,0.4720258,0.5627646,0.49680904,0.40399662,0.9227274,0.67481357,0.25978407,0.053003244,0.56401074,-0.18262383,-0.25515547,-0.57131046,-0.033774305,794.57874,817.9487,797.8022,799.81683,738.97437,0.23846435546875,0.07183837890625,0.95703125,4.687957763671875,-3.06549072265625,-1.00189208984375,1.0,1.0,1.0,1.0,1.0,25.0,
2023-09-08 00:14:07.014,0.79116386,0.8337156,0.8751176,0.35820702,0.7110277,0.28827596,0.46261713,0.4720258,0.5627646,0.49680904,0.40399662,0.9227274,0.67481357,0.25978407,0.053003244,0.56401074,-0.18262383,-0.25515547,-0.57131046,-0.033774305,790.14655,820.3663,801.8315,785.7143,738.5714,0.2415771484375,0.0758056640625,0.9613037109375,4.463653564453125,-2.370147705078125,-0.934600830078125,1.0,1.0,1.0,1.0,1.0,25.0,
2023-09-08 00:14:07.020,0.79116386,0.89398634,0.89063644,0.34660855,0.7110277,0.29033887,0.47880796,0.4691902,0.5627646,0.49680904,0.40399662,0.9180824,0.67481357,0.24695107,0.058776774,0.56473094,-0.18262383,-0.22463879,-0.5876683,-0.038017374,784.5055,809.0842,792.1612,784.10254,726.4835,0.2415771484375,0.0758056640625,0.9613037109375,4.463653564453125,-2.370147705078125,-0.934600830078125,1.0,1.0,1.0,1.0,1.0,25.0,
2023-09-08 00:14:07.095,0.79116386,0.89398634,0.89063644,0.34660855,0.7110277,0.29033887,0.47880796,0.4691902,0.5627646,0.49680904,0.40399662,0.9180824,0.67481357,0.24695107,0.058776774,0.56473094,-0.18262383,-0.22463879,-0.5876683,-0.038017374,789.7436,803.8461,803.8461,816.337,724.0659,0.23779296875,0.0706787109375,0.9637451171875,3.99261474609375,-2.88604736328125,-1.039276123046875,1.0,1.0,1.0,1.0,1.0,25.0,
2023-09-08 00:14:07.100,0.79116386,0.92029047,0.9032517,0.33871743,0.7110277,0.28672093,0.49327993,0.46998298,0.5627646,0.49680904,0.40399662,0.9091084,0.67481357,0.2346561,0.06414167,0.5668593,-0.18262383,-0.20362306,-0.593632,-0.041822616,813.91943,805.05493,809.4872,803.44324,1038.3517,0.23779296875,0.0706787109375,0.9637451171875,3.99261474609375,-2.88604736328125,-1.039276123046875,1.0,1.0,1.0,1.0,1.0,25.0,
2023-09-08 00:14:07.157,0.79116386,0.92029047,0.9032517,0.33871743,0.7110277,0.28672093,0.49327993,0.46998298,0.5627646,0.49680904,0.40399662,0.9091084,0.67481357,0.2346561,0.06414167,0.5668593,-0.18262383,-0.20362306,-0.593632,-0.041822616,817.9487,808.68134,807.8755,791.75824,677.326,0.2408447265625,0.07037353515625,0.9659423828125,4.007568359375,-2.893524169921875,-1.86920166015625,1.0,1.0,1.0,1.0,1.0,25.0,
2023-09-08 00:14:07.201,0.79116386,0.92029047,0.9032517,0.33871743,0.7110277,0.28672093,0.49327993,0.46998298,0.5627646,0.49680904,0.40399662,0.9091084,0.67481357,0.2346561,0.06414167,0.5668593,-0.18262383,-0.20362306,-0.593632,-0.041822616,819.15753,803.8461,797.3993,803.8461,763.5531,0.2362060546875,0.066650390625,0.96539306640625,4.418792724609375,-1.9439697265625,-1.128997802734375,1.0,1.0,1.0,1.0,1.0,25.0,
2023-09-08 00:14:07.210,0.79116386,0.92612195,0.90926474,0.33956897,0.7110277,0.28037184,0.50237286,0.4728237,0.5627646,0.49224547,0.40399662,0.89495665,0.67481357,0.22092941,0.06978577,0.5684938,-0.18262383,-0.195184,-0.5890675,-0.043264512,795.38464,802.23444,785.31134,794.57874,747.03296,0.2362060546875,0.066650390625,0.96539306640625,4.418792724609375,-1.9439697265625,-1.128997802734375,1.0,1.0,1.0,1.0,1.0,25.0,
2023-09-08 00:14:07.252,0.79116386,0.92612195,0.90926474,0.33956897,0.7110277,0.28037184,0.50237286,0.4728237,0.5627646,0.49224547,0.40399662,0.89495665,0.67481357,0.22092941,0.06978577,0.5684938,-0.18262383,-0.195184,-0.5890675,-0.043264512,792.96704,805.05493,786.52014,809.89014,818.7546,0.2374267578125,0.0655517578125,0.9598388671875,3.93280029296875,-2.1533203125,-1.016845703125,1.0,1.0,1.0,1.0,1.0,25.0,
2023-09-08 00:14:07.360,0.79116386,0.92612195,0.90926474,0.33956897,0.7110277,0.28037184,0.50237286,0.4728237,0.5627646,0.49224547,0.40399662,0.89495665,0.67481357,0.22092941,0.06978577,0.5684938,-0.18262383,-0.195184,-0.5890675,-0.043264512,795.38464,799.81683,787.326,777.25275,637.03296,0.2308349609375,0.0650634765625,0.95648193359375,4.553375244140625,-1.854248046875,-0.859832763671875,1.0,1.0,1.0,1.0,1.0,25.0,
2023-09-08 00:14:07.361,0.79116386,0.9241111,0.90137506,0.3477788,0.7110277,0.2717087,0.50250286,0.47483674,0.5627646,0.48065636,0.40399662,0.8858423,0.67481357,0.20409957,0.071768224,0.5632327,-0.18262383,-0.20031166,-0.5744104,-0.04561155,790.9524,796.5934,788.1319,793.36993,740.18317,0.2308349609375,0.0650634765625,0.95648193359375,4.553375244140625,-1.854248046875,-0.859832763671875,1.0,1.0,1.0,1.0,1.0,25.0,
2023-09-08 00:14:07.404,0.79116386,0.9241111,0.90137506,0.3477788,0.7110277,0.2717087,0.50250286,0.47483674,0.5627646,0.48065636,0.40399662,0.8858423,0.67481357,0.20409957,0.071768224,0.5632327,-0.18262383,-0.20031166,-0.5744104,-0.04561155,792.96704,797.8022,791.75824,797.8022,680.9524,0.23541259765625,0.07232666015625,0.9622802734375,4.553375244140625,-2.489776611328125,-0.979461669921875,1.0,1.0,1.0,1.0,1.0,25.0,
2023-09-08 00:14:07.413,0.79116386,0.9241111,0.90137506,0.3477788,0.7110277,0.2717087,0.50250286,0.47483674,0.5627646,0.48065636,0.40399662,0.8858423,0.67481357,0.20409957,0.071768224,0.5632327,-0.18262383,-0.20031166,-0.5744104,-0.04561155,792.1612,803.44324,799.011,762.74725,618.49817,0.23504638671875,0.06982421875,0.96026611328125,4.508514404296875,-2.52716064453125,-0.411224365234375,1.0,1.0,1.0,1.0,1.0,25.0,
2023-09-08 00:14:07.415,0.79116386,0.92004925,0.8700902,0.37067953,0.7110277,0.2591588,0.48876408,0.4735332,0.5627646,0.4715887,0.39170828,0.8749698,0.67481357,0.1838045,0.06359488,0.5456544,-0.18262383,-0.21746486,-0.55387616,-0.056717236,802.23444,809.4872,799.41394,809.89014,689.41394,0.23504638671875,0.06982421875,0.96026611328125,4.508514404296875,-2.52716064453125,-0.411224365234375,1.0,1.0,1.0,1.0,1.0,25.0,
2023-09-08 00:14:07.471,0.79116386,0.92004925,0.8700902,0.37067953,0.7110277,0.2591588,0.48876408,0.4735332,0.5627646,0.4715887,0.39170828,0.8749698,0.67481357,0.1838045,0.06359488,0.5456544,-0.18262383,-0.21746486,-0.55387616,-0.056717236,799.011,788.5348,796.1905,784.5055,713.5897,0.23272705078125,0.06671142578125,0.96343994140625,4.20196533203125,-2.6318359375,-1.07666015625,1.0,1.0,1.0,1.0,1.0,25.0,
2023-09-08 00:14:07.508,0.79116386,0.92004925,0.8700902,0.37067953,0.7110277,0.2591588,0.48876408,0.4735332,0.5627646,0.4715887,0.39170828,0.8749698,0.67481357,0.1838045,0.06359488,0.5456544,-0.18262383,-0.21746486,-0.55387616,-0.056717236,800.6227,804.2491,797.8022,806.6667,737.76556,0.23565673828125,0.06634521484375,0.9630126953125,4.66552734375,-2.79632568359375,-1.517791748046875,1.0,1.0,1.0,1.0,1.0,25.0,
2023-09-08 00:14:07.512,0.79116386,0.91661924,0.81219167,0.41458064,0.7110277,0.24186113,0.45937666,0.4684592,0.5627646,0.4505067,0.33964738,0.8487909,0.67481357,0.16505423,0.043024536,0.5184983,-0.18262383,-0.24028589,-0.533711,-0.07881923,812.71063,816.337,804.2491,813.91943,890.87915,0.23565673828125,0.06634521484375,0.9630126953125,4.66552734375,-2.79632568359375,-1.517791748046875,1.0,1.0,1.0,1.0,1.0,25.0,
2023-09-08 00:14:07.610,0.79116386,0.91661924,0.81219167,0.41458064,0.7110277,0.24186113,0.45937666,0.4684592,0.5627646,0.4505067,0.33964738,0.8487909,0.67481357,0.16505423,0.043024536,0.5184983,-0.18262383,-0.24028589,-0.533711,-0.07881923,814.3223,812.3077,806.26373,793.36993,749.45056,0.23541259765625,0.065673828125,0.95855712890625,4.59075927734375,-2.444915771484375,-0.97198486328125,1.0,1.0,1.0,1.0,1.0,25.0,
2023-09-08 00:14:07.617,0.79116386,0.9152842,0.7393083,0.4672393,0.7110277,0.2210885,0.4191129,0.45517734,0.5627646,0.4075822,0.26930723,0.82782435,0.67481357,0.15429857,0.01639596,0.49243653,-0.18262383,-0.25956976,-0.51865476,-0.10460479,813.1135,809.0842,800.6227,801.4286,886.4469,0.23541259765625,0.065673828125,0.95855712890625,4.59075927734375,-2.444915771484375,-0.97198486328125,1.0,1.0,1.0,1.0,1.0,25.0,
2023-09-08 00:14:07.680,0.79116386,0.9152842,0.7393083,0.4672393,0.7110277,0.2210885,0.4191129,0.45517734,0.5627646,0.4075822,0.26930723,0.82782435,0.67481357,0.15429857,0.01639596,0.49243653,-0.18262383,-0.25956976,-0.51865476,-0.10460479,807.47253,807.47253,796.1905,809.0842,1119.7435,0.22955322265625,0.065673828125,0.9559326171875,4.553375244140625,-2.332763671875,-0.530853271484375,1.0,1.0,1.0,1.0,1.0,25.0,
2023-09-08 00:14:07.752,0.79116386,0.9152842,0.7393083,0.4672393,0.7110277,0.2210885,0.4191129,0.45517734,0.5627646,0.4075822,0.26930723,0.82782435,0.67481357,0.15429857,0.01639596,0.49243653,-0.18262383,-0.25956976,-0.51865476,-0.10460479,826.8132,815.9341,797.8022,771.2088,644.2857,0.23248291015625,0.06683349609375,0.9600830078125,4.957122802734375,-3.222503662109375,-0.829925537109375,1.0,1.0,1.0,1.0,1.0,25.0,
2023-09-08 00:14:07.764,0.79116386,0.91775435,0.6787317,0.5104082,0.7110277,0.2018482,0.37950245,0.42763436,0.5627646,0.3837669,0.17310928,0.8144313,0.67481357,0.15420109,-0.0038397089,0.47689566,-0.18262383,-0.26679635,-0.5079705,-0.12509766,811.50183,811.9048,805.05493,800.6227,760.32965,0.23248291015625,0.06683349609375,0.9600830078125,4.957122802734375,-3.222503662109375,-0.829925537109375,1.0,1.0,1.0,1.0,1.0,25.0,
2023-09-08 00:14:07.822,0.79116386,0.91775435,0.6787317,0.5104082,0.7110277,0.2018482,0.37950245,0.42763436,0.5627646,0.3837669,0.17310928,0.8144313,0.67481357,0.15420109,-0.0038397089,0.47689566,-0.18262383,-0.26679635,-0.5079705,-0.12509766,804.65204,815.5311,805.8608,795.38464,683.7729,0.2314453125,0.06744384765625,0.95770263671875,5.09918212890625,-2.73651123046875,-0.59814453125,1.0,1.0,1.0,1.0,1.0,25.0,
2023-09-08 00:14:07.831,0.79116386,0.92320305,0.64661473,0.532626,0.7110277,0.19283898,0.35235584,0.38506696,0.5627646,0.36539528,0.078396894,0.8035064,0.67481357,0.16276993,-0.008293166,0.47239697,-0.18262383,-0.25939712,-0.49913558,-0.13727956,805.05493,802.6374,791.3553,789.34064,658.3883,0.2314453125,0.06744384765625,0.95770263671875,5.09918212890625,-2.73651123046875,-0.59814453125,1.0,1.0,1.0,1.0,1.0,25.0,
2023-09-08 00:14:07.859,0.79116386,0.92320305,0.64661473,0.532626,0.7110277,0.19283898,0.35235584,0.38506696,0.5627646,0.36539528,0.078396894,0.8035064,0.67481357,0.16276993,-0.008293166,0.47239697,-0.18262383,-0.25939712,-0.49913558,-0.13727956,805.8608,801.4286,790.54944,778.0586,644.68866,0.23675537109375,0.0655517578125,0.96221923828125,4.77020263671875,-3.641204833984375,-0.665435791015625,1.0,1.0,1.0,1.0,1.0,25.0,
2023-09-08 00:14:07.865,0.79116386,0.92320305,0.64661473,0.532626,0.7110277,0.19283898,0.35235584,0.38506696,0.5627646,0.36539528,0.078396894,0.8035064,0.67481357,0.16276993,-0.008293166,0.47239697,-0.18262383,-0.25939712,-0.49913558,-0.13727956,780.4762,799.011,784.5055,786.9231,721.6484,0.239501953125,0.06744384765625,0.9691162109375,4.366455078125,-4.074859619140625,-1.009368896484375,1.0,1.0,1.0,1.0,1.0,25.0,
2023-09-08 00:14:07.948,0.79116386,0.92320305,0.64661473,0.532626,0.7110277,0.19283898,0.35235584,0.38506696,0.5627646,0.36539528,0.078396894,0.8035064,0.67481357,0.16276993,-0.008293166,0.47239697,-0.18262383,-0.25939712,-0.49913558,-0.13727956,790.54944,801.02563,798.60803,795.78754,765.56775,0.24456787109375,0.06756591796875,0.95794677734375,4.71038818359375,-2.0635986328125,-1.547698974609375,1.0,1.0,1.0,1.0,1.0,25.0,
2023-09-08 00:14:07.949,0.84490705,0.9247289,0.6325614,0.52709925,0.84364873,0.19860876,0.34262764,0.33937952,0.6236514,0.36539528,0.030089691,0.80051845,0.5017026,0.17678303,0.0012294654,0.47329932,-0.50441116,-0.24101186,-0.49097663,-0.14494742,792.1612,805.4579,797.8022,767.98535,680.14655,0.24456787109375,0.06756591796875,0.95794677734375,4.71038818359375,-2.0635986328125,-1.547698974609375,1.0,1.0,1.0,1.0,1.0,25.0,
2023-09-08 00:14:08.004,0.84490705,0.9247289,0.6325614,0.52709925,0.84364873,0.19860876,0.34262764,0.33937952,0.6236514,0.36539528,0.030089691,0.80051845,0.5017026,0.17678303,0.0012294654,0.47329932,-0.50441116,-0.24101186,-0.49097663,-0.14494742,785.31134,797.8022,785.7143,771.2088,789.34064,0.2398681640625,0.06488037109375,0.9625244140625,4.777679443359375,-2.788848876953125,-1.1065673828125,1.0,1.0,1.0,1.0,1.0,25.0,
2023-09-08 00:14:08.075,0.84490705,0.9247289,0.6325614,0.52709925,0.84364873,0.19860876,0.34262764,0.33937952,0.6236514,0.36539528,0.030089691,0.80051845,0.5017026,0.17678303,0.0012294654,0.47329932,-0.50441116,-0.24101186,-0.49097663,-0.14494742,797.8022,810.696,799.81683,801.4286,704.7253,0.241455078125,0.06719970703125,0.95953369140625,5.211334228515625,-2.6318359375,-0.59814453125,1.0,1.0,1.0,1.0,1.0,25.0,
2023-09-08 00:14:08.079,0.8968862,0.91575235,0.62211716,0.5021021,0.8049173,0.2122388,0.34604475,0.31216726,0.6371795,0.3697066,0.03222795,0.8088662,0.50231636,0.19470991,0.018337633,0.47559604,-0.4907617,-0.21919937,-0.48212463,-0.14850278,804.2491,807.0696,803.8461,776.04395,728.49817,0.241455078125,0.06719970703125,0.95953369140625,5.211334228515625,-2.6318359375,-0.59814453125,1.0,1.0,1.0,1.0,1.0,25.0,
2023-09-08 00:14:08.137,0.8968862,0.91575235,0.62211716,0.5021021,0.8049173,0.2122388,0.34604475,0.31216726,0.6371795,0.3697066,0.03222795,0.8088662,0.50231636,0.19470991,0.018337633,0.47559604,-0.4907617,-0.21919937,-0.48212463,-0.14850278,815.5311,812.71063,800.2198,776.8498,600.3663,0.24072265625,0.07427978515625,0.956787109375,5.181427001953125,-2.115936279296875,-0.657958984375,1.0,1.0,1.0,1.0,1.0,25.0,
2023-09-08 00:14:08.141,0.9713653,0.89073175,0.60680944,0.468672,0.7710885,0.22046688,0.35718575,0.3170457,0.6450104,0.39854378,0.05310324,0.817592,0.5062917,0.21726346,0.03731505,0.4777022,-0.46390584,-0.20315136,-0.47014946,-0.1477909,807.47253,803.0403,796.5934,778.0586,747.8388,0.24072265625,0.07427978515625,0.956787109375,5.181427001953125,-2.115936279296875,-0.657958984375,1.0,1.0,1.0,1.0,1.0,25.0,
2023-09-08 00:14:08.174,0.9713653,0.89073175,0.60680944,0.468672,0.7710885,0.22046688,0.35718575,0.3170457,0.6450104,0.39854378,0.05310324,0.817592,0.5062917,0.21726346,0.03731505,0.4777022,-0.46390584,-0.20315136,-0.47014946,-0.1477909,799.41394,804.2491,794.9817,805.05493,698.2784,0.2330322265625,0.07391357421875,0.968017578125,4.725341796875,-2.093505859375,-0.934600830078125,1.0,1.0,1.0,1.0,1.0,25.0,
2023-09-08 00:14:08.224,0.9713653,0.89073175,0.60680944,0.468672,0.7710885,0.22046688,0.35718575,0.3170457,0.6450104,0.39854378,0.05310324,0.817592,0.5062917,0.21726346,0.03731505,0.4777022,-0.46390584,-0.20315136,-0.47014946,-0.1477909,790.9524,792.96704,791.75824,776.4469,697.8755,0.23089599609375,0.0684814453125,0.9566650390625,4.553375244140625,-2.504730224609375,-0.9271240234375,1.0,1.0,1.0,1.0,1.0,25.0,
2023-09-08 00:14:08.231,1.0536412,0.8457131,0.59093505,0.44148287,0.7416751,0.2156159,0.36744866,0.34145206,0.6820311,0.40094644,0.08410821,0.819408,0.52949166,0.24493092,0.05447649,0.48212963,-0.41975483,-0.19960627,-0.45433792,-0.142948,798.60803,796.5934,791.3553,774.83514,648.315,0.23089599609375,0.0684814453125,0.9566650390625,4.553375244140625,-2.504730224609375,-0.9271240234375,1.0,1.0,1.0,1.0,1.0,25.0,
2023-09-08 00:14:08.263,1.0536412,0.8457131,0.59093505,0.44148287,0.7416751,0.2156159,0.36744866,0.34145206,0.6820311,0.40094644,0.08410821,0.819408,0.52949166,0.24493092,0.05447649,0.48212963,-0.41975483,-0.19960627,-0.45433792,-0.142948,805.05493,798.60803,784.10254,778.86444,655.56775,0.23187255859375,0.0703125,0.96142578125,5.24871826171875,-2.310333251953125,-0.85235595703125,1.0,1.0,1.0,1.0,1.0,25.0,
2023-09-08 00:14:08.308,1.1166288,0.77718157,0.58354026,0.4319442,0.71719956,0.20022011,0.36796558,0.36787286,0.73264503,0.4211082,0.11761109,0.81641513,0.5630621,0.2749626,0.06707534,0.49254176,-0.36895603,-0.2096983,-0.4379548,-0.13713193,792.96704,808.2784,787.326,798.20514,753.0769,0.23187255859375,0.0703125,0.96142578125,5.24871826171875,-2.310333251953125,-0.85235595703125,1.0,1.0,1.0,1.0,1.0,25.0,
2023-09-08 00:14:08.358,1.1166288,0.77718157,0.58354026,0.4319442,0.71719956,0.20022011,0.36796558,0.36787286,0.73264503,0.4211082,0.11761109,0.81641513,0.5630621,0.2749626,0.06707534,0.49254176,-0.36895603,-0.2096983,-0.4379548,-0.13713193,809.4872,803.8461,788.1319,784.5055,697.0696,0.2335205078125,0.07275390625,0.96136474609375,4.882354736328125,-3.170166015625,-0.67291259765625,1.0,1.0,1.0,1.0,1.0,25.0,
2023-09-08 00:14:08.400,1.1166288,0.77718157,0.58354026,0.4319442,0.71719956,0.20022011,0.36796558,0.36787286,0.73264503,0.4211082,0.11761109,0.81641513,0.5630621,0.2749626,0.06707534,0.49254176,-0.36895603,-0.2096983,-0.4379548,-0.13713193,802.23444,807.47253,786.9231,772.4176,649.5238,0.23736572265625,0.07061767578125,0.96160888671875,4.66552734375,-3.342132568359375,-0.4486083984375,1.0,1.0,1.0,1.0,1.0,25.0,
2023-09-08 00:14:08.407,1.1511729,0.6929388,0.5806162,0.4352787,0.69842774,0.18464588,0.35515112,0.38565305,0.7788932,0.42953318,0.13355258,0.7995566,0.5860919,0.30066568,0.07306263,0.5095426,-0.3277937,-0.23031908,-0.4264994,-0.12850247,796.1905,807.47253,778.86444,801.8315,777.25275,0.23736572265625,0.07061767578125,0.96160888671875,4.66552734375,-3.342132568359375,-0.4486083984375,1.0,1.0,1.0,1.0,1.0,25.0,
2023-09-08 00:14:08.449,1.1511729,0.6929388,0.5806162,0.4352787,0.69842774,0.18464588,0.35515112,0.38565305,0.7788932,0.42953318,0.13355258,0.7995566,0.5860919,0.30066568,0.07306263,0.5095426,-0.3277937,-0.23031908,-0.4264994,-0.12850247,798.60803,811.50183,782.8938,805.8608,735.34796,0.2381591796875,0.07025146484375,0.9666748046875,4.598236083984375,-2.70660400390625,-0.55328369140625,1.0,1.0,1.0,1.0,1.0,25.0,
2023-09-08 00:14:08.503,1.1511729,0.6929388,0.5806162,0.4352787,0.69842774,0.18464588,0.35515112,0.38565305,0.7788932,0.42953318,0.13355258,0.7995566,0.5860919,0.30066568,0.07306263,0.5095426,-0.3277937,-0.23031908,-0.4264994,-0.12850247,805.8608,809.4872,790.54944,783.2967,649.92676,0.2391357421875,0.07208251953125,0.9656982421875,4.732818603515625,-2.803802490234375,-0.95703125,1.0,1.0,1.0,1.0,1.0,25.0,
2023-09-08 00:14:08.541,1.1511729,0.6929388,0.5806162,0.4352787,0.69842774,0.18464588,0.35515112,0.38565305,0.7788932,0.42953318,0.13355258,0.7995566,0.5860919,0.30066568,0.07306263,0.5095426,-0.3277937,-0.23031908,-0.4264994,-0.12850247,799.011,808.68134,802.6374,788.93774,718.4249,0.2386474609375,0.07135009765625,0.95806884765625,4.80010986328125,-2.504730224609375,-1.323394775390625,1.0,1.0,1.0,1.0,1.0,25.0,
2023-09-08 00:14:08.542,1.1570723,0.6212421,0.5805335,0.43971238,0.6825479,0.17493291,0.33160588,0.39425236,0.831725,0.41850528,0.14085452,0.78873706,0.5885101,0.31586206,0.07199945,0.5270021,-0.30474395,-0.2561093,-0.42404208,-0.11430109,793.36993,808.68134,802.6374,806.6667,846.1539,0.2386474609375,0.07135009765625,0.95806884765625,4.80010986328125,-2.504730224609375,-1.323394775390625,1.0,1.0,1.0,1.0,1.0,25.0,
2023-09-08 00:14:08.642,1.1570723,0.6212421,0.5805335,0.43971238,0.6825479,0.17493291,0.33160588,0.39425236,0.831725,0.41850528,0.14085452,0.78873706,0.5885101,0.31586206,0.07199945,0.5270021,-0.30474395,-0.2561093,-0.42404208,-0.11430109,789.7436,807.0696,810.696,777.25275,673.69965,0.236083984375,0.07281494140625,0.96392822265625,4.822540283203125,-2.91595458984375,-0.889739990234375,1.0,1.0,1.0,1.0,1.0,25.0,
2023-09-08 00:14:08.644,1.1410519,0.5910359,0.58827525,0.43967634,0.66526425,0.17080155,0.30557343,0.39936265,0.8437786,0.4194316,0.14497444,0.78749317,0.57378256,0.31823057,0.06476236,0.53706557,-0.2983556,-0.2804634,-0.43080795,-0.097202525,781.28204,801.8315,804.65204,803.8461,740.989,0.236083984375,0.07281494140625,0.96392822265625,4.822540283203125,-2.91595458984375,-0.889739990234375,1.0,1.0,1.0,1.0,1.0,25.0,
2023-09-08 00:14:08.682,1.1410519,0.5910359,0.58827525,0.43967634,0.66526425,0.17080155,0.30557343,0.39936265,0.8437786,0.4194316,0.14497444,0.78749317,0.57378256,0.31823057,0.06476236,0.53706557,-0.2983556,-0.2804634,-0.43080795,-0.097202525,782.0879,800.6227,809.0842,798.20514,738.5714,0.2352294921875,0.07196044921875,0.9630126953125,4.628143310546875,-2.58697509765625,-0.5084228515625,1.0,1.0,1.0,1.0,1.0,25.0,
2023-09-08 00:14:08.732,1.1410519,0.5910359,0.58827525,0.43967634,0.66526425,0.17080155,0.30557343,0.39936265,0.8437786,0.4194316,0.14497444,0.78749317,0.57378256,0.31823057,0.06476236,0.53706557,-0.2983556,-0.2804634,-0.43080795,-0.097202525,777.6557,803.44324,803.0403,801.02563,837.28937,0.23309326171875,0.0692138671875,0.95819091796875,4.553375244140625,-2.691650390625,-0.934600830078125,1.0,1.0,1.0,1.0,1.0,25.0,
2023-09-08 00:14:08.738,1.1162893,0.5979975,0.616308,0.4361617,0.6447664,0.16806975,0.285105,0.40431073,0.8437786,0.41974458,0.14497444,0.78749317,0.55283517,0.31166103,0.05321239,0.53593916,-0.30188856,-0.29646447,-0.44350043,-0.08081582,790.54944,792.96704,797.3993,804.65204,780.07324,0.23309326171875,0.0692138671875,0.95819091796875,4.553375244140625,-2.691650390625,-0.934600830078125,1.0,1.0,1.0,1.0,1.0,25.0,
2023-09-08 00:14:08.808,1.1162893,0.5979975,0.616308,0.4361617,0.6447664,0.16806975,0.285105,0.40431073,0.8437786,0.41974458,0.14497444,0.78749317,0.55283517,0.31166103,0.05321239,0.53593916,-0.30188856,-0.29646447,-0.44350043,-0.08081582,804.65204,802.6374,806.26373,787.326,1137.8755,0.2353515625,0.072265625,0.96978759765625,5.1141357421875,-3.289794921875,-0.605621337890625,1.0,1.0,1.0,1.0,1.0,25.0,
2023-09-08 00:14:08.850,1.1162893,0.5979975,0.616308,0.4361617,0.6447664,0.16806975,0.285105,0.40431073,0.8437786,0.41974458,0.14497444,0.78749317,0.55283517,0.31166103,0.05321239,0.53593916,-0.30188856,-0.29646447,-0.44350043,-0.08081582,799.011,807.0696,807.8755,800.6227,710.7692,0.24102783203125,0.06658935546875,0.962158203125,4.269256591796875,-3.3795166015625,-1.1065673828125,1.0,1.0,1.0,1.0,1.0,25.0,
2023-09-08 00:14:08.855,1.0900779,0.6211715,0.67201334,0.4301847,0.6209477,0.1634951,0.2717331,0.40600026,0.8437786,0.41974458,0.12615006,0.78749317,0.53458375,0.3022342,0.04020128,0.5260249,-0.30597186,-0.3012462,-0.4579362,-0.06877359,790.54944,809.4872,815.12823,807.8755,906.5934,0.24102783203125,0.06658935546875,0.962158203125,4.269256591796875,-3.3795166015625,-1.1065673828125,1.0,1.0,1.0,1.0,1.0,25.0,
2023-09-08 00:14:08.933,1.0900779,0.6211715,0.67201334,0.4301847,0.6209477,0.1634951,0.2717331,0.40600026,0.8437786,0.41974458,0.12615006,0.78749317,0.53458375,0.3022342,0.04020128,0.5260249,-0.30597186,-0.3012462,-0.4579362,-0.06877359,804.2491,809.89014,804.65204,784.5055,661.6117,0.24237060546875,0.07177734375,0.95916748046875,4.6356201171875,-2.415008544921875,-1.353302001953125,1.0,1.0,1.0,1.0,1.0,25.0,
2023-09-08 00:14:08.940,1.0673085,0.6444051,0.7360645,0.4110423,0.5953314,0.15715931,0.25737998,0.39678052,0.8441059,0.41974458,0.14975473,0.7852011,0.52334845,0.29572,0.029601196,0.51337916,-0.30452973,-0.2988559,-0.4711074,-0.056849584,804.65204,805.4579,805.8608,808.2784,1085.8975,0.24237060546875,0.07177734375,0.95916748046875,4.6356201171875,-2.415008544921875,-1.353302001953125,1.0,1.0,1.0,1.0,1.0,25.0,
2023-09-08 00:14:08.999,1.0673085,0.6444051,0.7360645,0.4110423,0.5953314,0.15715931,0.25737998,0.39678052,0.8441059,0.41974458,0.14975473,0.7852011,0.52334845,0.29572,0.029601196,0.51337916,-0.30452973,-0.2988559,-0.4711074,-0.056849584,792.5641,807.0696,795.78754,801.8315,789.7436,0.24029541015625,0.07000732421875,0.95733642578125,4.358978271484375,-2.773895263671875,-0.52337646484375,1.0,1.0,1.0,1.0,1.0,25.0,
2023-09-08 00:14:09.062,1.0673085,0.6444051,0.7360645,0.4110423,0.5953314,0.15715931,0.25737998,0.39678052,0.8441059,0.41974458,0.14975473,0.7852011,0.52334845,0.29572,0.029601196,0.51337916,-0.30452973,-0.2988559,-0.4711074,-0.056849584,794.17584,791.3553,783.69965,790.9524,951.7216,0.23809814453125,0.065673828125,0.96282958984375,4.5458984375,-3.03558349609375,-1.398162841796875,1.0,1.0,1.0,1.0,1.0,25.0,
2023-09-08 00:14:09.070,1.0495988,0.6602219,0.78302836,0.36822703,0.5706954,0.1500684,0.23359866,0.36982417,0.8441059,0.41652724,0.17277306,0.77633095,0.51912934,0.2932594,0.02456319,0.5026305,-0.29742378,-0.29664195,-0.48196116,-0.04224443,798.20514,804.2491,793.36993,772.4176,652.3443,0.23809814453125,0.065673828125,0.96282958984375,4.5458984375,-3.03558349609375,-1.398162841796875,1.0,1.0,1.0,1.0,1.0,25.0,
2023-09-08 00:14:09.081,1.0495988,0.6602219,0.78302836,0.36822703,0.5706954,0.1500684,0.23359866,0.36982417,0.8441059,0.41652724,0.17277306,0.77633095,0.51912934,0.2932594,0.02456319,0.5026305,-0.29742378,-0.29664195,-0.48196116,-0.04224443,800.6227,803.44324,787.72894,766.3736,711.1722,0.24176025390625,0.07177734375,0.9638671875,4.867401123046875,-2.429962158203125,-0.79254150390625,1.0,1.0,1.0,1.0,1.0,25.0,
2023-09-08 00:14:09.213,1.0495988,0.6602219,0.78302836,0.36822703,0.5706954,0.1500684,0.23359866,0.36982417,0.8441059,0.41652724,0.17277306,0.77633095,0.51912934,0.2932594,0.02456319,0.5026305,-0.29742378,-0.29664195,-0.48196116,-0.04224443,798.20514,800.2198,790.14655,790.9524,662.4176,0.2369384765625,0.06805419921875,0.9608154296875,4.179534912109375,-1.921539306640625,-0.814971923828125,1.0,1.0,1.0,1.0,1.0,25.0,
2023-09-08 00:14:09.215,1.0353565,0.6670834,0.8163347,0.3096463,0.5125309,0.14156146,0.20025857,0.32621533,0.8441059,0.39774135,0.18897863,0.7708024,0.5258644,0.29132372,0.024145266,0.49422273,-0.2797814,-0.29856023,-0.49308097,-0.028236747,797.3993,795.38464,792.96704,770.80585,643.47986,0.2369384765625,0.06805419921875,0.9608154296875,4.179534912109375,-1.921539306640625,-0.814971923828125,1.0,1.0,1.0,1.0,1.0,25.0,
2023-09-08 00:14:09.260,1.0353565,0.6670834,0.8163347,0.3096463,0.5125309,0.14156146,0.20025857,0.32621533,0.8441059,0.39774135,0.18897863,0.7708024,0.5258644,0.29132372,0.024145266,0.49422273,-0.2797814,-0.29856023,-0.49308097,-0.028236747,789.34064,795.78754,805.4579,766.77655,605.2015,0.23040771484375,0.06683349609375,0.955078125,4.97955322265625,-2.071075439453125,-0.785064697265625,1.0,1.0,1.0,1.0,1.0,25.0,
2023-09-08 00:14:09.277,1.0353565,0.6670834,0.8163347,0.3096463,0.5125309,0.14156146,0.20025857,0.32621533,0.8441059,0.39774135,0.18897863,0.7708024,0.5258644,0.29132372,0.024145266,0.49422273,-0.2797814,-0.29856023,-0.49308097,-0.028236747,792.5641,811.50183,808.68134,808.2784,689.011,0.23065185546875,0.07257080078125,0.961669921875,4.628143310546875,-1.891632080078125,-0.575714111328125,1.0,1.0,1.0,1.0,1.0,25.0,
2023-09-08 00:14:09.279,1.0270004,0.66456246,0.84134674,0.26198655,0.44682905,0.13415878,0.16750656,0.27895892,0.8441059,0.36480477,0.21909711,0.77025,0.5230188,0.28604412,0.022768913,0.486338,-0.26439095,-0.30380175,-0.50984657,-0.0168034,789.34064,806.26373,804.2491,770.80585,655.56775,0.23065185546875,0.07257080078125,0.961669921875,4.628143310546875,-1.891632080078125,-0.575714111328125,1.0,1.0,1.0,1.0,1.0,25.0,
2023-09-08 00:14:09.316,1.0270004,0.66456246,0.84134674,0.26198655,0.44682905,0.13415878,0.16750656,0.27895892,0.8441059,0.36480477,0.21909711,0.77025,0.5230188,0.28604412,0.022768913,0.486338,-0.26439095,-0.30380175,-0.50984657,-0.0168034,780.4762,797.8022,794.57874,788.1319,702.3077,0.23223876953125,0.06561279296875,0.9630126953125,4.77020263671875,-3.529052734375,-0.426177978515625,1.0,1.0,1.0,1.0,1.0,25.0,
2023-09-08 00:14:09.360,1.0270004,0.66456246,0.84134674,0.26198655,0.44682905,0.13415878,0.16750656,0.27895892,0.8441059,0.36480477,0.21909711,0.77025,0.5230188,0.28604412,0.022768913,0.486338,-0.26439095,-0.30380175,-0.50984657,-0.0168034,782.8938,805.8608,796.1905,766.77655,674.90845,0.23895263671875,0.07061767578125,0.9638671875,4.3963623046875,-3.46923828125,-0.897216796875,1.0,1.0,1.0,1.0,1.0,25.0,
2023-09-08 00:14:09.363,1.0203098,0.65313894,0.8694925,0.2506559,0.39230645,0.1328863,0.1446549,0.24776423,0.8441059,0.33107415,0.25871506,0.7583376,0.50954205,0.27771178,0.014929618,0.47883704,-0.25680095,-0.30752742,-0.53396785,-0.008647839,784.5055,797.3993,790.54944,772.4176,903.7729,0.23895263671875,0.07061767578125,0.9638671875,4.3963623046875,-3.46923828125,-0.897216796875,1.0,1.0,1.0,1.0,1.0,25.0,
2023-09-08 00:14:09.433,1.0203098,0.65313894,0.8694925,0.2506559,0.39230645,0.1328863,0.1446549,0.24776423,0.8441059,0.33107415,0.25871506,0.7583376,0.50954205,0.27771178,0.014929618,0.47883704,-0.25680095,-0.30752742,-0.53396785,-0.008647839,788.93774,801.4286,788.5348,770.40295,745.82416,0.23876953125,0.07525634765625,0.96234130859375,4.269256591796875,-3.00567626953125,-0.9869384765625,1.0,1.0,1.0,1.0,1.0,25.0,
2023-09-08 00:14:09.438,1.0088778,0.63930374,0.90282005,0.27526397,0.35953286,0.13968402,0.12744895,0.24206145,0.83556193,0.2819781,0.2829891,0.71029836,0.49222696,0.27014753,0.0002768862,0.47373506,-0.25352564,-0.30545834,-0.56012905,-0.0030144937,802.6374,798.60803,796.99634,792.96704,809.4872,0.23876953125,0.07525634765625,0.96234130859375,4.269256591796875,-3.00567626953125,-0.9869384765625,1.0,1.0,1.0,1.0,1.0,25.0,
2023-09-08 00:14:09.490,1.0088778,0.63930374,0.90282005,0.27526397,0.35953286,0.13968402,0.12744895,0.24206145,0.83556193,0.2819781,0.2829891,0.71029836,0.49222696,0.27014753,0.0002768862,0.47373506,-0.25352564,-0.30545834,-0.56012905,-0.0030144937,798.60803,807.47253,803.8461,788.93774,641.06226,0.23858642578125,0.07037353515625,0.96258544921875,4.299163818359375,-2.579498291015625,-1.016845703125,1.0,1.0,1.0,1.0,1.0,25.0,
2023-09-08 00:14:09.563,1.0088778,0.63930374,0.90282005,0.27526397,0.35953286,0.13968402,0.12744895,0.24206145,0.83556193,0.2819781,0.2829891,0.71029836,0.49222696,0.27014753,0.0002768862,0.47373506,-0.25352564,-0.30545834,-0.56012905,-0.0030144937,786.52014,813.5165,796.5934,807.0696,767.5824,0.2449951171875,0.07147216796875,0.96044921875,4.4561767578125,-2.758941650390625,-1.173858642578125,1.0,1.0,1.0,1.0,1.0,25.0,
2023-09-08 00:14:09.579,0.98752373,0.6209937,0.9304434,0.29964802,0.34327608,0.14956997,0.103133984,0.25138327,0.8233462,0.21440862,0.2829891,0.658044,0.4776488,0.26445293,-0.015210165,0.47183785,-0.2497636,-0.29578215,-0.579377,0.0025550388,811.50183,819.5604,803.44324,804.2491,643.47986,0.2449951171875,0.07147216796875,0.96044921875,4.4561767578125,-2.758941650390625,-1.173858642578125,1.0,1.0,1.0,1.0,1.0,25.0,
2023-09-08 00:14:09.612,0.98752373,0.6209937,0.9304434,0.29964802,0.34327608,0.14956997,0.103133984,0.25138327,0.8233462,0.21440862,0.2829891,0.658044,0.4776488,0.26445293,-0.015210165,0.47183785,-0.2497636,-0.29578215,-0.579377,0.0025550388,821.1722,825.6044,813.5165,799.81683,682.1612,0.24151611328125,0.06951904296875,0.9608154296875,4.5458984375,-2.58697509765625,-0.680389404296875,1.0,1.0,1.0,1.0,1.0,25.0,
2023-09-08 00:14:09.657,0.95852053,0.60106945,0.9494967,0.32786888,0.3319866,0.15644097,0.07443368,0.2619058,0.8015044,0.17944652,0.2829891,0.61426234,0.46242973,0.25407305,-0.025814513,0.47131446,-0.245663,-0.2802344,-0.58726984,0.009668559,803.8461,819.5604,812.71063,807.8755,695.05493,0.24151611328125,0.06951904296875,0.9608154296875,4.5458984375,-2.58697509765625,-0.680389404296875,1.0,1.0,1.0,1.0,1.0,25.0,
2023-09-08 00:14:09.662,0.95852053,0.60106945,0.9494967,0.32786888,0.3319866,0.15644097,0.07443368,0.2619058,0.8015044,0.17944652,0.2829891,0.61426234,0.46242973,0.25407305,-0.025814513,0.47131446,-0.245663,-0.2802344,-0.58726984,0.009668559,803.44324,819.5604,812.71063,816.7399,721.2454,0.23699951171875,0.07037353515625,0.9635009765625,4.5159912109375,-2.4822998046875,-0.321502685546875,1.0,1.0,1.0,1.0,1.0,25.0,
2023-09-08 00:14:09.749,0.95852053,0.60106945,0.9494967,0.32786888,0.3319866,0.15644097,0.07443368,0.2619058,0.8015044,0.17944652,0.2829891,0.61426234,0.46242973,0.25407305,-0.025814513,0.47131446,-0.245663,-0.2802344,-0.58726984,0.009668559,806.6667,810.696,807.0696,787.72894,635.0183,0.235595703125,0.0716552734375,0.96392822265625,4.314117431640625,-2.5421142578125,-0.770111083984375,1.0,1.0,1.0,1.0,1.0,25.0,
2023-09-08 00:14:09.779,0.95852053,0.60106945,0.9494967,0.32786888,0.3319866,0.15644097,0.07443368,0.2619058,0.8015044,0.17944652,0.2829891,0.61426234,0.46242973,0.25407305,-0.025814513,0.47131446,-0.245663,-0.2802344,-0.58726984,0.009668559,804.65204,804.65204,797.3993,786.9231,678.1319,0.23577880859375,0.07000732421875,0.960205078125,4.5159912109375,-2.489776611328125,-1.51031494140625,1.0,1.0,1.0,1.0,1.0,25.0,
2023-09-08 00:14:09.780,0.92460763,0.5851262,0.9634891,0.37964684,0.32088515,0.15872265,0.05944707,0.27275372,0.8056325,0.18753444,0.2829891,0.55811316,0.4356414,0.23067775,-0.029121812,0.4672139,-0.24584082,-0.26212972,-0.58675766,0.019310672,802.6374,809.89014,796.1905,809.89014,743.4066,0.23577880859375,0.07000732421875,0.960205078125,4.5159912109375,-2.489776611328125,-1.51031494140625,1.0,1.0,1.0,1.0,1.0,25.0,
2023-09-08 00:14:09.816,0.92460763,0.5851262,0.9634891,0.37964684,0.32088515,0.15872265,0.05944707,0.27275372,0.8056325,0.18753444,0.2829891,0.55811316,0.4356414,0.23067775,-0.029121812,0.4672139,-0.24584082,-0.26212972,-0.58675766,0.019310672,795.78754,800.6227,795.78754,824.7985,1080.2565,0.23150634765625,0.069091796875,0.96978759765625,5.0543212890625,-2.519683837890625,-0.336456298828125,1.0,1.0,1.0,1.0,1.0,25.0,
2023-09-08 00:14:09.869,0.92460763,0.5851262,0.9634891,0.37964684,0.32088515,0.15872265,0.05944707,0.27275372,0.8056325,0.18753444,0.2829891,0.55811316,0.4356414,0.23067775,-0.029121812,0.4672139,-0.24584082,-0.26212972,-0.58675766,0.019310672,810.696,808.68134,798.20514,776.8498,605.2015,0.23529052734375,0.07220458984375,0.9593505859375,4.20196533203125,-3.349609375,-0.85235595703125,1.0,1.0,1.0,1.0,1.0,25.0,
2023-09-08 00:14:09.872,0.8941533,0.5886816,0.9803763,0.46142524,0.31169513,0.16030854,0.07418411,0.2854979,0.8202428,0.23535605,0.30781543,0.49563798,0.39215264,0.19417684,-0.026719347,0.45489955,-0.252151,-0.24568427,-0.5831906,0.029941766,807.8755,806.26373,805.05493,822.7839,807.47253,0.23529052734375,0.07220458984375,0.9593505859375,4.20196533203125,-3.349609375,-0.85235595703125,1.0,1.0,1.0,1.0,1.0,25.0,
2023-09-08 00:14:09.990,0.8941533,0.5886816,0.9803763,0.46142524,0.31169513,0.16030854,0.07418411,0.2854979,0.8202428,0.23535605,0.30781543,0.49563798,0.39215264,0.19417684,-0.026719347,0.45489955,-0.252151,-0.24568427,-0.5831906,0.029941766,770.40295,794.57874,792.5641,798.20514,742.6007,0.23846435546875,0.06988525390625,0.9586181640625,4.366455078125,-2.459869384765625,-1.77947998046875,1.0,1.0,1.0,1.0,1.0,25.0,
2023-09-08 00:14:09.997,0.87557167,0.6193009,1.005514,0.5550441,0.30608395,0.16168116,0.11155048,0.30151582,0.8263778,0.24322212,0.34020442,0.4572779,0.3412621,0.15819184,-0.019493463,0.43373594,-0.26040757,-0.23254725,-0.5800619,0.036917955,778.46155,802.23444,788.93774,797.3993,821.5751,0.23846435546875,0.06988525390625,0.9586181640625,4.366455078125,-2.459869384765625,-1.77947998046875,1.0,1.0,1.0,1.0,1.0,25.0,
2023-09-08 00:14:10.015,0.87557167,0.6193009,1.005514,0.5550441,0.30608395,0.16168116,0.11155048,0.30151582,0.8263778,0.24322212,0.34020442,0.4572779,0.3412621,0.15819184,-0.019493463,0.43373594,-0.26040757,-0.23254725,-0.5800619,0.036917955,778.86444,816.7399,796.99634,778.0586,603.9927,0.2406005859375,0.0726318359375,0.96636962890625,4.306640625,-2.938385009765625,-0.351409912109375,1.0,1.0,1.0,1.0,1.0,25.0,
2023-09-08 00:14:10.045,0.87557167,0.6193009,1.005514,0.5550441,0.30608395,0.16168116,0.11155048,0.30151582,0.8263778,0.24322212,0.34020442,0.4572779,0.3412621,0.15819184,-0.019493463,0.43373594,-0.26040757,-0.23254725,-0.5800619,0.036917955,787.326,803.8461,794.9817,803.8461,694.65204,0.23675537109375,0.06878662109375,0.96014404296875,4.119720458984375,-3.491668701171875,-0.859832763671875,1.0,1.0,1.0,1.0,1.0,25.0,
2023-09-08 00:14:10.048,0.88025755,0.6601502,1.0316396,0.63099957,0.30429932,0.16007662,0.15374216,0.3170175,0.8155609,0.2405113,0.3386014,0.4715251,0.30006236,0.1413376,-0.007906242,0.40900663,-0.2633928,-0.22129212,-0.5767565,0.038140252,784.10254,807.47253,805.8608,805.8608,760.32965,0.23675537109375,0.06878662109375,0.96014404296875,4.119720458984375,-3.491668701171875,-0.859832763671875,1.0,1.0,1.0,1.0,1.0,25.0,
2023-09-08 00:14:10.087,0.88025755,0.6601502,1.0316396,0.63099957,0.30429932,0.16007662,0.15374216,0.3170175,0.8155609,0.2405113,0.3386014,0.4715251,0.30006236,0.1413376,-0.007906242,0.40900663,-0.2633928,-0.22129212,-0.5767565,0.038140252,775.2381,802.23444,804.65204,804.65204,906.1905,0.23358154296875,0.06805419921875,0.96954345703125,4.71038818359375,-2.056121826171875,-0.59814453125,1.0,1.0,1.0,1.0,1.0,25.0,
2023-09-08 00:14:10.119,0.88025755,0.6601502,1.0316396,0.63099957,0.30429932,0.16007662,0.15374216,0.3170175,0.8155609,0.2405113,0.3386014,0.4715251,0.30006236,0.1413376,-0.007906242,0.40900663,-0.2633928,-0.22129212,-0.5767565,0.038140252,782.0879,804.2491,808.2784,780.4762,712.381,0.23681640625,0.0650634765625,0.96484375,4.02252197265625,-2.953338623046875,-1.443023681640625,1.0,1.0,1.0,1.0,1.0,25.0,
2023-09-08 00:14:10.124,0.914363,0.69251114,1.0487666,0.6801632,0.31342506,0.1546898,0.19317462,0.32920527,0.74878067,0.24795082,0.32926294,0.4715251,0.27910152,0.14942494,0.0064393124,0.38800487,-0.25704572,-0.20727403,-0.56961834,0.03598775,770.0,802.6374,807.8755,800.2198,1105.238,0.23681640625,0.0650634765625,0.96484375,4.02252197265625,-2.953338623046875,-1.443023681640625,1.0,1.0,1.0,1.0,1.0,25.0,
2023-09-08 00:14:10.255,0.914363,0.69251114,1.0487666,0.6801632,0.31342506,0.1546898,0.19317462,0.32920527,0.74878067,0.24795082,0.32926294,0.4715251,0.27910152,0.14942494,0.0064393124,0.38800487,-0.25704572,-0.20727403,-0.56961834,0.03598775,769.19415,809.4872,795.38464,792.5641,741.79486,0.2366943359375,0.06195068359375,0.95904541015625,4.68048095703125,-1.4056396484375,-1.353302001953125,1.0,1.0,1.0,1.0,1.0,25.0,
2023-09-08 00:14:10.262,0.95942116,0.7063315,1.0533805,0.7079063,0.341907,0.14691459,0.22786932,0.33989513,0.6899269,0.25332806,0.32743353,0.4715251,0.2719719,0.16998444,0.020665238,0.37407658,-0.2430839,-0.18865508,-0.55837935,0.034004923,784.10254,796.1905,799.41394,773.6264,702.3077,0.2366943359375,0.06195068359375,0.95904541015625,4.68048095703125,-1.4056396484375,-1.353302001953125,1.0,1.0,1.0,1.0,1.0,25.0,
2023-09-08 00:14:10.306,0.95942116,0.7063315,1.0533805,0.7079063,0.341907,0.14691459,0.22786932,0.33989513,0.6899269,0.25332806,0.32743353,0.4715251,0.2719719,0.16998444,0.020665238,0.37407658,-0.2430839,-0.18865508,-0.55837935,0.034004923,777.6557,803.8461,797.3993,764.7619,582.23444,0.23199462890625,0.0672607421875,0.96258544921875,4.687957763671875,-2.1533203125,-0.575714111328125,1.0,1.0,1.0,1.0,1.0,25.0,
2023-09-08 00:14:10.365,0.95942116,0.7063315,1.0533805,0.7079063,0.341907,0.14691459,0.22786932,0.33989513,0.6899269,0.25332806,0.32743353,0.4715251,0.2719719,0.16998444,0.020665238,0.37407658,-0.2430839,-0.18865508,-0.55837935,0.034004923,783.2967,808.2784,801.02563,811.50183,807.8755,0.2283935546875,0.06494140625,0.95751953125,4.628143310546875,-3.15521240234375,-0.418701171875,1.0,1.0,1.0,1.0,1.0,25.0,
2023-09-08 00:14:10.419,0.95942116,0.7063315,1.0533805,0.7079063,0.341907,0.14691459,0.22786932,0.33989513,0.6899269,0.25332806,0.32743353,0.4715251,0.2719719,0.16998444,0.020665238,0.37407658,-0.2430839,-0.18865508,-0.55837935,0.034004923,803.8461,806.26373,802.6374,801.02563,701.9048,0.23443603515625,0.0682373046875,0.96783447265625,4.523468017578125,-3.21502685546875,-0.6280517578125,1.0,1.0,1.0,1.0,1.0,25.0,
2023-09-08 00:14:10.420,1.0012512,0.7013737,1.0425639,0.7248632,0.38772312,0.14143266,0.25851583,0.3530684,0.6514207,0.25416186,0.32743353,0.4715251,0.2665154,0.18897119,0.031955156,0.36576295,-0.22854418,-0.16821249,-0.5492281,0.032402616,812.71063,800.2198,808.68134,795.78754,729.304,0.23443603515625,0.0682373046875,0.96783447265625,4.523468017578125,-3.21502685546875,-0.6280517578125,1.0,1.0,1.0,1.0,1.0,25.0,
2023-09-08 00:14:10.516,1.0012512,0.7013737,1.0425639,0.7248632,0.38772312,0.14143266,0.25851583,0.3530684,0.6514207,0.25416186,0.32743353,0.4715251,0.2665154,0.18897119,0.031955156,0.36576295,-0.22854418,-0.16821249,-0.5492281,0.032402616,793.36993,803.0403,800.6227,809.0842,770.80585,0.23907470703125,0.06494140625,0.96112060546875,4.5458984375,-3.222503662109375,-1.443023681640625,1.0,1.0,1.0,1.0,1.0,25.0,
2023-09-08 00:14:10.519,1.0209734,0.6860917,1.0213286,0.7391643,0.40776032,0.1406693,0.2859602,0.36880752,0.62959087,0.26276127,0.32743353,0.4715251,0.26054922,0.2004815,0.038879078,0.3597866,-0.22470427,-0.15062745,-0.5476735,0.027538687,799.81683,807.0696,805.05493,780.4762,669.67035,0.23907470703125,0.06494140625,0.96112060546875,4.5458984375,-3.222503662109375,-1.443023681640625,1.0,1.0,1.0,1.0,1.0,25.0,
2023-09-08 00:14:10.555,1.0209734,0.6860917,1.0213286,0.7391643,0.40776032,0.1406693,0.2859602,0.36880752,0.62959087,0.26276127,0.32743353,0.4715251,0.26054922,0.2004815,0.038879078,0.3597866,-0.22470427,-0.15062745,-0.5476735,0.027538687,788.93774,809.4872,807.8755,805.05493,869.12085,0.23797607421875,0.06915283203125,0.96282958984375,4.314117431640625,-2.459869384765625,-1.435546875,1.0,1.0,1.0,1.0,1.0,25.0,
2023-09-08 00:14:10.568,1.0209734,0.6860917,1.0213286,0.7391643,0.40776032,0.1406693,0.2859602,0.36880752,0.62959087,0.26276127,0.32743353,0.4715251,0.26054922,0.2004815,0.038879078,0.3597866,-0.22470427,-0.15062745,-0.5476735,0.027538687,778.86444,804.65204,796.1905,773.6264,714.7985,0.23529052734375,0.06903076171875,0.9639892578125,4.433746337890625,-2.43743896484375,-0.4486083984375,1.0,1.0,1.0,1.0,1.0,25.0,
2023-09-08 00:14:10.572,1.039106,0.66786206,0.99789023,0.74963963,0.4316101,0.14270899,0.30699903,0.3862771,0.62300885,0.2706518,0.32743353,0.4715251,0.24122116,0.20484225,0.040504344,0.3546177,-0.22597562,-0.13886449,-0.5527423,0.018862804,782.0879,810.293,798.20514,782.8938,692.6374,0.23529052734375,0.06903076171875,0.9639892578125,4.433746337890625,-2.43743896484375,-0.4486083984375,1.0,1.0,1.0,1.0,1.0,25.0,
2023-09-08 00:14:10.619,1.039106,0.66786206,0.99789023,0.74963963,0.4316101,0.14270899,0.30699903,0.3862771,0.62300885,0.2706518,0.32743353,0.4715251,0.24122116,0.20484225,0.040504344,0.3546177,-0.22597562,-0.13886449,-0.5527423,0.018862804,774.43225,816.7399,796.99634,806.6667,790.9524,0.2322998046875,0.065673828125,0.9593505859375,4.71038818359375,-2.79632568359375,-0.560760498046875,1.0,1.0,1.0,1.0,1.0,25.0,
2023-09-08 00:14:10.669,1.039106,0.66786206,0.99789023,0.74963963,0.4316101,0.14270899,0.30699903,0.3862771,0.62300885,0.2706518,0.32743353,0.4715251,0.24122116,0.20484225,0.040504344,0.3546177,-0.22597562,-0.13886449,-0.5527423,0.018862804,788.93774,807.8755,802.23444,796.5934,751.8681,0.2366943359375,0.0670166015625,0.966796875,5.00946044921875,-2.9010009765625,-0.665435791015625,1.0,1.0,1.0,1.0,1.0,25.0,
2023-09-08 00:14:10.675,1.0599389,0.65180886,0.97249043,0.7558128,0.45519823,0.14200756,0.3163212,0.40428904,0.61417955,0.27284938,0.32743353,0.4715251,0.21156457,0.20466077,0.036263805,0.35065597,-0.22951654,-0.13354607,-0.556583,0.01399171,779.2674,796.5934,789.34064,782.49084,1005.31134,0.2366943359375,0.0670166015625,0.966796875,5.00946044921875,-2.9010009765625,-0.665435791015625,1.0,1.0,1.0,1.0,1.0,25.0,
2023-09-08 00:14:10.772,1.0599389,0.65180886,0.97249043,0.7558128,0.45519823,0.14200756,0.3163212,0.40428904,0.61417955,0.27284938,0.32743353,0.4715251,0.21156457,0.20466077,0.036263805,0.35065597,-0.22951654,-0.13354607,-0.556583,0.01399171,785.7143,807.8755,795.78754,801.02563,705.12823,0.2384033203125,0.071533203125,0.95501708984375,4.88983154296875,-2.88604736328125,-0.52337646484375,1.0,1.0,1.0,1.0,1.0,25.0,
2023-09-08 00:14:10.778,1.0941323,0.64079624,0.94500214,0.7575354,0.47184882,0.12994023,0.3112659,0.42221066,0.6010841,0.27284938,0.323984,0.47678074,0.19132388,0.2021866,0.029409487,0.34942785,-0.20768626,-0.13436148,-0.5503642,0.018243285,794.9817,797.3993,803.0403,797.3993,811.50183,0.2384033203125,0.071533203125,0.95501708984375,4.88983154296875,-2.88604736328125,-0.52337646484375,1.0,1.0,1.0,1.0,1.0,25.0,
2023-09-08 00:14:10.823,1.0941323,0.64079624,0.94500214,0.7575354,0.47184882,0.12994023,0.3112659,0.42221066,0.6010841,0.27284938,0.323984,0.47678074,0.19132388,0.2021866,0.029409487,0.34942785,-0.20768626,-0.13436148,-0.5503642,0.018243285,767.98535,790.14655,811.9048,747.8388,624.5421,0.2349853515625,0.07586669921875,0.96075439453125,5.33843994140625,-3.22998046875,-0.95703125,1.0,1.0,1.0,1.0,1.0,25.0,
2023-09-08 00:14:10.897,1.0941323,0.64079624,0.94500214,0.7575354,0.47184882,0.12994023,0.3112659,0.42221066,0.6010841,0.27284938,0.323984,0.47678074,0.19132388,0.2021866,0.029409487,0.34942785,-0.20768626,-0.13436148,-0.5503642,0.018243285,727.28937,752.27106,799.81683,718.022,695.4579,0.23443603515625,0.0697021484375,0.96124267578125,4.127197265625,-2.093505859375,-0.620574951171875,1.0,1.0,1.0,1.0,1.0,25.0,
2023-09-08 00:14:10.908,1.1248941,0.6416922,0.91040033,0.7665636,0.48693287,0.100492716,0.293582,0.4356418,0.58698976,0.27284938,0.31378216,0.47625452,0.17655122,0.19682728,0.027248127,0.34965384,-0.19674976,-0.14205585,-0.52966416,0.018570008,784.10254,767.5824,800.6227,783.2967,665.64105,0.23443603515625,0.0697021484375,0.96124267578125,4.127197265625,-2.093505859375,-0.620574951171875,1.0,1.0,1.0,1.0,1.0,25.0,
2023-09-08 00:14:10.944,1.1248941,0.6416922,0.91040033,0.7665636,0.48693287,0.100492716,0.293582,0.4356418,0.58698976,0.27284938,0.31378216,0.47625452,0.17655122,0.19682728,0.027248127,0.34965384,-0.19674976,-0.14205585,-0.52966416,0.018570008,792.1612,762.74725,801.02563,806.26373,819.9634,0.2379150390625,0.06988525390625,0.9599609375,4.11224365234375,-3.357086181640625,-0.478515625,1.0,1.0,1.0,1.0,1.0,25.0,
2023-09-08 00:14:10.994,1.1248941,0.6416922,0.91040033,0.7665636,0.48693287,0.100492716,0.293582,0.4356418,0.58698976,0.27284938,0.31378216,0.47625452,0.17655122,0.19682728,0.027248127,0.34965384,-0.19674976,-0.14205585,-0.52966416,0.018570008,828.022,792.1612,794.57874,823.9927,713.9927,0.23455810546875,0.06707763671875,0.95916748046875,4.194488525390625,-3.5888671875,-1.263580322265625,1.0,1.0,1.0,1.0,1.0,25.0,
2023-09-08 00:14:10.995,1.1580048,0.6787149,0.87048835,0.7768716,0.49643534,0.06253083,0.2742191,0.44044447,0.5783561,0.281346,0.2823355,0.4293778,0.17100978,0.18491332,0.03381683,0.3502449,-0.18008162,-0.15736647,-0.49314606,0.017204048,822.381,792.1612,797.8022,836.8865,737.76556,0.23455810546875,0.06707763671875,0.95916748046875,4.194488525390625,-3.5888671875,-1.263580322265625,1.0,1.0,1.0,1.0,1.0,25.0,
2023-09-08 00:14:11.073,1.1580048,0.6787149,0.87048835,0.7768716,0.49643534,0.06253083,0.2742191,0.44044447,0.5783561,0.281346,0.2823355,0.4293778,0.17100978,0.18491332,0.03381683,0.3502449,-0.18008162,-0.15736647,-0.49314606,0.017204048,823.5897,807.47253,808.2784,850.989,1136.6666,0.23992919921875,0.06689453125,0.959716796875,4.71038818359375,-2.370147705078125,-1.024322509765625,1.0,1.0,1.0,1.0,1.0,25.0,
2023-09-08 00:14:11.085,1.1580048,0.6787149,0.87048835,0.7768716,0.49643534,0.06253083,0.2742191,0.44044447,0.5783561,0.281346,0.2823355,0.4293778,0.17100978,0.18491332,0.03381683,0.3502449,-0.18008162,-0.15736647,-0.49314606,0.017204048,801.8315,813.5165,792.5641,791.3553,640.65936,0.2384033203125,0.06854248046875,0.9661865234375,3.760833740234375,-2.07855224609375,-0.755157470703125,1.0,1.0,1.0,1.0,1.0,25.0,
2023-09-08 00:14:11.087,1.1912092,0.70100015,0.8335834,0.79476035,0.502504,0.003690996,0.26853666,0.43746424,0.57831806,0.27972457,0.23682287,0.37480804,0.1652247,0.17995575,0.043864418,0.3470249,-0.16396472,-0.16816692,-0.44654456,0.013947888,803.44324,821.978,792.1612,827.2161,812.3077,0.2384033203125,0.06854248046875,0.9661865234375,3.760833740234375,-2.07855224609375,-0.755157470703125,1.0,1.0,1.0,1.0,1.0,25.0,
2023-09-08 00:14:11.131,1.1912092,0.70100015,0.8335834,0.79476035,0.502504,0.003690996,0.26853666,0.43746424,0.57831806,0.27972457,0.23682287,0.37480804,0.1652247,0.17995575,0.043864418,0.3470249,-0.16396472,-0.16816692,-0.44654456,0.013947888,796.99634,821.1722,805.05493,807.0696,728.49817,0.23492431640625,0.062744140625,0.95965576171875,4.11224365234375,-2.459869384765625,-0.6878662109375,1.0,1.0,1.0,1.0,1.0,25.0,
2023-09-08 00:14:11.163,1.1912092,0.70100015,0.8335834,0.79476035,0.502504,0.003690996,0.26853666,0.43746424,0.57831806,0.27972457,0.23682287,0.37480804,0.1652247,0.17995575,0.043864418,0.3470249,-0.16396472,-0.16816692,-0.44654456,0.013947888,796.5934,811.50183,798.20514,809.0842,693.8461,0.2279052734375,0.0648193359375,0.9598388671875,4.5758056640625,-2.37762451171875,-1.323394775390625,1.0,1.0,1.0,1.0,1.0,25.0,
2023-09-08 00:14:11.166,1.2189915,0.72380507,0.80217737,0.8146074,0.5112369,-0.059708368,0.28080115,0.42654186,0.57831806,0.27972457,0.21319528,0.3510921,0.15241559,0.1746013,0.049349908,0.33744907,-0.15156694,-0.18914084,-0.40064576,0.00879844,788.1319,799.41394,784.90845,806.26373,1116.5201,0.2279052734375,0.0648193359375,0.9598388671875,4.5758056640625,-2.37762451171875,-1.323394775390625,1.0,1.0,1.0,1.0,1.0,25.0,
2023-09-08 00:14:11.265,1.2189915,0.72380507,0.80217737,0.8146074,0.5112369,-0.059708368,0.28080115,0.42654186,0.57831806,0.27972457,0.21319528,0.3510921,0.15241559,0.1746013,0.049349908,0.33744907,-0.15156694,-0.18914084,-0.40064576,0.00879844,811.9048,810.293,789.34064,802.6374,689.41394,0.2374267578125,0.06048583984375,0.96258544921875,4.41131591796875,-3.147735595703125,-1.09161376953125,1.0,1.0,1.0,1.0,1.0,25.0,
2023-09-08 00:14:11.269,1.232884,0.73771876,0.7709573,0.82259864,0.5273936,-0.107302755,0.30528906,0.40763775,0.57831806,0.27972457,0.313839,0.3389019,0.13375887,0.17472951,0.04714687,0.32261738,-0.14218327,-0.21501362,-0.36320662,-0.0006287374,775.2381,807.0696,782.8938,796.99634,794.9817,0.2374267578125,0.06048583984375,0.96258544921875,4.41131591796875,-3.147735595703125,-1.09161376953125,1.0,1.0,1.0,1.0,1.0,25.0,
2023-09-08 00:14:11.304,1.232884,0.73771876,0.7709573,0.82259864,0.5273936,-0.107302755,0.30528906,0.40763775,0.57831806,0.27972457,0.313839,0.3389019,0.13375887,0.17472951,0.04714687,0.32261738,-0.14218327,-0.21501362,-0.36320662,-0.0006287374,779.2674,815.9341,798.20514,796.99634,778.46155,0.2374267578125,0.064453125,0.96209716796875,4.68048095703125,-3.282318115234375,-0.785064697265625,1.0,1.0,1.0,1.0,1.0,25.0,
2023-09-08 00:14:11.354,1.232884,0.73771876,0.7709573,0.82259864,0.5273936,-0.107302755,0.30528906,0.40763775,0.57831806,0.27972457,0.313839,0.3389019,0.13375887,0.17472951,0.04714687,0.32261738,-0.14218327,-0.21501362,-0.36320662,-0.0006287374,786.52014,803.8461,786.52014,774.0293,1025.8608,0.2364501953125,0.06072998046875,0.9615478515625,4.47113037109375,-2.3028564453125,-0.64300537109375,1.0,1.0,1.0,1.0,1.0,25.0,
2023-09-08 00:14:11.366,1.233698,0.7306099,0.7271807,0.8041297,0.5468816,-0.13624266,0.32920992,0.38431552,0.57831806,0.27661848,0.42520392,0.32203478,0.11736477,0.1812969,0.04102249,0.30684704,-0.13366868,-0.23706679,-0.33452034,-0.01254481,780.4762,815.12823,793.7729,782.49084,721.6484,0.2364501953125,0.06072998046875,0.9615478515625,4.47113037109375,-2.3028564453125,-0.64300537109375,1.0,1.0,1.0,1.0,1.0,25.0,
2023-09-08 00:14:11.426,1.233698,0.7306099,0.7271807,0.8041297,0.5468816,-0.13624266,0.32920992,0.38431552,0.57831806,0.27661848,0.42520392,0.32203478,0.11736477,0.1812969,0.04102249,0.30684704,-0.13366868,-0.23706679,-0.33452034,-0.01254481,773.6264,807.0696,787.326,798.60803,683.7729,0.230712890625,0.0662841796875,0.965087890625,4.77020263671875,-2.654266357421875,-0.76263427734375,1.0,1.0,1.0,1.0,1.0,25.0,
2023-09-08 00:14:11.468,1.2297456,0.6885058,0.65853447,0.7483294,0.5635302,-0.16160505,0.34181324,0.3637925,0.552309,0.24112621,0.483968,0.26596242,0.11425892,0.18852775,0.036174916,0.29536197,-0.12397809,-0.24911772,-0.31116483,-0.021193229,774.43225,813.91943,801.4286,782.0879,663.6264,0.230712890625,0.0662841796875,0.965087890625,4.77020263671875,-2.654266357421875,-0.76263427734375,1.0,1.0,1.0,1.0,1.0,25.0,
2023-09-08 00:14:11.499,1.2297456,0.6885058,0.65853447,0.7483294,0.5635302,-0.16160505,0.34181324,0.3637925,0.552309,0.24112621,0.483968,0.26596242,0.11425892,0.18852775,0.036174916,0.29536197,-0.12397809,-0.24911772,-0.31116483,-0.021193229,778.86444,814.7253,804.65204,775.64105,587.47253,0.23590087890625,0.06719970703125,0.96038818359375,4.792633056640625,-2.3028564453125,-1.024322509765625,1.0,1.0,1.0,1.0,1.0,25.0,
2023-09-08 00:14:11.580,1.2297456,0.6885058,0.65853447,0.7483294,0.5635302,-0.16160505,0.34181324,0.3637925,0.552309,0.24112621,0.483968,0.26596242,0.11425892,0.18852775,0.036174916,0.29536197,-0.12397809,-0.24911772,-0.31116483,-0.021193229,790.9524,810.696,793.36993,797.8022,739.3773,0.2333984375,0.06768798828125,0.96563720703125,4.2767333984375,-2.64678955078125,-0.680389404296875,1.0,1.0,1.0,1.0,1.0,25.0,
2023-09-08 00:14:11.595,1.2297456,0.6885058,0.65853447,0.7483294,0.5635302,-0.16160505,0.34181324,0.3637925,0.552309,0.24112621,0.483968,0.26596242,0.11425892,0.18852775,0.036174916,0.29536197,-0.12397809,-0.24911772,-0.31116483,-0.021193229,804.65204,817.9487,799.81683,792.1612,736.1539,0.2332763671875,0.063720703125,0.95977783203125,4.762725830078125,-2.691650390625,-0.91217041015625,1.0,1.0,1.0,1.0,1.0,25.0,
2023-09-08 00:14:11.596,1.227501,0.61057067,0.57042706,0.6670406,0.5805185,-0.19207759,0.34047982,0.3536891,0.4693445,0.1887411,0.5219691,0.16687067,0.13134101,0.18856314,0.0353793,0.2917281,-0.11233344,-0.25226966,-0.29144168,-0.020845301,802.6374,811.0989,794.9817,774.83514,724.0659,0.2332763671875,0.063720703125,0.95977783203125,4.762725830078125,-2.691650390625,-0.91217041015625,1.0,1.0,1.0,1.0,1.0,25.0,
2023-09-08 00:14:11.649,1.227501,0.61057067,0.57042706,0.6670406,0.5805185,-0.19207759,0.34047982,0.3536891,0.4693445,0.1887411,0.5219691,0.16687067,0.13134101,0.18856314,0.0353793,0.2917281,-0.11233344,-0.25226966,-0.29144168,-0.020845301,794.9817,795.38464,794.57874,784.5055,815.9341,0.2337646484375,0.0665283203125,0.958984375,4.5758056640625,-2.459869384765625,-1.069183349609375,1.0,1.0,1.0,1.0,1.0,25.0,
2023-09-08 00:14:11.690,1.227501,0.61057067,0.57042706,0.6670406,0.5805185,-0.19207759,0.34047982,0.3536891,0.4693445,0.1887411,0.5219691,0.16687067,0.13134101,0.18856314,0.0353793,0.2917281,-0.11233344,-0.25226966,-0.29144168,-0.020845301,788.1319,805.4579,796.5934,813.91943,783.2967,0.23260498046875,0.067626953125,0.96734619140625,4.897308349609375,-3.177642822265625,-0.007476806640625,1.0,1.0,1.0,1.0,1.0,25.0,
2023-09-08 00:14:11.693,1.227501,0.50840926,0.4912576,0.58900374,0.5805185,-0.22624674,0.32637122,0.35145518,0.4693445,0.15489677,0.5458,0.099697106,0.13134101,0.17738506,0.0397768,0.29541135,-0.11233344,-0.2589093,-0.2761723,-0.01587614,802.23444,797.3993,781.685,773.22345,740.58606,0.23260498046875,0.067626953125,0.96734619140625,4.897308349609375,-3.177642822265625,-0.007476806640625,1.0,1.0,1.0,1.0,1.0,25.0,
2023-09-08 00:14:11.818,1.227501,0.50840926,0.4912576,0.58900374,0.5805185,-0.22624674,0.32637122,0.35145518,0.4693445,0.15489677,0.5458,0.099697106,0.13134101,0.17738506,0.0397768,0.29541135,-0.11233344,-0.2589093,-0.2761723,-0.01587614,806.26373,818.7546,804.2491,789.7436,668.46155,0.24066162109375,0.06170654296875,0.962890625,4.658050537109375,-3.18511962890625,-0.8074951171875,1.0,1.0,1.0,1.0,1.0,25.0,
2023-09-08 00:14:11.823,1.227501,0.41641885,0.43841586,0.5427889,0.5805185,-0.25011766,0.30447078,0.34744418,0.4693445,0.13052894,0.5530191,0.059234988,0.13134101,0.15498449,0.047792003,0.30500156,-0.11233344,-0.28355607,-0.2644186,-0.018627465,798.20514,805.05493,797.3993,781.28204,654.7619,0.24066162109375,0.06170654296875,0.962890625,4.658050537109375,-3.18511962890625,-0.8074951171875,1.0,1.0,1.0,1.0,1.0,25.0,
2023-09-08 00:14:11.866,1.227501,0.41641885,0.43841586,0.5427889,0.5805185,-0.25011766,0.30447078,0.34744418,0.4693445,0.13052894,0.5530191,0.059234988,0.13134101,0.15498449,0.047792003,0.30500156,-0.11233344,-0.28355607,-0.2644186,-0.018627465,793.36993,812.71063,796.5934,817.1429,751.8681,0.237548828125,0.06689453125,0.96234130859375,4.9945068359375,-1.95892333984375,-1.009368896484375,1.0,1.0,1.0,1.0,1.0,25.0,
2023-09-08 00:14:11.880,1.227501,0.41641885,0.43841586,0.5427889,0.5805185,-0.25011766,0.30447078,0.34744418,0.4693445,0.13052894,0.5530191,0.059234988,0.13134101,0.15498449,0.047792003,0.30500156,-0.11233344,-0.28355607,-0.2644186,-0.018627465,788.93774,817.9487,795.78754,785.7143,641.06226,0.2357177734375,0.067626953125,0.959716796875,4.35150146484375,-2.811279296875,-0.336456298828125,1.0,1.0,1.0,1.0,1.0,25.0,
2023-09-08 00:14:11.885,1.227501,0.37649685,0.41214386,0.5261661,0.5805185,-0.25548354,0.28046468,0.33577067,0.4693445,0.09562516,0.55484444,0.038889587,0.13134101,0.12538742,0.056152653,0.3185035,-0.11233344,-0.33265904,-0.25183675,-0.029779961,799.81683,821.978,791.75824,790.9524,712.381,0.2357177734375,0.067626953125,0.959716796875,4.35150146484375,-2.811279296875,-0.336456298828125,1.0,1.0,1.0,1.0,1.0,25.0,
2023-09-08 00:14:11.933,1.227501,0.37649685,0.41214386,0.5261661,0.5805185,-0.25548354,0.28046468,0.33577067,0.4693445,0.09562516,0.55484444,0.038889587,0.13134101,0.12538742,0.056152653,0.3185035,-0.11233344,-0.33265904,-0.25183675,-0.029779961,801.4286,811.9048,793.7729,784.5055,638.24176,0.2403564453125,0.064453125,0.9671630859375,4.62066650390625,-3.3197021484375,-0.919647216796875,1.0,1.0,1.0,1.0,1.0,25.0,
2023-09-08 00:14:11.980,1.227501,0.39814603,0.3963311,0.5261661,0.5805185,-0.24779505,0.26291957,0.33577067,0.4693445,0.059300493,0.55664784,0.038889587,0.13134101,0.09351264,0.062013302,0.3185035,-0.11233344,-0.3979816,-0.23476008,-0.029779961,802.23444,819.5604,803.0403,820.3663,1055.2748,0.2403564453125,0.064453125,0.9671630859375,4.62066650390625,-3.3197021484375,-0.919647216796875,1.0,1.0,1.0,1.0,1.0,25.0,
2023-09-08 00:14:12.022,1.227501,0.39814603,0.3963311,0.5261661,0.5805185,-0.24779505,0.26291957,0.33577067,0.4693445,0.059300493,0.55664784,0.038889587,0.13134101,0.09351264,0.062013302,0.3185035,-0.11233344,-0.3979816,-0.23476008,-0.029779961,798.20514,815.9341,798.60803,787.72894,699.4872,0.24072265625,0.06781005859375,0.96563720703125,4.613189697265625,-3.170166015625,-0.0,1.0,1.0,1.0,1.0,1.0,25.0,
2023-09-08 00:14:12.080,1.227501,0.39814603,0.3963311,0.5261661,0.5805185,-0.24779505,0.26291957,0.33577067,0.4693445,0.059300493,0.55664784,0.038889587,0.13134101,0.09351264,0.062013302,0.3185035,-0.11233344,-0.3979816,-0.23476008,-0.029779961,808.68134,823.9927,799.41394,800.6227,720.84247,0.25048828125,0.07305908203125,0.96484375,4.015045166015625,-2.773895263671875,0.291595458984375,1.0,1.0,1.0,1.0,1.0,25.0,
2023-09-08 00:14:12.089,1.227501,0.40699556,0.38575193,0.5261661,0.5805185,-0.25520322,0.26356086,0.33577067,0.4693445,0.08798908,0.5645911,0.038889587,0.13134101,0.07864916,0.064909376,0.3185035,-0.11233344,-0.35488546,-0.21363486,-0.029779961,798.60803,817.1429,790.9524,805.4579,706.7399,0.25048828125,0.07305908203125,0.96484375,4.015045166015625,-2.773895263671875,0.291595458984375,1.0,1.0,1.0,1.0,1.0,25.0,
2023-09-08 00:14:12.122,1.227501,0.40699556,0.38575193,0.5261661,0.5805185,-0.25520322,0.26356086,0.33577067,0.4693445,0.08798908,0.5645911,0.038889587,0.13134101,0.07864916,0.064909376,0.3185035,-0.11233344,-0.35488546,-0.21363486,-0.029779961,798.60803,815.5311,789.34064,810.696,717.619,0.2515869140625,0.0667724609375,0.95782470703125,4.38140869140625,-2.086029052734375,-0.657958984375,1.0,1.0,1.0,1.0,1.0,25.0,
2023-09-08 00:14:12.188,1.227501,0.40699556,0.38575193,0.5261661,0.5805185,-0.25520322,0.26356086,0.33577067,0.4693445,0.08798908,0.5645911,0.038889587,0.13134101,0.07864916,0.064909376,0.3185035,-0.11233344,-0.35488546,-0.21363486,-0.029779961,807.47253,811.0989,794.9817,803.0403,1070.989,0.24786376953125,0.07159423828125,0.96197509765625,4.553375244140625,-0.58319091796875,-1.09161376953125,1.0,1.0,1.0,1.0,1.0,25.0,
2023-09-08 00:14:12.196,1.227501,0.40699556,0.38575193,0.5261661,0.5805185,-0.25520322,0.26356086,0.33577067,0.4693445,0.08798908,0.5645911,0.038889587,0.13134101,0.07864916,0.064909376,0.3185035,-0.11233344,-0.35488546,-0.21363486,-0.029779961,811.9048,808.68134,795.38464,792.1612,710.3663,0.2376708984375,0.0654296875,0.96649169921875,3.7982177734375,-0.657958984375,-0.889739990234375,1.0,1.0,1.0,1.0,1.0,25.0,
2023-09-08 00:14:12.197,1.227501,0.4336754,0.37563044,0.5261661,0.5805185,-0.22586657,0.28488052,0.33577067,0.4693445,0.07461272,0.57198703,0.038889587,0.13134101,0.07757526,0.06538208,0.3185035,-0.11233344,-0.27501047,-0.19294374,-0.029779961,804.65204,805.8608,795.38464,811.50183,716.8132,0.2376708984375,0.0654296875,0.96649169921875,3.7982177734375,-0.657958984375,-0.889739990234375,1.0,1.0,1.0,1.0,1.0,25.0,
2023-09-08 00:14:12.276,1.227501,0.4336754,0.37563044,0.5261661,0.5805185,-0.22586657,0.28488052,0.33577067,0.4693445,0.07461272,0.57198703,0.038889587,0.13134101,0.07757526,0.06538208,0.3185035,-0.11233344,-0.27501047,-0.19294374,-0.029779961,823.1868,804.65204,788.93774,787.72894,622.9304,0.23712158203125,0.07647705078125,0.97528076171875,4.53094482421875,0.710296630859375,-0.874786376953125,1.0,1.0,1.0,1.0,1.0,25.0,
2023-09-08 00:14:12.278,1.227501,0.4878364,0.3683267,0.5261661,0.5805185,-0.16098525,0.3126746,0.33577067,0.4693445,0.066736594,0.57198703,0.038889587,0.13134101,0.09886536,0.062143605,0.3185035,-0.11233344,-0.19897746,-0.17865935,-0.029779961,804.65204,801.02563,789.34064,819.15753,743.4066,0.23712158203125,0.07647705078125,0.97528076171875,4.53094482421875,0.710296630859375,-0.874786376953125,1.0,1.0,1.0,1.0,1.0,25.0,
2023-09-08 00:14:12.336,1.227501,0.4878364,0.3683267,0.5261661,0.5805185,-0.16098525,0.3126746,0.33577067,0.4693445,0.066736594,0.57198703,0.038889587,0.13134101,0.09886536,0.062143605,0.3185035,-0.11233344,-0.19897746,-0.17865935,-0.029779961,799.81683,794.17584,790.9524,795.38464,655.9707,0.2467041015625,0.08782958984375,1.00860595703125,0.650482177734375,1.383209228515625,0.022430419921875,1.0,1.0,1.0,1.0,1.0,25.0,
2023-09-08 00:14:12.373,1.227501,0.4878364,0.3683267,0.5261661,0.5805185,-0.16098525,0.3126746,0.33577067,0.4693445,0.066736594,0.57198703,0.038889587,0.13134101,0.09886536,0.062143605,0.3185035,-0.11233344,-0.19897746,-0.17865935,-0.029779961,795.38464,792.96704,782.0879,813.1135,774.0293,0.20220947265625,0.0609130859375,0.95477294921875,-1.487884521484375,8.4039306640625,-0.5682373046875,1.0,1.0,1.0,1.0,1.0,25.0,
2023-09-08 00:14:12.378,0.9529208,0.5632782,0.36450723,0.39846483,0.6778922,-0.09326412,0.3335878,0.19800302,0.47220734,0.096913986,0.57198703,0.4490094,0.2877787,0.13373573,0.05213011,0.45776168,-0.23738386,-0.13512658,-0.17575547,0.0012931874,787.72894,785.31134,782.0879,801.02563,840.5128,0.20220947265625,0.0609130859375,0.95477294921875,-1.487884521484375,8.4039306640625,-0.5682373046875,1.0,1.0,1.0,1.0,1.0,25.0,
2023-09-08 00:14:12.441,0.9529208,0.5632782,0.36450723,0.39846483,0.6778922,-0.09326412,0.3335878,0.19800302,0.47220734,0.096913986,0.57198703,0.4490094,0.2877787,0.13373573,0.05213011,0.45776168,-0.23738386,-0.13512658,-0.17575547,0.0012931874,807.0696,781.28204,792.96704,795.38464,832.8571,0.189697265625,0.0552978515625,0.97650146484375,-0.336456298828125,2.093505859375,-1.12152099609375,1.0,1.0,1.0,1.0,1.0,25.0,
2023-09-08 00:14:12.477,0.9529208,0.5632782,0.36450723,0.39846483,0.6778922,-0.09326412,0.3335878,0.19800302,0.47220734,0.096913986,0.57198703,0.4490094,0.2877787,0.13373573,0.05213011,0.45776168,-0.23738386,-0.13512658,-0.17575547,0.0012931874,796.1905,773.6264,785.31134,796.99634,703.1135,0.1988525390625,0.0452880859375,0.96923828125,1.024322509765625,1.592559814453125,-2.190704345703125,1.0,1.0,1.0,1.0,1.0,25.0,
2023-09-08 00:14:12.481,0.93062246,0.6381546,0.35805377,0.41442662,0.6153724,-0.090723865,0.34156513,0.23376438,0.52799,0.14746304,0.57198703,0.5158437,0.31693843,0.17660333,0.036198262,0.47423297,-0.26307887,-0.08123145,-0.18716447,-0.00014519515,803.44324,751.8681,788.93774,814.7253,1136.6666,0.1988525390625,0.0452880859375,0.96923828125,1.024322509765625,1.592559814453125,-2.190704345703125,1.0,1.0,1.0,1.0,1.0,25.0,
2023-09-08 00:14:12.553,0.93062246,0.6381546,0.35805377,0.41442662,0.6153724,-0.090723865,0.34156513,0.23376438,0.52799,0.14746304,0.57198703,0.5158437,0.31693843,0.17660333,0.036198262,0.47423297,-0.26307887,-0.08123145,-0.18716447,-0.00014519515,815.12823,764.7619,791.3553,775.64105,658.3883,0.188720703125,0.0401611328125,0.9647216796875,0.3887939453125,3.6785888671875,-2.452392578125,1.0,1.0,1.0,1.0,1.0,25.0,
2023-09-08 00:14:12.558,0.910743,0.6381546,0.35072243,0.4103929,0.57949114,-0.090723865,0.33681643,0.24781615,0.5820346,0.14746304,0.57198703,0.533333,0.33471322,0.17660333,0.01872776,0.48652187,-0.2922322,-0.08123145,-0.21135321,1.1976637e-05,792.5641,747.4359,790.14655,779.67035,707.9487,0.188720703125,0.0401611328125,0.9647216796875,0.3887939453125,3.6785888671875,-2.452392578125,1.0,1.0,1.0,1.0,1.0,25.0,
2023-09-08 00:14:12.622,0.910743,0.6381546,0.35072243,0.4103929,0.57949114,-0.090723865,0.33681643,0.24781615,0.5820346,0.14746304,0.57198703,0.533333,0.33471322,0.17660333,0.01872776,0.48652187,-0.2922322,-0.08123145,-0.21135321,1.1976637e-05,795.38464,757.9121,785.31134,793.7729,684.57874,0.1842041015625,0.0252685546875,0.96075439453125,0.9271240234375,1.338348388671875,0.3289794921875,1.0,1.0,1.0,1.0,1.0,25.0,
2023-09-08 00:14:12.691,0.910743,0.6381546,0.35072243,0.4103929,0.57949114,-0.090723865,0.33681643,0.24781615,0.5820346,0.14746304,0.57198703,0.533333,0.33471322,0.17660333,0.01872776,0.48652187,-0.2922322,-0.08123145,-0.21135321,1.1976637e-05,799.41394,759.5238,791.75824,796.1905,810.293,0.18115234375,0.01593017578125,0.958251953125,1.4654541015625,0.897216796875,0.037384033203125,1.0,1.0,1.0,1.0,1.0,25.0,
2023-09-08 00:14:12.698,0.8843303,0.6381546,0.34578416,0.3833344,0.56205183,-0.090723865,0.3197273,0.25004685,0.62874323,0.14746304,0.57198703,0.5492366,0.33829936,0.17660333,0.0056752935,0.49506626,-0.31619796,-0.08123145,-0.24259962,-0.004959313,805.8608,749.85345,790.54944,789.34064,627.76556,0.18115234375,0.01593017578125,0.958251953125,1.4654541015625,0.897216796875,0.037384033203125,1.0,1.0,1.0,1.0,1.0,25.0,
2023-09-08 00:14:12.731,0.8843303,0.6381546,0.34578416,0.3833344,0.56205183,-0.090723865,0.3197273,0.25004685,0.62874323,0.14746304,0.57198703,0.5492366,0.33829936,0.17660333,0.0056752935,0.49506626,-0.31619796,-0.08123145,-0.24259962,-0.004959313,813.1135,741.39197,789.7436,787.326,705.12823,0.18048095703125,0.01617431640625,0.96173095703125,1.7645263671875,-1.248626708984375,1.398162841796875,1.0,1.0,1.0,1.0,1.0,25.0,
2023-09-08 00:14:12.830,0.8843303,0.6381546,0.34578416,0.3833344,0.56205183,-0.090723865,0.3197273,0.25004685,0.62874323,0.14746304,0.57198703,0.5492366,0.33829936,0.17660333,0.0056752935,0.49506626,-0.31619796,-0.08123145,-0.24259962,-0.004959313,796.99634,728.0952,786.9231,803.44324,1025.4579,0.18182373046875,0.00543212890625,0.9559326171875,2.026214599609375,-2.76641845703125,-0.2691650390625,1.0,1.0,1.0,1.0,1.0,25.0,
2023-09-08 00:14:12.831,0.85836786,0.6381546,0.34388876,0.34715438,0.5502366,-0.090723865,0.2892118,0.24402744,0.6342416,0.14746304,0.5736857,0.5542205,0.33319795,0.17660333,-0.0011443592,0.50541884,-0.33448765,-0.08123145,-0.27439916,-0.01613721,797.8022,749.0476,788.5348,786.9231,915.05493,0.18182373046875,0.00543212890625,0.9559326171875,2.026214599609375,-2.76641845703125,-0.2691650390625,1.0,1.0,1.0,1.0,1.0,25.0,
2023-09-08 00:14:12.841,0.85836786,0.6381546,0.34388876,0.34715438,0.5502366,-0.090723865,0.2892118,0.24402744,0.6342416,0.14746304,0.5736857,0.5542205,0.33319795,0.17660333,-0.0011443592,0.50541884,-0.33448765,-0.08123145,-0.27439916,-0.01613721,803.8461,742.6007,792.96704,784.5055,673.69965,0.18304443359375,0.01605224609375,0.97528076171875,3.050537109375,-2.714080810546875,-0.650482177734375,1.0,1.0,1.0,1.0,1.0,25.0,
2023-09-08 00:14:12.921,0.85836786,0.6381546,0.34388876,0.34715438,0.5502366,-0.090723865,0.2892118,0.24402744,0.6342416,0.14746304,0.5736857,0.5542205,0.33319795,0.17660333,-0.0011443592,0.50541884,-0.33448765,-0.08123145,-0.27439916,-0.01613721,797.8022,738.5714,784.5055,803.44324,704.3223,0.201904296875,0.01434326171875,0.978515625,2.579498291015625,-3.4991455078125,-1.256103515625,1.0,1.0,1.0,1.0,1.0,25.0,
2023-09-08 00:14:12.924,0.83113146,0.6381546,0.33942586,0.31477234,0.5355926,-0.090723865,0.24905922,0.23085438,0.6342416,0.14746304,0.5767583,0.5542205,0.32450926,0.17660333,-0.00493137,0.5195623,-0.3496345,-0.08123145,-0.3026527,-0.029830446,803.8461,730.5128,788.1319,766.3736,712.381,0.201904296875,0.01434326171875,0.978515625,2.579498291015625,-3.4991455078125,-1.256103515625,1.0,1.0,1.0,1.0,1.0,25.0,
2023-09-08 00:14:12.963,0.83113146,0.6381546,0.33942586,0.31477234,0.5355926,-0.090723865,0.24905922,0.23085438,0.6342416,0.14746304,0.5767583,0.5542205,0.32450926,0.17660333,-0.00493137,0.5195623,-0.3496345,-0.08123145,-0.3026527,-0.029830446,802.6374,741.39197,800.2198,793.36993,724.87177,0.20098876953125,0.01202392578125,0.9656982421875,4.0972900390625,-0.994415283203125,-0.9271240234375,1.0,1.0,1.0,1.0,1.0,25.0,
2023-09-08 00:14:13.003,0.83113146,0.6381546,0.33942586,0.31477234,0.5355926,-0.090723865,0.24905922,0.23085438,0.6342416,0.14746304,0.5767583,0.5542205,0.32450926,0.17660333,-0.00493137,0.5195623,-0.3496345,-0.08123145,-0.3026527,-0.029830446,800.6227,760.32965,801.8315,782.49084,628.97437,0.17138671875,0.01611328125,0.98846435546875,5.600128173828125,0.650482177734375,0.261688232421875,1.0,1.0,1.0,1.0,1.0,25.0,
2023-09-08 00:14:13.006,0.806178,0.6381546,0.33329934,0.29195148,0.51668644,-0.090723865,0.21259086,0.21142778,0.6342416,0.14746304,0.5419817,0.5542205,0.31388596,0.17660333,-0.010430563,0.53126174,-0.35935566,-0.08123145,-0.3249241,-0.041080788,802.6374,734.5421,794.57874,782.8938,792.5641,0.17138671875,0.01611328125,0.98846435546875,5.600128173828125,0.650482177734375,0.261688232421875,1.0,1.0,1.0,1.0,1.0,25.0,
2023-09-08 00:14:13.108,0.806178,0.6381546,0.33329934,0.29195148,0.51668644,-0.090723865,0.21259086,0.21142778,0.6342416,0.14746304,0.5419817,0.5542205,0.31388596,0.17660333,-0.010430563,0.53126174,-0.35935566,-0.08123145,-0.3249241,-0.041080788,804.65204,756.7033,794.9817,791.75824,681.3553,0.16497802734375,0.01275634765625,0.98406982421875,6.153411865234375,-0.0,-0.7476806640625,1.0,1.0,1.0,1.0,1.0,25.0,
2023-09-08 00:14:13.113,0.7855947,0.6381546,0.32779568,0.27577192,0.4995838,-0.090723865,0.19447875,0.19051763,0.6342416,0.14746304,0.4563032,0.5542205,0.3008018,0.17660333,-0.019862948,0.53571963,-0.35856953,-0.08123145,-0.34019125,-0.04811291,804.2491,748.6447,794.17584,792.1612,638.24176,0.16497802734375,0.01275634765625,0.98406982421875,6.153411865234375,-0.0,-0.7476806640625,1.0,1.0,1.0,1.0,1.0,25.0,
2023-09-08 00:14:13.158,0.7855947,0.6381546,0.32779568,0.27577192,0.4995838,-0.090723865,0.19447875,0.19051763,0.6342416,0.14746304,0.4563032,0.5542205,0.3008018,0.17660333,-0.019862948,0.53571963,-0.35856953,-0.08123145,-0.34019125,-0.04811291,799.81683,756.7033,792.5641,777.6557,672.49084,0.17205810546875,0.017822265625,0.980712890625,7.289886474609375,-2.100982666015625,-2.833709716796875,1.0,1.0,1.0,1.0,1.0,25.0,
2023-09-08 00:14:13.218,0.7855947,0.6381546,0.32779568,0.27577192,0.4995838,-0.090723865,0.19447875,0.19051763,0.6342416,0.14746304,0.4563032,0.5542205,0.3008018,0.17660333,-0.019862948,0.53571963,-0.35856953,-0.08123145,-0.34019125,-0.04811291,797.3993,741.39197,799.41394,815.9341,916.6667,0.17584228515625,0.02777099609375,0.98760986328125,6.467437744140625,-0.351409912109375,-2.10845947265625,1.0,1.0,1.0,1.0,1.0,25.0,
2023-09-08 00:14:13.226,0.76786,0.6381546,0.32107028,0.2585196,0.48837048,-0.090723865,0.19704898,0.17376874,0.6342416,0.14746304,0.47481534,0.5542205,0.28545463,0.17660333,-0.031421263,0.5347047,-0.34640688,-0.08123145,-0.3490014,-0.051178623,798.20514,760.32965,795.38464,786.9231,731.31866,0.17584228515625,0.02777099609375,0.98760986328125,6.467437744140625,-0.351409912109375,-2.10845947265625,1.0,1.0,1.0,1.0,1.0,25.0,
2023-09-08 00:14:13.259,0.76786,0.6381546,0.32107028,0.2585196,0.48837048,-0.090723865,0.19704898,0.17376874,0.6342416,0.14746304,0.47481534,0.5542205,0.28545463,0.17660333,-0.031421263,0.5347047,-0.34640688,-0.08123145,-0.3490014,-0.051178623,798.60803,749.85345,795.38464,779.67035,736.1539,0.17047119140625,0.03125,0.98297119140625,4.85992431640625,-1.128997802734375,0.79254150390625,1.0,1.0,1.0,1.0,1.0,25.0,
2023-09-08 00:14:13.279,0.7494921,0.6381546,0.3173527,0.2452873,0.48231748,-0.090723865,0.2105741,0.1645914,0.6342416,0.14746304,0.4794404,0.5542205,0.26845893,0.17660333,-0.040040724,0.53224397,-0.32987985,-0.08123145,-0.35407007,-0.04663885,805.8608,763.5531,803.0403,810.293,696.26373,0.17047119140625,0.03125,0.98297119140625,4.85992431640625,-1.128997802734375,0.79254150390625,1.0,1.0,1.0,1.0,1.0,25.0,
2023-09-08 00:14:13.345,0.7494921,0.6381546,0.3173527,0.2452873,0.48231748,-0.090723865,0.2105741,0.1645914,0.6342416,0.14746304,0.4794404,0.5542205,0.26845893,0.17660333,-0.040040724,0.53224397,-0.32987985,-0.08123145,-0.35407007,-0.04663885,801.02563,763.5531,804.2491,819.15753,742.6007,0.15679931640625,0.02777099609375,0.9835205078125,3.521575927734375,-1.136474609375,0.411224365234375,1.0,1.0,1.0,1.0,1.0,25.0,
2023-09-08 00:14:13.388,0.7494921,0.6381546,0.3173527,0.2452873,0.48231748,-0.090723865,0.2105741,0.1645914,0.6342416,0.14746304,0.4794404,0.5542205,0.26845893,0.17660333,-0.040040724,0.53224397,-0.32987985,-0.08123145,-0.35407007,-0.04663885,804.2491,765.56775,805.4579,788.5348,641.4652,0.15478515625,0.027099609375,0.9820556640625,3.790740966796875,-1.435546875,-1.876678466796875,1.0,1.0,1.0,1.0,1.0,25.0,
2023-09-08 00:14:13.421,0.7494921,0.6381546,0.3173527,0.2452873,0.48231748,-0.090723865,0.2105741,0.1645914,0.6342416,0.14746304,0.4794404,0.5542205,0.26845893,0.17660333,-0.040040724,0.53224397,-0.32987985,-0.08123145,-0.35407007,-0.04663885,812.71063,772.01465,806.6667,800.2198,639.85345,0.16473388671875,0.04388427734375,1.00732421875,2.811279296875,-2.6019287109375,-2.459869384765625,1.0,1.0,1.0,1.0,1.0,25.0,
2023-09-08 00:14:13.422,0.72884166,0.6381546,0.31351647,0.2483383,0.47812584,-0.090723865,0.2261757,0.16443832,0.6342416,0.14746304,0.47641978,0.5542205,0.25269467,0.17660333,-0.04250926,0.53011894,-0.3146545,-0.08123145,-0.35805288,-0.030666022,808.2784,766.77655,803.44324,828.4249,836.8865,0.16473388671875,0.04388427734375,1.00732421875,2.811279296875,-2.6019287109375,-2.459869384765625,1.0,1.0,1.0,1.0,1.0,25.0,
2023-09-08 00:14:13.464,0.72884166,0.6381546,0.31351647,0.2483383,0.47812584,-0.090723865,0.2261757,0.16443832,0.6342416,0.14746304,0.47641978,0.5542205,0.25269467,0.17660333,-0.04250926,0.53011894,-0.3146545,-0.08123145,-0.35805288,-0.030666022,798.60803,751.8681,803.44324,809.89014,782.0879,0.1756591796875,0.0333251953125,0.9820556640625,-1.5252685546875,-2.1832275390625,-3.147735595703125,1.0,1.0,1.0,1.0,1.0,25.0,
2023-09-08 00:14:13.492,0.72884166,0.6381546,0.31351647,0.2483383,0.47812584,-0.090723865,0.2261757,0.16443832,0.6342416,0.14746304,0.47641978,0.5542205,0.25269467,0.17660333,-0.04250926,0.53011894,-0.3146545,-0.08123145,-0.35805288,-0.030666022,778.86444,757.1062,799.011,773.6264,685.78754,0.15411376953125,0.0137939453125,0.972412109375,-1.517791748046875,-0.844879150390625,-3.289794921875,1.0,1.0,1.0,1.0,1.0,25.0,
2023-09-08 00:14:13.494,0.7070727,0.6381546,0.29369247,0.2752467,0.47401327,-0.090723865,0.2362383,0.17435348,0.64267415,0.14746304,0.48695734,0.56231844,0.24151972,0.17660333,-0.041620858,0.5263226,-0.30047363,-0.08123145,-0.36234093,-0.0052627283,774.0293,765.16486,805.8608,805.05493,710.3663,0.15411376953125,0.0137939453125,0.972412109375,-1.517791748046875,-0.844879150390625,-3.289794921875,1.0,1.0,1.0,1.0,1.0,25.0,
2023-09-08 00:14:13.646,0.7070727,0.6381546,0.29369247,0.2752467,0.47401327,-0.090723865,0.2362383,0.17435348,0.64267415,0.14746304,0.48695734,0.56231844,0.24151972,0.17660333,-0.041620858,0.5263226,-0.30047363,-0.08123145,-0.36234093,-0.0052627283,774.0293,804.65204,801.02563,819.15753,765.16486,0.15728759765625,-0.00311279296875,0.9527587890625,-0.560760498046875,-1.4654541015625,-4.90478515625,1.0,1.0,1.0,1.0,1.0,25.0,
2023-09-08 00:14:13.650,0.6296264,0.7125918,0.26179796,0.3099942,0.41758856,-0.04199064,0.23285952,0.20854142,0.66029537,0.1467572,0.4916355,0.5984838,0.23654099,0.18538177,-0.042264465,0.52424514,-0.2872336,-0.0806743,-0.36849815,0.015951378,772.8205,819.9634,806.26373,807.0696,908.20514,0.15728759765625,-0.00311279296875,0.9527587890625,-0.560760498046875,-1.4654541015625,-4.90478515625,1.0,1.0,1.0,1.0,1.0,25.0,
2023-09-08 00:14:13.667,0.6296264,0.7125918,0.26179796,0.3099942,0.41758856,-0.04199064,0.23285952,0.20854142,0.66029537,0.1467572,0.4916355,0.5984838,0.23654099,0.18538177,-0.042264465,0.52424514,-0.2872336,-0.0806743,-0.36849815,0.015951378,773.22345,823.1868,801.02563,771.2088,641.8681,0.16168212890625,-0.00848388671875,0.966064453125,1.981353759765625,-3.805694580078125,-4.822540283203125,1.0,1.0,1.0,1.0,1.0,25.0,
2023-09-08 00:14:13.696,0.6296264,0.7125918,0.26179796,0.3099942,0.41758856,-0.04199064,0.23285952,0.20854142,0.66029537,0.1467572,0.4916355,0.5984838,0.23654099,0.18538177,-0.042264465,0.52424514,-0.2872336,-0.0806743,-0.36849815,0.015951378,771.2088,801.02563,787.72894,782.8938,639.0476,0.17584228515625,-0.010009765625,0.977294921875,4.209442138671875,-4.418792724609375,-2.79632568359375,1.0,1.0,1.0,1.0,1.0,25.0,
2023-09-08 00:14:13.700,0.5940415,0.7125918,0.24347296,0.35506895,0.37753388,-0.04199064,0.21283406,0.24964069,0.6835376,0.1467572,0.4930941,0.642854,0.24875244,0.18538177,-0.04385153,0.5184208,-0.2695806,-0.0806743,-0.37804702,0.03272432,778.46155,807.47253,807.0696,816.337,1196.7032,0.17584228515625,-0.010009765625,0.977294921875,4.209442138671875,-4.418792724609375,-2.79632568359375,1.0,1.0,1.0,1.0,1.0,25.0,
2023-09-08 00:14:13.760,0.5940415,0.7125918,0.24347296,0.35506895,0.37753388,-0.04199064,0.21283406,0.24964069,0.6835376,0.1467572,0.4930941,0.642854,0.24875244,0.18538177,-0.04385153,0.5184208,-0.2695806,-0.0806743,-0.37804702,0.03272432,779.67035,809.4872,805.05493,814.7253,734.94507,0.18145751953125,-0.00799560546875,0.9791259765625,4.837493896484375,-4.448699951171875,-0.28411865234375,1.0,1.0,1.0,1.0,1.0,25.0,
2023-09-08 00:14:13.810,0.5940415,0.7125918,0.24347296,0.35506895,0.37753388,-0.04199064,0.21283406,0.24964069,0.6835376,0.1467572,0.4930941,0.642854,0.24875244,0.18538177,-0.04385153,0.5184208,-0.2695806,-0.0806743,-0.37804702,0.03272432,788.1319,804.2491,799.011,776.04395,620.5128,0.17230224609375,-0.00537109375,0.99310302734375,5.495452880859375,-3.237457275390625,0.82244873046875,1.0,1.0,1.0,1.0,1.0,25.0,
2023-09-08 00:14:13.818,0.62371594,0.7125918,0.2511914,0.3826287,0.3661594,-0.04199064,0.18687016,0.2946412,0.68724346,0.1467572,0.4875951,0.6545384,0.27208257,0.18538177,-0.041817725,0.5108432,-0.25110477,-0.0806743,-0.3881028,0.03933983,786.9231,811.0989,802.6374,800.2198,822.381,0.17230224609375,-0.00537109375,0.99310302734375,5.495452880859375,-3.237457275390625,0.82244873046875,1.0,1.0,1.0,1.0,1.0,25.0,
2023-09-08 00:14:13.938,0.62371594,0.7125918,0.2511914,0.3826287,0.3661594,-0.04199064,0.18687016,0.2946412,0.68724346,0.1467572,0.4875951,0.6545384,0.27208257,0.18538177,-0.041817725,0.5108432,-0.25110477,-0.0806743,-0.3881028,0.03933983,792.96704,816.337,801.8315,817.5458,888.0586,0.1693115234375,-0.00653076171875,0.97381591796875,4.74029541015625,-2.071075439453125,-1.637420654296875,1.0,1.0,1.0,1.0,1.0,25.0,
2023-09-08 00:14:13.946,0.702115,0.7125918,0.27315617,0.38482416,0.3765133,-0.04199064,0.1724363,0.3473481,0.6784981,0.1467572,0.48756704,0.6585002,0.29532745,0.18538177,-0.03466129,0.50217307,-0.23754616,-0.0806743,-0.39391097,0.033563696,787.72894,829.2308,805.8608,786.1172,651.9414,0.1693115234375,-0.00653076171875,0.97381591796875,4.74029541015625,-2.071075439453125,-1.637420654296875,1.0,1.0,1.0,1.0,1.0,25.0,
2023-09-08 00:14:13.954,0.702115,0.7125918,0.27315617,0.38482416,0.3765133,-0.04199064,0.1724363,0.3473481,0.6784981,0.1467572,0.48756704,0.6585002,0.29532745,0.18538177,-0.03466129,0.50217307,-0.23754616,-0.0806743,-0.39391097,0.033563696,796.1905,827.619,813.1135,780.87915,674.10254,0.1668701171875,-0.00604248046875,0.98345947265625,5.001983642578125,-1.74957275390625,-2.056121826171875,1.0,1.0,1.0,1.0,1.0,25.0,
2023-09-08 00:14:14.006,0.702115,0.7125918,0.27315617,0.38482416,0.3765133,-0.04199064,0.1724363,0.3473481,0.6784981,0.1467572,0.48756704,0.6585002,0.29532745,0.18538177,-0.03466129,0.50217307,-0.23754616,-0.0806743,-0.39391097,0.033563696,778.46155,835.2747,813.91943,808.2784,762.74725,0.16668701171875,-0.00885009765625,0.97344970703125,5.06927490234375,-3.013153076171875,-1.15142822265625,1.0,1.0,1.0,1.0,1.0,25.0,
2023-09-08 00:14:14.051,0.702115,0.7125918,0.27315617,0.38482416,0.3765133,-0.04199064,0.1724363,0.3473481,0.6784981,0.1467572,0.48756704,0.6585002,0.29532745,0.18538177,-0.03466129,0.50217307,-0.23754616,-0.0806743,-0.39391097,0.033563696,785.31134,820.3663,809.4872,799.011,750.2564,0.1690673828125,-0.00103759765625,0.974853515625,5.81695556640625,-3.087921142578125,0.246734619140625,1.0,1.0,1.0,1.0,1.0,25.0,
2023-09-08 00:14:14.052,0.77981955,0.7125918,0.29243734,0.37401754,0.39192638,-0.04199064,0.1755289,0.40578634,0.6339123,0.1467572,0.49166238,0.61783826,0.3075902,0.18538177,-0.028447373,0.49328536,-0.2311314,-0.0806743,-0.39442322,0.0189074,784.10254,817.5458,806.6667,777.6557,682.5641,0.1690673828125,-0.00103759765625,0.974853515625,5.81695556640625,-3.087921142578125,0.246734619140625,1.0,1.0,1.0,1.0,1.0,25.0,
2023-09-08 00:14:14.154,0.77981955,0.7125918,0.29243734,0.37401754,0.39192638,-0.04199064,0.1755289,0.40578634,0.6339123,0.1467572,0.49166238,0.61783826,0.3075902,0.18538177,-0.028447373,0.49328536,-0.2311314,-0.0806743,-0.39442322,0.0189074,784.5055,834.4689,815.12823,810.293,674.10254,0.17022705078125,0.001220703125,0.9818115234375,6.2506103515625,-3.641204833984375,1.428070068359375,1.0,1.0,1.0,1.0,1.0,25.0,
