timestamp,RAW_TP9,RAW_AF7,RAW_AF8,RAW_TP10,Delta_Aggregate,Theta_Aggregate,Alpha_Aggregate,Beta_Aggregate,Gamma_Aggregate
1752076147.467,775.2381,803.0403,830.4396,765.9707,0.31170145,0.22879616749999998,0.4878273875,0.8632444725,0.550397025
1752076147.468,770.80585,797.8022,828.4249,769.59705,0.31170145,0.22879616749999998,0.4878273875,0.8632444725,0.550397025
1752076147.468,772.01465,788.1319,817.1429,776.4469,0.31170145,0.22879616749999998,0.4878273875,0.8632444725,0.550397025
1752076147.4689999,776.4469,777.25275,805.4579,794.57874,0.31170145,0.22879616749999998,0.4878273875,0.8632444725,0.550397025
1752076147.4689999,776.4469,768.3883,795.38464,793.36993,0.31170145,0.22879616749999998,0.4878273875,0.8632444725,0.550397025
1752076147.4689999,778.86444,766.3736,795.38464,790.9524,0.31170145,0.22879616749999998,0.4878273875,0.8632444725,0.550397025
1752076147.4689999,782.0879,771.2088,799.41394,782.49084,0.31170145,0.22879616749999998,0.4878273875,0.8632444725,0.550397025
1752076147.4689999,796.1905,758.71796,785.31134,790.54944,0.31170145,0.22879616749999998,0.4878273875,0.8632444725,0.550397025
1752076147.4689999,787.72894,770.0,797.3993,773.22345,0.31170145,0.22879616749999998,0.4878273875,0.8632444725,0.550397025
1752076147.4689999,765.16486,798.60803,817.9487,756.7033,0.31170145,0.22879616749999998,0.4878273875,0.8632444725,0.550397025
1752076147.4689999,779.67035,782.49084,802.23444,779.67035,0.31170145,0.22879616749999998,0.4878273875,0.8632444725,0.550397025
1752076147.4689999,786.9231,776.4469,804.65204,779.67035,0.31170145,0.22879616749999998,0.4878273875,0.8632444725,0.550397025
1752076147.471,770.40295,790.9524,818.3516,774.0293,0.31170145,0.22879616749999998,0.4878273875,0.8632444725,0.550397025
1752076147.471,770.40295,793.7729,818.7546,773.6264,0.31170145,0.22879616749999998,0.4878273875,0.8632444725,0.550397025
1752076147.471,769.19415,784.90845,809.0842,773.22345,0.31170145,0.22879616749999998,0.4878273875,0.8632444725,0.550397025
1752076147.471,772.01465,789.7436,815.12823,779.67035,0.31170145,0.22879616749999998,0.4878273875,0.8632444725,0.550397025
1752076147.471,774.43225,794.57874,817.9487,778.46155,0.31170145,0.22879616749999998,0.4878273875,0.8632444725,0.550397025
1752076147.471,766.77655,778.86444,803.8461,778.46155,0.31170145,0.22879616749999998,0.4878273875,0.8632444725,0.550397025
1752076147.471,774.43225,774.0293,801.4286,784.10254,0.31170145,0.22879616749999998,0.4878273875,0.8632444725,0.550397025
1752076147.471,773.22345,782.49084,808.68134,780.4762,0.31170145,0.22879616749999998,0.4878273875,0.8632444725,0.550397025
1752076147.471,770.0,788.5348,816.337,773.22345,0.31170145,0.22879616749999998,0.4878273875,0.8632444725,0.550397025
1752076147.471,777.25275,790.14655,817.1429,771.6117,0.31170145,0.22879616749999998,0.4878273875,0.8632444725,0.550397025
1752076147.471,776.04395,774.43225,799.41394,783.2967,0.31170145,0.22879616749999998,0.4878273875,0.8632444725,0.550397025
1752076147.472,778.86444,778.86444,801.02563,785.7143,0.31170145,0.22879616749999998,0.4878273875,0.8632444725,0.550397025
1752076147.472,774.83514,798.20514,825.2015,765.56775,0.31170145,0.22879616749999998,0.4878273875,0.8632444725,0.550397025
1752076147.472,766.3736,788.1319,813.1135,763.95605,0.31170145,0.22879616749999998,0.4878273875,0.8632444725,0.550397025
1752076147.472,760.32965,784.5055,808.2784,764.7619,0.31170145,0.22879616749999998,0.4878273875,0.8632444725,0.550397025
1752076147.788,774.0293,794.17584,845.7509,778.46155,-0.06391738350000001,0.21522665000000002,0.45296458,0.7879835199999999,0.44741572
1752076147.852,759.5238,793.36993,836.08057,769.59705,-0.06391738350000001,0.21522665000000002,0.45296458,0.7879835199999999,0.44741572
1752076147.853,763.1502,763.95605,815.12823,766.77655,-0.06391738350000001,0.21522665000000002,0.45296458,0.7879835199999999,0.44741572
1752076147.853,771.2088,758.71796,813.91943,765.9707,-0.06391738350000001,0.21522665000000002,0.45296458,0.7879835199999999,0.44741572
1752076147.853,759.92676,773.22345,827.2161,758.71796,-0.06391738350000001,0.21522665000000002,0.45296458,0.7879835199999999,0.44741572
1752076147.853,747.8388,766.77655,833.2601,768.7912,-0.06391738350000001,0.21522665000000002,0.45296458,0.7879835199999999,0.44741572
1752076147.854,765.9707,742.6007,815.12823,791.75824,-0.06391738350000001,0.21522665000000002,0.45296458,0.7879835199999999,0.44741572
1752076147.854,777.25275,739.7802,816.337,788.93774,-0.06391738350000001,0.21522665000000002,0.45296458,0.7879835199999999,0.44741572
1752076147.855,767.1795,762.3443,842.52747,778.86444,-0.06391738350000001,0.21522665000000002,0.45296458,0.7879835199999999,0.44741572
1752076147.855,757.50916,772.4176,849.3773,780.4762,-0.06391738350000001,0.21522665000000002,0.45296458,0.7879835199999999,0.44741572
1752076147.855,770.0,756.7033,830.0366,800.6227,-0.06391738350000001,0.21522665000000002,0.45296458,0.7879835199999999,0.44741572
1752076147.855,779.67035,760.32965,832.0513,800.2198,-0.06391738350000001,0.21522665000000002,0.45296458,0.7879835199999999,0.44741572
1752076147.855,785.7143,782.0879,844.1392,784.10254,-0.06391738350000001,0.21522665000000002,0.45296458,0.7879835199999999,0.44741572
1752076147.881,792.96704,781.685,837.6923,792.5641,-0.06391738350000001,0.21522665000000002,0.45296458,0.7879835199999999,0.44741572
1752076147.881,782.49084,784.5055,840.9158,796.1905,-0.06391738350000001,0.21522665000000002,0.45296458,0.7879835199999999,0.44741572
1752076147.882,772.4176,782.8938,833.663,795.38464,-0.06391738350000001,0.21522665000000002,0.45296458,0.7879835199999999,0.44741572
1752076147.882,782.0879,765.9707,815.9341,796.1905,-0.06391738350000001,0.21522665000000002,0.45296458,0.7879835199999999,0.44741572
1752076147.882,791.75824,766.77655,815.5311,795.78754,-0.06391738350000001,0.21522665000000002,0.45296458,0.7879835199999999,0.44741572
1752076147.882,788.1319,757.50916,801.8315,807.47253,-0.06391738350000001,0.21522665000000002,0.45296458,0.7879835199999999,0.44741572
1752076147.8830001,773.22345,757.9121,804.65204,802.23444,-0.06391738350000001,0.21522665000000002,0.45296458,0.7879835199999999,0.44741572
1752076147.8830001,772.4176,783.69965,831.6484,788.93774,-0.06391738350000001,0.21522665000000002,0.45296458,0.7879835199999999,0.44741572
1752076147.8830001,792.1612,775.2381,817.9487,794.57874,-0.06391738350000001,0.21522665000000002,0.45296458,0.7879835199999999,0.44741572
1752076147.884,783.69965,760.32965,805.4579,790.9524,-0.06391738350000001,0.21522665000000002,0.45296458,0.7879835199999999,0.44741572
1752076147.884,769.19415,774.83514,823.9927,770.40295,-0.06391738350000001,0.21522665000000002,0.45296458,0.7879835199999999,0.44741572
1752076147.884,773.6264,780.4762,830.0366,756.30035,-0.06391738350000001,0.21522665000000002,0.45296458,0.7879835199999999,0.44741572
1752076147.9299998,778.86444,771.2088,820.7692,780.87915,-0.06391738350000001,0.21522665000000002,0.45296458,0.7879835199999999,0.44741572
1752076147.9299998,784.5055,773.6264,815.9341,802.23444,-0.0103470425,0.2514880275,0.50588599,0.7972004749999999,0.4475887675
1752076147.931,777.6557,782.0879,821.978,787.72894,-0.0103470425,0.2514880275,0.50588599,0.7972004749999999,0.4475887675
1752076147.931,770.0,772.4176,815.5311,778.46155,-0.0103470425,0.2514880275,0.50588599,0.7972004749999999,0.4475887675
1752076147.931,793.7729,759.92676,802.23444,794.9817,-0.0103470425,0.2514880275,0.50588599,0.7972004749999999,0.4475887675
1752076147.932,798.20514,761.13556,802.23444,794.9817,-0.0103470425,0.2514880275,0.50588599,0.7972004749999999,0.4475887675
1752076147.932,771.6117,775.2381,817.1429,791.75824,-0.0103470425,0.2514880275,0.50588599,0.7972004749999999,0.4475887675
1752076147.932,772.01465,786.52014,823.1868,788.1319,-0.0103470425,0.2514880275,0.50588599,0.7972004749999999,0.4475887675
1752076147.932,789.34064,769.19415,804.2491,791.75824,-0.0103470425,0.2514880275,0.50588599,0.7972004749999999,0.4475887675
1752076147.932,801.8315,768.7912,805.4579,792.96704,-0.0103470425,0.2514880275,0.50588599,0.7972004749999999,0.4475887675
1752076147.932,785.7143,792.96704,824.7985,781.685,-0.0103470425,0.2514880275,0.50588599,0.7972004749999999,0.4475887675
1752076147.932,768.7912,786.52014,821.978,782.49084,-0.0103470425,0.2514880275,0.50588599,0.7972004749999999,0.4475887675
1752076147.976,774.0293,784.10254,819.15753,777.25275,-0.0103470425,0.2514880275,0.50588599,0.7972004749999999,0.4475887675
1752076147.976,786.52014,786.1172,819.9634,777.25275,-0.0103470425,0.2514880275,0.50588599,0.7972004749999999,0.4475887675
1752076147.977,778.46155,795.78754,838.49817,780.07324,-0.0103470425,0.2514880275,0.50588599,0.7972004749999999,0.4475887675
1752076147.977,776.4469,790.9524,828.4249,782.8938,-0.0103470425,0.2514880275,0.50588599,0.7972004749999999,0.4475887675
1752076147.977,782.8938,765.9707,792.1612,787.72894,-0.0103470425,0.2514880275,0.50588599,0.7972004749999999,0.4475887675
1752076147.977,781.28204,772.01465,799.81683,788.1319,-0.0103470425,0.2514880275,0.50588599,0.7972004749999999,0.4475887675
1752076147.977,782.8938,784.90845,810.696,780.07324,-0.0103470425,0.2514880275,0.50588599,0.7972004749999999,0.4475887675
1752076147.977,789.34064,783.69965,808.68134,765.56775,-0.0103470425,0.2514880275,0.50588599,0.7972004749999999,0.4475887675
1752076147.977,780.07324,763.1502,796.99634,793.36993,-0.0103470425,0.2514880275,0.50588599,0.7972004749999999,0.4475887675
1752076147.978,768.7912,771.6117,806.6667,796.5934,-0.0103470425,0.2514880275,0.50588599,0.7972004749999999,0.4475887675
1752076147.978,775.2381,801.02563,828.022,772.01465,-0.0103470425,0.2514880275,0.50588599,0.7972004749999999,0.4475887675
1752076147.978,777.6557,789.7436,815.12823,787.326,-0.0103470425,0.2514880275,0.50588599,0.7972004749999999,0.4475887675
1752076148.052,771.6117,782.0879,809.4872,789.7436,-0.0103470425,0.2514880275,0.50588599,0.7972004749999999,0.4475887675
1752076148.052,780.4762,790.14655,816.7399,776.4469,-0.0103470425,0.2514880275,0.50588599,0.7972004749999999,0.4475887675
1752076148.052,793.36993,797.8022,813.5165,789.7436,-0.0103470425,0.2514880275,0.50588599,0.7972004749999999,0.4475887675
1752076148.052,779.2674,801.8315,819.15753,790.14655,0.06586506374999998,0.289912479,0.6014092424999999,0.8027316425,0.44522553
1752076148.053,764.7619,798.20514,830.84247,771.2088,0.06586506374999998,0.289912479,0.6014092424999999,0.8027316425,0.44522553
1752076148.0540001,765.16486,795.78754,828.022,771.2088,0.06586506374999998,0.289912479,0.6014092424999999,0.8027316425,0.44522553
1752076148.0540001,775.64105,786.9231,821.1722,785.7143,0.06586506374999998,0.289912479,0.6014092424999999,0.8027316425,0.44522553
1752076148.0540001,781.685,765.16486,808.2784,809.0842,0.06586506374999998,0.289912479,0.6014092424999999,0.8027316425,0.44522553
1752076148.0540001,778.0586,756.30035,798.20514,798.60803,0.06586506374999998,0.289912479,0.6014092424999999,0.8027316425,0.44522553
1752076148.0540001,786.1172,773.6264,811.0989,777.25275,0.06586506374999998,0.289912479,0.6014092424999999,0.8027316425,0.44522553
1752076148.0540001,799.011,781.685,814.7253,787.72894,0.06586506374999998,0.289912479,0.6014092424999999,0.8027316425,0.44522553
1752076148.0540001,799.011,772.4176,801.8315,787.72894,0.06586506374999998,0.289912479,0.6014092424999999,0.8027316425,0.44522553
1752076148.075,782.49084,771.2088,799.011,769.19415,0.06586506374999998,0.289912479,0.6014092424999999,0.8027316425,0.44522553
1752076148.076,758.315,784.90845,814.3223,759.92676,0.06586506374999998,0.289912479,0.6014092424999999,0.8027316425,0.44522553
1752076148.076,767.98535,786.1172,817.5458,761.13556,0.06586506374999998,0.289912479,0.6014092424999999,0.8027316425,0.44522553
1752076148.076,788.1319,771.2088,805.4579,779.67035,0.06586506374999998,0.289912479,0.6014092424999999,0.8027316425,0.44522553
1752076148.076,780.4762,772.4176,812.3077,781.28204,0.06586506374999998,0.289912479,0.6014092424999999,0.8027316425,0.44522553
1752076148.076,773.22345,776.04395,815.12823,777.6557,0.06586506374999998,0.289912479,0.6014092424999999,0.8027316425,0.44522553
1752076148.076,781.685,767.98535,807.0696,782.0879,0.06586506374999998,0.289912479,0.6014092424999999,0.8027316425,0.44522553
1752076148.077,785.31134,764.35895,807.0696,788.1319,0.06586506374999998,0.289912479,0.6014092424999999,0.8027316425,0.44522553
1752076148.077,774.0293,776.4469,817.9487,778.46155,0.06586506374999998,0.289912479,0.6014092424999999,0.8027316425,0.44522553
1752076148.077,772.01465,791.75824,828.022,770.0,0.06586506374999998,0.289912479,0.6014092424999999,0.8027316425,0.44522553
1752076148.077,776.04395,784.10254,814.7253,773.22345,0.06586506374999998,0.289912479,0.6014092424999999,0.8027316425,0.44522553
1752076148.077,772.8205,753.0769,789.7436,783.69965,0.06586506374999998,0.289912479,0.6014092424999999,0.8027316425,0.44522553
1752076148.129,759.92676,769.19415,813.1135,785.7143,0.06586506374999998,0.289912479,0.6014092424999999,0.8027316425,0.44522553
1752076148.129,759.5238,796.5934,831.2454,768.3883,0.06586506374999998,0.289912479,0.6014092424999999,0.8027316425,0.44522553
1752076148.1299999,771.6117,773.6264,807.47253,767.5824,0.06586506374999998,0.289912479,0.6014092424999999,0.8027316425,0.44522553
1752076148.1299999,776.04395,767.98535,807.47253,780.07324,0.06586506374999998,0.289912479,0.6014092424999999,0.8027316425,0.44522553
1752076148.1299999,775.64105,788.1319,826.0073,773.22345,0.06586506374999998,0.289912479,0.6014092424999999,0.8027316425,0.44522553
1752076148.1299999,786.1172,786.52014,819.15753,776.4469,0.13694351325,0.32292714625,0.679366425,0.8067129999999999,0.44117511249999997
1752076148.131,794.9817,772.01465,799.41394,794.9817,0.13694351325,0.32292714625,0.679366425,0.8067129999999999,0.44117511249999997
1752076148.132,786.9231,772.4176,801.8315,794.57874,0.13694351325,0.32292714625,0.679366425,0.8067129999999999,0.44117511249999997
1752076148.132,768.7912,799.011,833.2601,769.59705,0.13694351325,0.32292714625,0.679366425,0.8067129999999999,0.44117511249999997
1752076148.132,763.1502,806.26373,843.3333,770.40295,0.13694351325,0.32292714625,0.679366425,0.8067129999999999,0.44117511249999997
1752076148.132,771.6117,799.41394,831.6484,780.4762,0.13694351325,0.32292714625,0.679366425,0.8067129999999999,0.44117511249999997
1752076148.132,780.87915,793.7729,821.1722,784.90845,0.13694351325,0.32292714625,0.679366425,0.8067129999999999,0.44117511249999997
1752076148.188,776.4469,789.34064,818.7546,778.86444,0.13694351325,0.32292714625,0.679366425,0.8067129999999999,0.44117511249999997
1752076148.189,778.46155,782.8938,809.0842,778.46155,0.13694351325,0.32292714625,0.679366425,0.8067129999999999,0.44117511249999997
1752076148.19,782.8938,775.64105,805.8608,788.1319,0.13694351325,0.32292714625,0.679366425,0.8067129999999999,0.44117511249999997
1752076148.19,776.04395,769.59705,813.5165,783.2967,0.13694351325,0.32292714625,0.679366425,0.8067129999999999,0.44117511249999997
1752076148.19,773.22345,770.0,811.0989,778.46155,0.13694351325,0.32292714625,0.679366425,0.8067129999999999,0.44117511249999997
1752076148.191,780.87915,775.2381,813.5165,782.8938,0.13694351325,0.32292714625,0.679366425,0.8067129999999999,0.44117511249999997
1752076148.191,788.93774,757.50916,794.17584,801.4286,0.13694351325,0.32292714625,0.679366425,0.8067129999999999,0.44117511249999997
1752076148.191,783.69965,750.65936,787.326,798.60803,0.13694351325,0.32292714625,0.679366425,0.8067129999999999,0.44117511249999997
1752076148.192,778.86444,795.38464,826.8132,766.77655,0.13694351325,0.32292714625,0.679366425,0.8067129999999999,0.44117511249999997
1752076148.192,769.59705,801.4286,827.2161,765.56775,0.13694351325,0.32292714625,0.679366425,0.8067129999999999,0.44117511249999997
1752076148.192,756.7033,785.31134,803.8461,757.9121,0.13694351325,0.32292714625,0.679366425,0.8067129999999999,0.44117511249999997
1752076148.192,765.9707,793.36993,809.4872,750.2564,0.13694351325,0.32292714625,0.679366425,0.8067129999999999,0.44117511249999997
1752076148.223,780.4762,791.3553,813.5165,765.16486,0.13694351325,0.32292714625,0.679366425,0.8067129999999999,0.44117511249999997
1752076148.224,775.2381,784.10254,803.0403,778.86444,0.13694351325,0.32292714625,0.679366425,0.8067129999999999,0.44117511249999997
1752076148.224,782.8938,787.326,803.0403,782.0879,0.13694351325,0.32292714625,0.679366425,0.8067129999999999,0.44117511249999997
1752076148.224,790.54944,799.41394,817.9487,780.4762,0.13694351325,0.32292714625,0.679366425,0.8067129999999999,0.44117511249999997
1752076148.225,780.4762,793.36993,816.7399,776.8498,0.13694351325,0.32292714625,0.679366425,0.8067129999999999,0.44117511249999997
1752076148.225,782.8938,772.8205,801.8315,783.69965,0.13694351325,0.32292714625,0.679366425,0.8067129999999999,0.44117511249999997
1752076148.225,780.4762,774.0293,814.3223,781.685,0.13694351325,0.32292714625,0.679366425,0.8067129999999999,0.44117511249999997
1752076148.225,763.5531,781.28204,830.4396,763.5531,0.1946086075,0.3469894325,0.7172870874999999,0.8094279124999999,0.43687059999999994
1752076148.2259998,765.56775,788.93774,832.0513,765.56775,0.1946086075,0.3469894325,0.7172870874999999,0.8094279124999999,0.43687059999999994
1752076148.2259998,786.9231,774.0293,808.2784,795.78754,0.1946086075,0.3469894325,0.7172870874999999,0.8094279124999999,0.43687059999999994
1752076148.227,776.8498,766.77655,807.47253,793.7729,0.1946086075,0.3469894325,0.7172870874999999,0.8094279124999999,0.43687059999999994
1752076148.227,756.7033,794.57874,830.4396,756.7033,0.1946086075,0.3469894325,0.7172870874999999,0.8094279124999999,0.43687059999999994
1752076148.2510002,764.7619,789.7436,821.978,758.315,0.1946086075,0.3469894325,0.7172870874999999,0.8094279124999999,0.43687059999999994
1752076148.2510002,778.0586,785.31134,821.5751,770.80585,0.1946086075,0.3469894325,0.7172870874999999,0.8094279124999999,0.43687059999999994
1752076148.2510002,790.9524,789.34064,824.7985,776.8498,0.1946086075,0.3469894325,0.7172870874999999,0.8094279124999999,0.43687059999999994
1752076148.2510002,789.34064,781.28204,816.7399,789.7436,0.1946086075,0.3469894325,0.7172870874999999,0.8094279124999999,0.43687059999999994
1752076148.2510002,784.5055,782.8938,819.5604,788.5348,0.1946086075,0.3469894325,0.7172870874999999,0.8094279124999999,0.43687059999999994
1752076148.252,790.14655,772.01465,810.293,799.81683,0.1946086075,0.3469894325,0.7172870874999999,0.8094279124999999,0.43687059999999994
1752076148.252,788.5348,768.3883,805.05493,795.78754,0.1946086075,0.3469894325,0.7172870874999999,0.8094279124999999,0.43687059999999994
1752076148.252,772.8205,794.9817,830.84247,781.28204,0.1946086075,0.3469894325,0.7172870874999999,0.8094279124999999,0.43687059999999994
1752076148.252,769.59705,795.38464,831.2454,782.49084,0.1946086075,0.3469894325,0.7172870874999999,0.8094279124999999,0.43687059999999994
1752076148.252,781.685,771.6117,805.4579,777.6557,0.1946086075,0.3469894325,0.7172870874999999,0.8094279124999999,0.43687059999999994
1752076148.252,775.2381,785.31134,815.9341,766.3736,0.1946086075,0.3469894325,0.7172870874999999,0.8094279124999999,0.43687059999999994
1752076148.252,771.2088,799.41394,830.84247,767.98535,0.1946086075,0.3469894325,0.7172870874999999,0.8094279124999999,0.43687059999999994
1752076148.3270001,773.22345,778.46155,813.5165,780.07324,0.1946086075,0.3469894325,0.7172870874999999,0.8094279124999999,0.43687059999999994
1752076148.3270001,774.83514,775.2381,805.05493,777.25275,0.1946086075,0.3469894325,0.7172870874999999,0.8094279124999999,0.43687059999999994
1752076148.3270001,777.25275,788.1319,814.3223,771.6117,0.1946086075,0.3469894325,0.7172870874999999,0.8094279124999999,0.43687059999999994
1752076148.3270001,776.04395,790.14655,817.9487,776.4469,0.1946086075,0.3469894325,0.7172870874999999,0.8094279124999999,0.43687059999999994
1752076148.328,775.2381,785.7143,806.26373,780.87915,0.1946086075,0.3469894325,0.7172870874999999,0.8094279124999999,0.43687059999999994
1752076148.328,774.0293,777.6557,801.8315,774.43225,0.1946086075,0.3469894325,0.7172870874999999,0.8094279124999999,0.43687059999999994
1752076148.328,769.19415,776.8498,803.0403,770.80585,0.1946086075,0.3469894325,0.7172870874999999,0.8094279124999999,0.43687059999999994
1752076148.328,763.95605,784.90845,804.2491,762.3443,0.1946086075,0.3469894325,0.7172870874999999,0.8094279124999999,0.43687059999999994
1752076148.329,771.6117,772.01465,795.38464,780.4762,0.1946086075,0.3469894325,0.7172870874999999,0.8094279124999999,0.43687059999999994
1752076148.329,779.67035,764.35895,798.60803,792.5641,0.23236144,0.3609904825,0.7298437050000001,0.8102916499999999,0.4341469225
1752076148.33,770.0,785.31134,815.5311,770.80585,0.23236144,0.3609904825,0.7298437050000001,0.8102916499999999,0.4341469225
1752076148.33,770.0,780.4762,812.3077,784.90845,0.23236144,0.3609904825,0.7298437050000001,0.8102916499999999,0.4341469225
1752076148.351,776.8498,771.2088,805.05493,791.75824,0.23236144,0.3609904825,0.7298437050000001,0.8102916499999999,0.4341469225
1752076148.352,769.19415,784.90845,811.9048,781.685,0.23236144,0.3609904825,0.7298437050000001,0.8102916499999999,0.4341469225
1752076148.352,762.3443,791.3553,819.15753,767.5824,0.23236144,0.3609904825,0.7298437050000001,0.8102916499999999,0.4341469225
1752076148.352,772.01465,778.0586,802.23444,788.1319,0.23236144,0.3609904825,0.7298437050000001,0.8102916499999999,0.4341469225
1752076148.353,787.326,766.77655,791.75824,795.78754,0.23236144,0.3609904825,0.7298437050000001,0.8102916499999999,0.4341469225
1752076148.353,775.2381,771.6117,803.44324,776.04395,0.23236144,0.3609904825,0.7298437050000001,0.8102916499999999,0.4341469225
1752076148.353,771.6117,778.0586,808.2784,778.0586,0.23236144,0.3609904825,0.7298437050000001,0.8102916499999999,0.4341469225
1752076148.353,783.69965,777.25275,811.50183,777.6557,0.23236144,0.3609904825,0.7298437050000001,0.8102916499999999,0.4341469225
1752076148.353,774.0293,775.64105,811.0989,789.34064,0.23236144,0.3609904825,0.7298437050000001,0.8102916499999999,0.4341469225
1752076148.3539999,757.1062,781.28204,811.0989,772.8205,0.23236144,0.3609904825,0.7298437050000001,0.8102916499999999,0.4341469225
1752076148.3539999,757.9121,790.54944,821.1722,755.4945,0.23236144,0.3609904825,0.7298437050000001,0.8102916499999999,0.4341469225
1752076148.3539999,773.6264,781.28204,812.71063,779.2674,0.23236144,0.3609904825,0.7298437050000001,0.8102916499999999,0.4341469225
1752076148.404,772.01465,778.0586,809.89014,790.9524,0.23236144,0.3609904825,0.7298437050000001,0.8102916499999999,0.4341469225
1752076148.404,761.9414,794.9817,822.7839,767.5824,0.23236144,0.3609904825,0.7298437050000001,0.8102916499999999,0.4341469225
1752076148.404,770.80585,791.75824,818.7546,774.43225,0.23236144,0.3609904825,0.7298437050000001,0.8102916499999999,0.4341469225
1752076148.405,773.22345,776.4469,811.0989,786.9231,0.23236144,0.3609904825,0.7298437050000001,0.8102916499999999,0.4341469225
1752076148.405,772.4176,777.6557,807.0696,782.49084,0.23236144,0.3609904825,0.7298437050000001,0.8102916499999999,0.4341469225
1752076148.405,776.04395,786.9231,813.1135,774.43225,0.23236144,0.3609904825,0.7298437050000001,0.8102916499999999,0.4341469225
1752076148.405,772.4176,784.10254,813.5165,773.6264,0.23236144,0.3609904825,0.7298437050000001,0.8102916499999999,0.4341469225
1752076148.405,776.04395,776.04395,805.8608,790.14655,0.23236144,0.3609904825,0.7298437050000001,0.8102916499999999,0.4341469225
1752076148.405,769.59705,788.1319,823.5897,788.5348,0.23236144,0.3609904825,0.7298437050000001,0.8102916499999999,0.4341469225
1752076148.405,765.16486,805.05493,836.8865,765.56775,0.23236144,0.3609904825,0.7298437050000001,0.8102916499999999,0.4341469225
1752076148.4060001,780.87915,787.72894,816.7399,769.19415,0.23236144,0.3609904825,0.7298437050000001,0.8102916499999999,0.4341469225
1752076148.4060001,771.6117,782.8938,817.1429,769.19415,0.2521060825,0.3656037075,0.7335881725,0.8103598624999999,0.43526270999999994
1752076148.43,763.1502,796.1905,824.7985,768.3883,0.2521060825,0.3656037075,0.7335881725,0.8103598624999999,0.43526270999999994
1752076148.43,776.04395,796.5934,824.7985,771.6117,0.2521060825,0.3656037075,0.7335881725,0.8103598624999999,0.43526270999999994
1752076148.431,784.10254,790.54944,813.5165,777.25275,0.2521060825,0.3656037075,0.7335881725,0.8103598624999999,0.43526270999999994
1752076148.431,773.22345,787.326,801.8315,774.83514,0.2521060825,0.3656037075,0.7335881725,0.8103598624999999,0.43526270999999994
1752076148.431,765.16486,790.9524,815.5311,767.1795,0.2521060825,0.3656037075,0.7335881725,0.8103598624999999,0.43526270999999994
1752076148.431,778.46155,785.7143,817.1429,775.64105,0.2521060825,0.3656037075,0.7335881725,0.8103598624999999,0.43526270999999994
1752076148.431,783.2967,782.49084,809.89014,784.90845,0.2521060825,0.3656037075,0.7335881725,0.8103598624999999,0.43526270999999994
1752076148.432,780.4762,763.1502,790.9524,799.011,0.2521060825,0.3656037075,0.7335881725,0.8103598624999999,0.43526270999999994
1752076148.432,774.0293,755.09155,792.96704,785.31134,0.2521060825,0.3656037075,0.7335881725,0.8103598624999999,0.43526270999999994
1752076148.432,780.87915,787.72894,821.5751,772.01465,0.2521060825,0.3656037075,0.7335881725,0.8103598624999999,0.43526270999999994
1752076148.432,790.14655,787.72894,815.12823,787.326,0.2521060825,0.3656037075,0.7335881725,0.8103598624999999,0.43526270999999994
1752076148.432,777.6557,780.87915,817.1429,778.86444,0.2521060825,0.3656037075,0.7335881725,0.8103598624999999,0.43526270999999994
1752076148.501,769.19415,788.1319,826.4103,768.3883,0.2521060825,0.3656037075,0.7335881725,0.8103598624999999,0.43526270999999994
1752076148.502,773.6264,787.72894,817.5458,770.0,0.2521060825,0.3656037075,0.7335881725,0.8103598624999999,0.43526270999999994
1752076148.502,788.5348,777.6557,809.0842,777.25275,0.2521060825,0.3656037075,0.7335881725,0.8103598624999999,0.43526270999999994
1752076148.502,796.99634,782.0879,819.9634,780.07324,0.2521060825,0.3656037075,0.7335881725,0.8103598624999999,0.43526270999999994
1752076148.503,773.6264,792.5641,823.1868,767.1795,0.2521060825,0.3656037075,0.7335881725,0.8103598624999999,0.43526270999999994
1752076148.503,764.35895,784.10254,814.3223,770.0,0.2521060825,0.3656037075,0.7335881725,0.8103598624999999,0.43526270999999994
1752076148.503,786.9231,767.1795,799.011,786.1172,0.2521060825,0.3656037075,0.7335881725,0.8103598624999999,0.43526270999999994
1752076148.503,793.7729,764.7619,798.20514,792.1612,0.2521060825,0.3656037075,0.7335881725,0.8103598624999999,0.43526270999999994
1752076148.503,764.7619,785.31134,826.4103,776.4469,0.2521060825,0.3656037075,0.7335881725,0.8103598624999999,0.43526270999999994
1752076148.504,763.95605,786.1172,828.022,769.59705,0.2521060825,0.3656037075,0.7335881725,0.8103598624999999,0.43526270999999994
1752076148.504,781.28204,780.87915,817.5458,773.22345,0.2521060825,0.3656037075,0.7335881725,0.8103598624999999,0.43526270999999994
1752076148.504,765.16486,777.6557,819.15753,769.19415,0.2521060825,0.3656037075,0.7335881725,0.8103598624999999,0.43526270999999994
1752076148.552,763.95605,780.07324,826.8132,756.30035,0.2521060825,0.3656037075,0.7335881725,0.8103598624999999,0.43526270999999994
1752076148.553,755.89746,779.2674,829.2308,753.0769,0.3316141725,0.42341546750000003,0.7096746899999999,0.7972693875000001,0.4133315025
1752076148.554,746.63007,781.28204,828.022,759.12085,0.3316141725,0.42341546750000003,0.7096746899999999,0.7972693875000001,0.4133315025
1752076148.555,766.77655,785.31134,827.2161,764.35895,0.3316141725,0.42341546750000003,0.7096746899999999,0.7972693875000001,0.4133315025
1752076148.555,780.07324,778.86444,813.91943,766.3736,0.3316141725,0.42341546750000003,0.7096746899999999,0.7972693875000001,0.4133315025
1752076148.555,775.2381,780.4762,815.9341,766.3736,0.3316141725,0.42341546750000003,0.7096746899999999,0.7972693875000001,0.4133315025
1752076148.555,781.28204,766.3736,810.696,796.99634,0.3316141725,0.42341546750000003,0.7096746899999999,0.7972693875000001,0.4133315025
1752076148.555,790.14655,765.16486,801.8315,806.6667,0.3316141725,0.42341546750000003,0.7096746899999999,0.7972693875000001,0.4133315025
1752076148.556,775.2381,799.81683,828.022,776.4469,0.3316141725,0.42341546750000003,0.7096746899999999,0.7972693875000001,0.4133315025
1752076148.556,772.8205,791.75824,823.5897,774.43225,0.3316141725,0.42341546750000003,0.7096746899999999,0.7972693875000001,0.4133315025
1752076148.556,775.2381,785.31134,815.9341,784.10254,0.3316141725,0.42341546750000003,0.7096746899999999,0.7972693875000001,0.4133315025
1752076148.557,779.67035,790.14655,820.7692,782.49084,0.3316141725,0.42341546750000003,0.7096746899999999,0.7972693875000001,0.4133315025
1752076148.5830002,780.4762,785.7143,813.5165,772.01465,0.3316141725,0.42341546750000003,0.7096746899999999,0.7972693875000001,0.4133315025
1752076148.5830002,781.685,785.7143,809.4872,774.83514,0.3316141725,0.42341546750000003,0.7096746899999999,0.7972693875000001,0.4133315025
1752076148.5830002,773.6264,796.99634,820.3663,773.22345,0.3316141725,0.42341546750000003,0.7096746899999999,0.7972693875000001,0.4133315025
1752076148.584,765.9707,807.47253,829.2308,760.7326,0.3316141725,0.42341546750000003,0.7096746899999999,0.7972693875000001,0.4133315025
1752076148.584,783.2967,793.36993,812.71063,778.46155,0.3316141725,0.42341546750000003,0.7096746899999999,0.7972693875000001,0.4133315025
1752076148.584,788.1319,772.01465,790.9524,803.0403,0.3316141725,0.42341546750000003,0.7096746899999999,0.7972693875000001,0.4133315025
1752076148.584,784.90845,773.22345,793.36993,783.69965,0.3316141725,0.42341546750000003,0.7096746899999999,0.7972693875000001,0.4133315025
1752076148.584,785.7143,796.5934,813.91943,764.35895,0.3316141725,0.42341546750000003,0.7096746899999999,0.7972693875000001,0.4133315025
1752076148.585,772.8205,797.8022,815.5311,772.01465,0.3316141725,0.42341546750000003,0.7096746899999999,0.7972693875000001,0.4133315025
1752076148.585,770.40295,772.8205,796.5934,790.9524,0.3316141725,0.42341546750000003,0.7096746899999999,0.7972693875000001,0.4133315025
1752076148.585,780.87915,773.6264,797.8022,790.9524,0.3316141725,0.42341546750000003,0.7096746899999999,0.7972693875000001,0.4133315025
1752076148.585,772.4176,796.5934,827.2161,766.77655,0.3316141725,0.42341546750000003,0.7096746899999999,0.7972693875000001,0.4133315025
1752076148.635,765.9707,801.02563,835.6777,772.01465,0.3316141725,0.42341546750000003,0.7096746899999999,0.7972693875000001,0.4133315025
1752076148.635,770.80585,786.52014,815.5311,782.49084,0.3316141725,0.42341546750000003,0.7096746899999999,0.7972693875000001,0.4133315025
1752076148.635,771.6117,778.46155,807.8755,766.3736,0.3316141725,0.42341546750000003,0.7096746899999999,0.7972693875000001,0.4133315025
1752076148.636,782.8938,777.6557,806.26373,757.9121,0.3186344325,0.41162449,0.709412935,0.792797715,0.419421335
1752076148.6369998,781.28204,779.67035,804.65204,763.95605,0.3186344325,0.41162449,0.709412935,0.792797715,0.419421335
1752076148.6369998,769.19415,763.5531,792.1612,790.54944,0.3186344325,0.41162449,0.709412935,0.792797715,0.419421335
1752076148.6369998,771.6117,761.13556,797.8022,794.9817,0.3186344325,0.41162449,0.709412935,0.792797715,0.419421335
1752076148.6369998,767.1795,796.99634,832.4542,770.80585,0.3186344325,0.41162449,0.709412935,0.792797715,0.419421335
1752076148.638,770.40295,799.011,829.6337,775.64105,0.3186344325,0.41162449,0.709412935,0.792797715,0.419421335
1752076148.638,776.04395,787.326,819.5604,780.4762,0.3186344325,0.41162449,0.709412935,0.792797715,0.419421335
1752076148.638,769.19415,799.011,828.4249,773.6264,0.3186344325,0.41162449,0.709412935,0.792797715,0.419421335
1752076148.638,770.80585,799.41394,828.4249,771.2088,0.3186344325,0.41162449,0.709412935,0.792797715,0.419421335
1752076148.685,782.0879,779.67035,815.5311,775.64105,0.3186344325,0.41162449,0.709412935,0.792797715,0.419421335
1752076148.686,779.67035,776.4469,809.0842,784.90845,0.3186344325,0.41162449,0.709412935,0.792797715,0.419421335
1752076148.686,764.35895,789.34064,821.1722,773.22345,0.3186344325,0.41162449,0.709412935,0.792797715,0.419421335
1752076148.686,759.5238,784.90845,821.978,776.8498,0.3186344325,0.41162449,0.709412935,0.792797715,0.419421335
1752076148.686,770.80585,775.2381,811.0989,787.72894,0.3186344325,0.41162449,0.709412935,0.792797715,0.419421335
1752076148.687,784.5055,777.25275,808.68134,770.40295,0.3186344325,0.41162449,0.709412935,0.792797715,0.419421335
1752076148.687,781.685,783.2967,810.696,760.7326,0.3186344325,0.41162449,0.709412935,0.792797715,0.419421335
1752076148.687,763.95605,785.31134,815.5311,765.16486,0.3186344325,0.41162449,0.709412935,0.792797715,0.419421335
1752076148.687,773.6264,771.2088,809.4872,779.67035,0.3186344325,0.41162449,0.709412935,0.792797715,0.419421335
1752076148.688,783.2967,753.0769,791.75824,787.72894,0.3186344325,0.41162449,0.709412935,0.792797715,0.419421335
1752076148.688,761.9414,787.326,822.7839,770.40295,0.3186344325,0.41162449,0.709412935,0.792797715,0.419421335
1752076148.688,757.1062,801.4286,832.0513,753.8828,0.3186344325,0.41162449,0.709412935,0.792797715,0.419421335
1752076148.7459998,757.9121,782.49084,806.6667,745.82416,0.3186344325,0.41162449,0.709412935,0.792797715,0.419421335
1752076148.747,760.32965,780.4762,811.50183,757.50916,0.3186344325,0.41162449,0.709412935,0.792797715,0.419421335
1752076148.747,775.2381,770.80585,822.381,768.7912,0.3186344325,0.41162449,0.709412935,0.792797715,0.419421335
1752076148.748,790.9524,769.59705,809.4872,784.5055,0.3186344325,0.41162449,0.709412935,0.792797715,0.419421335
1752076148.748,777.25275,781.685,787.326,788.1319,0.3186344325,0.41162449,0.709412935,0.792797715,0.419421335
1752076148.7489998,754.2857,796.5934,800.6227,755.09155,0.2996422975,0.4021373275,0.705353155,0.78634714,0.42094395749999997
1752076148.7510002,749.0476,802.6374,806.6667,724.87177,0.2996422975,0.4021373275,0.705353155,0.78634714,0.42094395749999997
1752076148.752,749.0476,808.68134,791.3553,718.4249,0.2996422975,0.4021373275,0.705353155,0.78634714,0.42094395749999997
1752076148.752,745.42126,800.2198,782.8938,734.94507,0.2996422975,0.4021373275,0.705353155,0.78634714,0.42094395749999997
1752076148.753,730.9158,807.8755,782.8938,716.8132,0.2996422975,0.4021373275,0.705353155,0.78634714,0.42094395749999997
1752076148.753,722.4542,844.5421,788.5348,678.5348,0.2996422975,0.4021373275,0.705353155,0.78634714,0.42094395749999997
1752076148.753,722.8571,830.0366,773.6264,685.78754,0.2996422975,0.4021373275,0.705353155,0.78634714,0.42094395749999997
1752076148.779,711.5751,816.337,761.9414,684.57874,0.2996422975,0.4021373275,0.705353155,0.78634714,0.42094395749999997
1752076148.779,705.5311,833.2601,765.9707,666.04395,0.2996422975,0.4021373275,0.705353155,0.78634714,0.42094395749999997
1752076148.779,703.5165,841.31866,773.6264,670.4762,0.2996422975,0.4021373275,0.705353155,0.78634714,0.42094395749999997
1752076148.78,694.2491,826.8132,775.2381,675.31134,0.2996422975,0.4021373275,0.705353155,0.78634714,0.42094395749999997
1752076148.78,695.8608,823.5897,778.86444,674.10254,0.2996422975,0.4021373275,0.705353155,0.78634714,0.42094395749999997
1752076148.78,685.38464,830.4396,787.326,667.25275,0.2996422975,0.4021373275,0.705353155,0.78634714,0.42094395749999997
1752076148.78,670.87915,830.4396,782.0879,652.74725,0.2996422975,0.4021373275,0.705353155,0.78634714,0.42094395749999997
1752076148.78,678.1319,819.9634,764.7619,657.98535,0.2996422975,0.4021373275,0.705353155,0.78634714,0.42094395749999997
1752076148.78,671.28204,821.1722,773.22345,654.7619,0.2996422975,0.4021373275,0.705353155,0.78634714,0.42094395749999997
1752076148.781,656.77655,855.42126,809.89014,628.1685,0.2996422975,0.4021373275,0.705353155,0.78634714,0.42094395749999997
1752076148.781,662.01465,856.63007,801.02563,634.61536,0.2996422975,0.4021373275,0.705353155,0.78634714,0.42094395749999997
1752076148.781,666.4469,852.1978,802.23444,646.30035,0.2996422975,0.4021373275,0.705353155,0.78634714,0.42094395749999997
1752076148.8270001,652.3443,860.65936,833.2601,645.4945,0.2996422975,0.4021373275,0.705353155,0.78634714,0.42094395749999997
1752076148.8270001,646.30035,857.8388,833.663,641.4652,0.2996422975,0.4021373275,0.705353155,0.78634714,0.42094395749999997
1752076148.8270001,652.74725,852.1978,816.7399,634.61536,0.2996422975,0.4021373275,0.705353155,0.78634714,0.42094395749999997
1752076148.828,672.0879,819.9634,784.90845,646.30035,0.2996422975,0.4021373275,0.705353155,0.78634714,0.42094395749999997
1752076148.828,680.54944,816.7399,783.2967,655.9707,0.2996422975,0.4021373275,0.705353155,0.78634714,0.42094395749999997
1752076148.828,668.0586,823.1868,792.96704,658.7912,0.2996422975,0.4021373275,0.705353155,0.78634714,0.42094395749999997
1752076148.828,669.2674,813.91943,799.011,660.80585,0.2996422975,0.4021373275,0.705353155,0.78634714,0.42094395749999997
1752076148.828,686.99634,801.02563,788.93774,678.93774,0.2975803775,0.40844031999999997,0.7016402875000001,0.7839799275,0.41607732000000003
1752076148.8300002,685.38464,810.696,793.36993,667.6557,0.2975803775,0.40844031999999997,0.7016402875000001,0.7839799275,0.41607732000000003
1752076148.8300002,678.5348,836.8865,814.3223,643.47986,0.2975803775,0.40844031999999997,0.7016402875000001,0.7839799275,0.41607732000000003
1752076148.8300002,702.71063,828.4249,799.011,678.1319,0.2975803775,0.40844031999999997,0.7016402875000001,0.7839799275,0.41607732000000003
1752076148.8300002,715.6044,820.7692,809.0842,705.12823,0.2975803775,0.40844031999999997,0.7016402875000001,0.7839799275,0.41607732000000003
1752076148.853,700.696,816.7399,829.2308,701.50183,0.2975803775,0.40844031999999997,0.7016402875000001,0.7839799275,0.41607732000000003
1752076148.853,709.15753,813.5165,816.337,703.91943,0.2975803775,0.40844031999999997,0.7016402875000001,0.7839799275,0.41607732000000003
1752076148.853,734.94507,801.4286,793.36993,712.381,0.2975803775,0.40844031999999997,0.7016402875000001,0.7839799275,0.41607732000000003
1752076148.853,734.5421,801.02563,794.17584,705.12823,0.2975803775,0.40844031999999997,0.7016402875000001,0.7839799275,0.41607732000000003
1752076148.854,734.1392,817.1429,807.8755,708.7546,0.2975803775,0.40844031999999997,0.7016402875000001,0.7839799275,0.41607732000000003
1752076148.854,737.76556,807.47253,807.8755,723.663,0.2975803775,0.40844031999999997,0.7016402875000001,0.7839799275,0.41607732000000003
1752076148.854,734.94507,777.6557,801.4286,725.2747,0.2975803775,0.40844031999999997,0.7016402875000001,0.7839799275,0.41607732000000003
1752076148.854,736.9597,778.0586,801.02563,722.0513,0.2975803775,0.40844031999999997,0.7016402875000001,0.7839799275,0.41607732000000003
1752076148.854,731.7216,811.0989,819.5604,706.337,0.2975803775,0.40844031999999997,0.7016402875000001,0.7839799275,0.41607732000000003
1752076148.854,738.1685,812.71063,816.7399,728.9011,0.2975803775,0.40844031999999997,0.7016402875000001,0.7839799275,0.41607732000000003
1752076148.855,747.4359,798.20514,817.5458,753.8828,0.2975803775,0.40844031999999997,0.7016402875000001,0.7839799275,0.41607732000000003
1752076148.855,747.03296,792.5641,829.6337,762.3443,0.2975803775,0.40844031999999997,0.7016402875000001,0.7839799275,0.41607732000000003
1752076148.9190001,757.1062,794.57874,823.5897,763.1502,0.2975803775,0.40844031999999997,0.7016402875000001,0.7839799275,0.41607732000000003
1752076148.9190001,770.40295,793.7729,807.8755,759.92676,0.2975803775,0.40844031999999997,0.7016402875000001,0.7839799275,0.41607732000000003
1752076148.92,776.4469,786.1172,801.8315,770.40295,0.2975803775,0.40844031999999997,0.7016402875000001,0.7839799275,0.41607732000000003
1752076148.92,782.49084,775.64105,803.0403,781.28204,0.2975803775,0.40844031999999997,0.7016402875000001,0.7839799275,0.41607732000000003
1752076148.92,784.90845,768.3883,805.8608,782.49084,0.2975803775,0.40844031999999997,0.7016402875000001,0.7839799275,0.41607732000000003
1752076148.92,790.14655,770.0,807.47253,773.22345,0.2975803775,0.40844031999999997,0.7016402875000001,0.7839799275,0.41607732000000003
1752076148.92,810.696,753.47986,788.5348,801.4286,0.2975803775,0.40844031999999997,0.7016402875000001,0.7839799275,0.41607732000000003
1752076148.921,813.1135,738.97437,786.52014,814.3223,0.2975803775,0.40844031999999997,0.7016402875000001,0.7839799275,0.41607732000000003
1752076148.921,804.65204,770.80585,824.7985,790.9524,0.2975803775,0.40844031999999997,0.7016402875000001,0.7839799275,0.41607732000000003
1752076148.921,828.4249,776.04395,819.9634,813.1135,0.33259983499999995,0.42608677,0.6989180375,0.7891764950000001,0.4116073975
1752076148.922,841.7216,763.95605,809.89014,835.2747,0.33259983499999995,0.42608677,0.6989180375,0.7891764950000001,0.4116073975
1752076148.923,836.08057,774.0293,821.5751,826.0073,0.33259983499999995,0.42608677,0.6989180375,0.7891764950000001,0.4116073975
1752076148.981,830.0366,769.59705,821.5751,829.2308,0.33259983499999995,0.42608677,0.6989180375,0.7891764950000001,0.4116073975
1752076148.982,843.3333,759.12085,818.3516,850.989,0.33259983499999995,0.42608677,0.6989180375,0.7891764950000001,0.4116073975
1752076148.982,844.94507,753.8828,815.5311,856.2271,0.33259983499999995,0.42608677,0.6989180375,0.7891764950000001,0.4116073975
1752076148.982,837.6923,755.89746,820.3663,856.2271,0.33259983499999995,0.42608677,0.6989180375,0.7891764950000001,0.4116073975
1752076148.983,846.55676,757.50916,814.7253,859.45056,0.33259983499999995,0.42608677,0.6989180375,0.7891764950000001,0.4116073975
1752076148.983,852.1978,748.6447,809.4872,862.674,0.33259983499999995,0.42608677,0.6989180375,0.7891764950000001,0.4116073975
1752076148.983,844.94507,752.27106,821.1722,868.315,0.33259983499999995,0.42608677,0.6989180375,0.7891764950000001,0.4116073975
1752076148.983,845.7509,771.6117,826.4103,857.03296,0.33259983499999995,0.42608677,0.6989180375,0.7891764950000001,0.4116073975
1752076148.984,853.00366,771.2088,815.5311,857.8388,0.33259983499999995,0.42608677,0.6989180375,0.7891764950000001,0.4116073975
1752076148.984,858.24176,751.4652,796.5934,871.53845,0.33259983499999995,0.42608677,0.6989180375,0.7891764950000001,0.4116073975
1752076148.984,850.58606,743.4066,790.54944,864.2857,0.33259983499999995,0.42608677,0.6989180375,0.7891764950000001,0.4116073975
1752076148.984,835.2747,763.5531,807.8755,842.1245,0.33259983499999995,0.42608677,0.6989180375,0.7891764950000001,0.4116073975
1752076149.006,839.707,765.16486,803.0403,833.2601,0.33259983499999995,0.42608677,0.6989180375,0.7891764950000001,0.4116073975
1752076149.006,843.73627,757.9121,793.36993,829.6337,0.33259983499999995,0.42608677,0.6989180375,0.7891764950000001,0.4116073975
1752076149.006,841.31866,765.16486,801.4286,840.5128,0.33259983499999995,0.42608677,0.6989180375,0.7891764950000001,0.4116073975
1752076149.006,839.707,765.56775,801.8315,838.9011,0.33259983499999995,0.42608677,0.6989180375,0.7891764950000001,0.4116073975
1752076149.007,825.6044,766.77655,804.2491,824.7985,0.33259983499999995,0.42608677,0.6989180375,0.7891764950000001,0.4116073975
1752076149.007,828.022,746.63007,788.93774,847.76556,0.33259983499999995,0.42608677,0.6989180375,0.7891764950000001,0.4116073975
1752076149.007,837.6923,750.2564,793.36993,849.3773,0.33259983499999995,0.42608677,0.6989180375,0.7891764950000001,0.4116073975
1752076149.007,822.7839,786.52014,823.5897,821.978,0.33259983499999995,0.42608677,0.6989180375,0.7891764950000001,0.4116073975
1752076149.007,823.1868,774.0293,809.0842,826.0073,0.33259983499999995,0.42608677,0.6989180375,0.7891764950000001,0.4116073975
1752076149.008,838.49817,761.9414,792.5641,832.8571,0.33259983499999995,0.42608677,0.6989180375,0.7891764950000001,0.4116073975
1752076149.008,837.28937,772.4176,800.6227,826.0073,0.33259983499999995,0.42608677,0.6989180375,0.7891764950000001,0.4116073975
1752076149.008,823.5897,765.9707,796.99634,822.381,0.39017198,0.45753356249999994,0.703133895,0.7970812,0.4110302575
1752076149.056,828.4249,758.315,792.96704,821.5751,0.39017198,0.45753356249999994,0.703133895,0.7970812,0.4110302575
1752076149.057,826.8132,765.9707,803.0403,815.12823,0.39017198,0.45753356249999994,0.703133895,0.7970812,0.4110302575
1752076149.057,809.4872,781.28204,815.5311,801.02563,0.39017198,0.45753356249999994,0.703133895,0.7970812,0.4110302575
1752076149.057,815.9341,784.5055,815.5311,799.81683,0.39017198,0.45753356249999994,0.703133895,0.7970812,0.4110302575
1752076149.057,818.3516,772.8205,803.0403,801.8315,0.39017198,0.45753356249999994,0.703133895,0.7970812,0.4110302575
1752076149.057,813.1135,765.56775,797.3993,798.20514,0.39017198,0.45753356249999994,0.703133895,0.7970812,0.4110302575
1752076149.0579998,817.1429,769.59705,807.47253,801.8315,0.39017198,0.45753356249999994,0.703133895,0.7970812,0.4110302575
1752076149.0579998,815.5311,781.685,816.337,801.8315,0.39017198,0.45753356249999994,0.703133895,0.7970812,0.4110302575
1752076149.0579998,815.5311,764.35895,795.78754,803.8461,0.39017198,0.45753356249999994,0.703133895,0.7970812,0.4110302575
1752076149.0579998,805.05493,753.8828,795.78754,805.8608,0.39017198,0.45753356249999994,0.703133895,0.7970812,0.4110302575
1752076149.059,796.1905,782.49084,819.9634,790.14655,0.39017198,0.45753356249999994,0.703133895,0.7970812,0.4110302575
1752076149.059,800.6227,780.87915,810.293,800.6227,0.39017198,0.45753356249999994,0.703133895,0.7970812,0.4110302575
1752076149.112,801.4286,774.83514,799.011,802.6374,0.39017198,0.45753356249999994,0.703133895,0.7970812,0.4110302575
1752076149.113,800.2198,780.07324,800.2198,795.38464,0.39017198,0.45753356249999994,0.703133895,0.7970812,0.4110302575
1752076149.113,796.99634,782.49084,804.65204,798.60803,0.39017198,0.45753356249999994,0.703133895,0.7970812,0.4110302575
1752076149.113,800.2198,781.685,805.4579,803.0403,0.39017198,0.45753356249999994,0.703133895,0.7970812,0.4110302575
1752076149.113,811.50183,765.9707,793.7729,826.8132,0.39017198,0.45753356249999994,0.703133895,0.7970812,0.4110302575
1752076149.1139998,804.2491,766.77655,796.5934,816.337,0.39017198,0.45753356249999994,0.703133895,0.7970812,0.4110302575
1752076149.1139998,801.8315,786.52014,817.5458,799.81683,0.39017198,0.45753356249999994,0.703133895,0.7970812,0.4110302575
1752076149.1139998,811.50183,792.5641,822.7839,806.6667,0.39017198,0.45753356249999994,0.703133895,0.7970812,0.4110302575
1752076149.115,816.337,766.77655,799.011,820.7692,0.39017198,0.45753356249999994,0.703133895,0.7970812,0.4110302575
1752076149.115,801.4286,772.01465,809.0842,805.8608,0.39017198,0.45753356249999994,0.703133895,0.7970812,0.4110302575
1752076149.115,784.5055,804.65204,835.6777,778.86444,0.39017198,0.45753356249999994,0.703133895,0.7970812,0.4110302575
1752076149.116,790.54944,790.9524,815.12823,789.34064,0.39017198,0.45753356249999994,0.703133895,0.7970812,0.4110302575
1752076149.141,804.2491,784.90845,809.4872,799.81683,0.39017198,0.45753356249999994,0.703133895,0.7970812,0.4110302575
1752076149.1420002,801.4286,794.17584,821.1722,794.57874,0.4444973175,0.487079815,0.736285775,0.8075274175,0.41312874250000003
1752076149.1430001,782.49084,792.96704,818.3516,785.7143,0.4444973175,0.487079815,0.736285775,0.8075274175,0.41312874250000003
1752076149.1430001,790.9524,782.49084,808.68134,789.34064,0.4444973175,0.487079815,0.736285775,0.8075274175,0.41312874250000003
1752076149.1430001,791.75824,770.40295,802.6374,790.54944,0.4444973175,0.487079815,0.736285775,0.8075274175,0.41312874250000003
1752076149.144,781.685,766.77655,800.2198,786.9231,0.4444973175,0.487079815,0.736285775,0.8075274175,0.41312874250000003
1752076149.144,776.4469,772.01465,803.8461,782.49084,0.4444973175,0.487079815,0.736285775,0.8075274175,0.41312874250000003
1752076149.144,774.83514,764.7619,793.7729,793.36993,0.4444973175,0.487079815,0.736285775,0.8075274175,0.41312874250000003
1752076149.144,778.0586,752.674,785.7143,798.20514,0.4444973175,0.487079815,0.736285775,0.8075274175,0.41312874250000003
1752076149.144,770.40295,778.46155,813.91943,765.9707,0.4444973175,0.487079815,0.736285775,0.8075274175,0.41312874250000003
1752076149.145,767.98535,787.326,815.9341,761.13556,0.4444973175,0.487079815,0.736285775,0.8075274175,0.41312874250000003
1752076149.145,781.685,774.83514,801.4286,772.4176,0.4444973175,0.487079815,0.736285775,0.8075274175,0.41312874250000003
1752076149.189,779.67035,778.46155,807.8755,776.8498,0.4444973175,0.487079815,0.736285775,0.8075274175,0.41312874250000003
1752076149.189,784.10254,785.7143,815.12823,790.9524,0.4444973175,0.487079815,0.736285775,0.8075274175,0.41312874250000003
1752076149.19,794.9817,783.2967,811.50183,788.93774,0.4444973175,0.487079815,0.736285775,0.8075274175,0.41312874250000003
1752076149.19,787.326,771.6117,799.41394,775.2381,0.4444973175,0.487079815,0.736285775,0.8075274175,0.41312874250000003
1752076149.19,785.7143,772.4176,799.41394,780.87915,0.4444973175,0.487079815,0.736285775,0.8075274175,0.41312874250000003
1752076149.19,792.1612,776.4469,806.6667,793.7729,0.4444973175,0.487079815,0.736285775,0.8075274175,0.41312874250000003
1752076149.191,791.75824,778.46155,811.50183,790.54944,0.4444973175,0.487079815,0.736285775,0.8075274175,0.41312874250000003
1752076149.191,792.1612,761.9414,793.36993,802.6374,0.4444973175,0.487079815,0.736285775,0.8075274175,0.41312874250000003
1752076149.191,789.7436,761.53845,796.1905,806.26373,0.4444973175,0.487079815,0.736285775,0.8075274175,0.41312874250000003
1752076149.192,794.57874,798.60803,829.6337,787.72894,0.4444973175,0.487079815,0.736285775,0.8075274175,0.41312874250000003
1752076149.192,791.75824,791.75824,834.4689,784.5055,0.4444973175,0.487079815,0.736285775,0.8075274175,0.41312874250000003
1752076149.192,761.9414,778.86444,830.0366,765.9707,0.4444973175,0.487079815,0.736285775,0.8075274175,0.41312874250000003
1752076149.241,750.2564,785.31134,832.0513,758.71796,0.4444973175,0.487079815,0.736285775,0.8075274175,0.41312874250000003
1752076149.241,761.13556,782.49084,833.663,770.40295,0.4444973175,0.487079815,0.736285775,0.8075274175,0.41312874250000003
1752076149.2419999,771.2088,778.86444,823.1868,769.59705,0.4444973175,0.487079815,0.736285775,0.8075274175,0.41312874250000003
1752076149.2419999,760.7326,784.90845,822.381,764.7619,0.4921063175,0.51375923,0.7692760125,0.8153500025,0.4163387075
1752076149.243,749.85345,785.7143,824.7985,764.7619,0.4921063175,0.51375923,0.7692760125,0.8153500025,0.4163387075
1752076149.243,756.7033,782.49084,819.9634,763.95605,0.4921063175,0.51375923,0.7692760125,0.8153500025,0.4163387075
1752076149.243,775.64105,772.01465,805.8608,785.7143,0.4921063175,0.51375923,0.7692760125,0.8153500025,0.4163387075
1752076149.243,778.46155,770.0,801.02563,784.10254,0.4921063175,0.51375923,0.7692760125,0.8153500025,0.4163387075
1752076149.244,759.12085,797.8022,826.4103,752.674,0.4921063175,0.51375923,0.7692760125,0.8153500025,0.4163387075
1752076149.244,757.9121,792.96704,824.7985,758.71796,0.4921063175,0.51375923,0.7692760125,0.8153500025,0.4163387075
1752076149.244,778.86444,777.25275,806.6667,780.87915,0.4921063175,0.51375923,0.7692760125,0.8153500025,0.4163387075
1752076149.244,782.8938,778.86444,809.89014,785.7143,0.4921063175,0.51375923,0.7692760125,0.8153500025,0.4163387075
1752076149.292,770.80585,786.1172,820.7692,774.43225,0.4921063175,0.51375923,0.7692760125,0.8153500025,0.4163387075
1752076149.292,768.7912,788.1319,823.5897,770.80585,0.4921063175,0.51375923,0.7692760125,0.8153500025,0.4163387075
1752076149.293,774.0293,785.31134,823.9927,784.10254,0.4921063175,0.51375923,0.7692760125,0.8153500025,0.4163387075
1752076149.293,778.86444,778.0586,805.8608,793.36993,0.4921063175,0.51375923,0.7692760125,0.8153500025,0.4163387075
1752076149.293,778.0586,777.25275,798.20514,781.685,0.4921063175,0.51375923,0.7692760125,0.8153500025,0.4163387075
1752076149.293,773.22345,779.67035,804.2491,763.95605,0.4921063175,0.51375923,0.7692760125,0.8153500025,0.4163387075
1752076149.293,782.0879,755.4945,785.31134,771.2088,0.4921063175,0.51375923,0.7692760125,0.8153500025,0.4163387075
1752076149.293,783.69965,755.4945,793.7729,777.25275,0.4921063175,0.51375923,0.7692760125,0.8153500025,0.4163387075
1752076149.293,768.3883,787.326,821.5751,762.74725,0.4921063175,0.51375923,0.7692760125,0.8153500025,0.4163387075
1752076149.293,768.3883,786.1172,812.71063,763.5531,0.4921063175,0.51375923,0.7692760125,0.8153500025,0.4163387075
1752076149.293,768.3883,783.2967,809.4872,769.59705,0.4921063175,0.51375923,0.7692760125,0.8153500025,0.4163387075
1752076149.293,776.8498,790.14655,815.5311,773.6264,0.4921063175,0.51375923,0.7692760125,0.8153500025,0.4163387075
1752076149.345,780.4762,797.3993,823.1868,770.40295,0.4921063175,0.51375923,0.7692760125,0.8153500025,0.4163387075
1752076149.346,778.86444,778.86444,809.0842,771.2088,0.4921063175,0.51375923,0.7692760125,0.8153500025,0.4163387075
1752076149.346,781.28204,762.74725,790.14655,775.2381,0.4921063175,0.51375923,0.7692760125,0.8153500025,0.4163387075
1752076149.346,778.46155,789.34064,815.12823,774.0293,0.4921063175,0.51375923,0.7692760125,0.8153500025,0.4163387075
1752076149.346,777.25275,799.41394,824.3956,774.83514,0.4921063175,0.51375923,0.7692760125,0.8153500025,0.4163387075
1752076149.346,782.49084,772.4176,798.20514,790.9524,0.5122739749999999,0.51854427,0.7692760125,0.8125859825,0.417153015
1752076149.3470001,774.43225,770.40295,801.02563,784.5055,0.5122739749999999,0.51854427,0.7692760125,0.8125859825,0.417153015
1752076149.3470001,761.13556,805.05493,831.6484,763.5531,0.5122739749999999,0.51854427,0.7692760125,0.8125859825,0.417153015
1752076149.348,774.43225,804.65204,824.7985,770.0,0.5122739749999999,0.51854427,0.7692760125,0.8125859825,0.417153015
1752076149.348,784.5055,775.64105,791.3553,782.0879,0.5122739749999999,0.51854427,0.7692760125,0.8125859825,0.417153015
1752076149.348,777.6557,761.9414,788.5348,768.3883,0.5122739749999999,0.51854427,0.7692760125,0.8125859825,0.417153015
1752076149.348,774.83514,782.8938,812.71063,754.2857,0.5122739749999999,0.51854427,0.7692760125,0.8125859825,0.417153015
1752076149.3939998,785.31134,786.52014,809.89014,770.0,0.5122739749999999,0.51854427,0.7692760125,0.8125859825,0.417153015
1752076149.3939998,779.67035,779.67035,806.26373,780.07324,0.5122739749999999,0.51854427,0.7692760125,0.8125859825,0.417153015
1752076149.3939998,769.19415,784.90845,813.1135,768.7912,0.5122739749999999,0.51854427,0.7692760125,0.8125859825,0.417153015
1752076149.3939998,776.4469,776.04395,803.44324,766.3736,0.5122739749999999,0.51854427,0.7692760125,0.8125859825,0.417153015
1752076149.395,780.07324,773.6264,801.02563,768.7912,0.5122739749999999,0.51854427,0.7692760125,0.8125859825,0.417153015
1752076149.395,781.685,765.56775,795.78754,785.31134,0.5122739749999999,0.51854427,0.7692760125,0.8125859825,0.417153015
1752076149.395,784.90845,758.71796,789.34064,789.34064,0.5122739749999999,0.51854427,0.7692760125,0.8125859825,0.417153015
1752076149.395,766.3736,791.3553,822.7839,753.0769,0.5122739749999999,0.51854427,0.7692760125,0.8125859825,0.417153015
1752076149.395,776.04395,794.17584,823.9927,765.9707,0.5122739749999999,0.51854427,0.7692760125,0.8125859825,0.417153015
1752076149.396,793.7729,775.64105,804.65204,785.31134,0.5122739749999999,0.51854427,0.7692760125,0.8125859825,0.417153015
1752076149.396,783.2967,790.54944,823.5897,772.8205,0.5122739749999999,0.51854427,0.7692760125,0.8125859825,0.417153015
1752076149.396,789.7436,796.99634,825.6044,780.87915,0.5122739749999999,0.51854427,0.7692760125,0.8125859825,0.417153015
1752076149.443,788.93774,793.7729,827.2161,785.31134,0.5122739749999999,0.51854427,0.7692760125,0.8125859825,0.417153015
1752076149.443,779.2674,790.9524,828.022,780.87915,0.5122739749999999,0.51854427,0.7692760125,0.8125859825,0.417153015
1752076149.443,770.40295,781.28204,813.5165,770.80585,0.5122739749999999,0.51854427,0.7692760125,0.8125859825,0.417153015
1752076149.443,772.8205,781.28204,808.2784,772.01465,0.5122739749999999,0.51854427,0.7692760125,0.8125859825,0.417153015
1752076149.444,786.1172,776.8498,805.05493,784.5055,0.5122739749999999,0.51854427,0.7692760125,0.8125859825,0.417153015
1752076149.444,785.31134,772.8205,811.0989,787.72894,0.5122739749999999,0.51854427,0.7692760125,0.8125859825,0.417153015
1752076149.444,776.4469,774.0293,818.3516,782.0879,0.5122739749999999,0.51854427,0.7692760125,0.8125859825,0.417153015
1752076149.444,776.04395,784.10254,826.0073,781.28204,0.5228280275,0.5102282875,0.767311935,0.8097667,0.419178325
1752076149.445,788.93774,776.8498,810.696,794.9817,0.5228280275,0.5102282875,0.767311935,0.8097667,0.419178325
1752076149.445,800.2198,755.4945,794.9817,806.26373,0.5228280275,0.5102282875,0.767311935,0.8097667,0.419178325
1752076149.445,778.0586,784.10254,826.8132,784.10254,0.5228280275,0.5102282875,0.767311935,0.8097667,0.419178325
1752076149.445,768.3883,795.38464,826.8132,766.77655,0.5228280275,0.5102282875,0.767311935,0.8097667,0.419178325
1752076149.468,784.5055,783.2967,813.5165,765.9707,0.5228280275,0.5102282875,0.767311935,0.8097667,0.419178325
1752076149.468,782.0879,792.5641,824.7985,765.9707,0.5228280275,0.5102282875,0.767311935,0.8097667,0.419178325
1752076149.468,782.0879,792.5641,823.5897,776.04395,0.5228280275,0.5102282875,0.767311935,0.8097667,0.419178325
1752076149.468,784.10254,779.67035,811.50183,786.9231,0.5228280275,0.5102282875,0.767311935,0.8097667,0.419178325
1752076149.468,777.6557,765.16486,796.99634,786.52014,0.5228280275,0.5102282875,0.767311935,0.8097667,0.419178325
1752076149.4689999,769.19415,778.46155,809.0842,771.2088,0.5228280275,0.5102282875,0.767311935,0.8097667,0.419178325
1752076149.4689999,751.8681,797.3993,828.022,754.68866,0.5228280275,0.5102282875,0.767311935,0.8097667,0.419178325
1752076149.4689999,756.7033,797.8022,818.7546,759.12085,0.5228280275,0.5102282875,0.767311935,0.8097667,0.419178325
1752076149.4689999,778.0586,780.87915,804.2491,778.0586,0.5228280275,0.5102282875,0.767311935,0.8097667,0.419178325
1752076149.4689999,775.64105,785.31134,818.7546,773.22345,0.5228280275,0.5102282875,0.767311935,0.8097667,0.419178325
1752076149.4689999,776.4469,801.8315,833.2601,763.95605,0.5228280275,0.5102282875,0.767311935,0.8097667,0.419178325
1752076149.47,779.67035,792.96704,819.9634,777.6557,0.5228280275,0.5102282875,0.767311935,0.8097667,0.419178325
1752076149.543,777.6557,781.28204,805.8608,798.60803,0.5228280275,0.5102282875,0.767311935,0.8097667,0.419178325
1752076149.543,799.41394,776.8498,810.293,803.0403,0.5228280275,0.5102282875,0.767311935,0.8097667,0.419178325
1752076149.543,802.23444,773.6264,811.9048,793.36993,0.5228280275,0.5102282875,0.767311935,0.8097667,0.419178325
1752076149.544,783.2967,769.59705,802.6374,785.7143,0.5228280275,0.5102282875,0.767311935,0.8097667,0.419178325
1752076149.544,779.67035,778.86444,802.23444,774.83514,0.5228280275,0.5102282875,0.767311935,0.8097667,0.419178325
1752076149.544,780.87915,780.87915,804.2491,769.19415,0.5228280275,0.5102282875,0.767311935,0.8097667,0.419178325
1752076149.544,788.5348,780.4762,809.0842,781.28204,0.5228280275,0.5102282875,0.767311935,0.8097667,0.419178325
1752076149.544,802.6374,763.95605,798.60803,805.4579,0.5228280275,0.5102282875,0.767311935,0.8097667,0.419178325
1752076149.544,805.8608,758.71796,805.05493,813.91943,0.5228280275,0.5102282875,0.767311935,0.8097667,0.419178325
1752076149.544,792.5641,786.52014,835.6777,799.41394,0.5153528225,0.48077319500000004,0.7706185025,0.8084421975,0.42005671499999997
1752076149.5449998,794.17584,788.5348,835.6777,799.81683,0.5153528225,0.48077319500000004,0.7706185025,0.8084421975,0.42005671499999997
1752076149.5449998,791.75824,778.0586,818.7546,786.9231,0.5153528225,0.48077319500000004,0.7706185025,0.8084421975,0.42005671499999997
1752076149.568,778.86444,780.87915,816.7399,777.25275,0.5153528225,0.48077319500000004,0.7706185025,0.8084421975,0.42005671499999997
1752076149.569,779.67035,782.8938,813.1135,784.5055,0.5153528225,0.48077319500000004,0.7706185025,0.8084421975,0.42005671499999997
1752076149.569,784.10254,785.7143,808.2784,782.8938,0.5153528225,0.48077319500000004,0.7706185025,0.8084421975,0.42005671499999997
1752076149.569,797.8022,778.86444,805.05493,802.6374,0.5153528225,0.48077319500000004,0.7706185025,0.8084421975,0.42005671499999997
1752076149.569,792.1612,780.4762,810.696,795.38464,0.5153528225,0.48077319500000004,0.7706185025,0.8084421975,0.42005671499999997
1752076149.569,789.7436,788.93774,814.7253,784.10254,0.5153528225,0.48077319500000004,0.7706185025,0.8084421975,0.42005671499999997
1752076149.57,793.7729,787.326,814.3223,801.8315,0.5153528225,0.48077319500000004,0.7706185025,0.8084421975,0.42005671499999997
1752076149.57,792.96704,785.7143,816.337,797.8022,0.5153528225,0.48077319500000004,0.7706185025,0.8084421975,0.42005671499999997
1752076149.57,792.1612,791.3553,817.5458,786.9231,0.5153528225,0.48077319500000004,0.7706185025,0.8084421975,0.42005671499999997
1752076149.57,783.69965,788.93774,820.3663,783.69965,0.5153528225,0.48077319500000004,0.7706185025,0.8084421975,0.42005671499999997
1752076149.57,777.6557,790.54944,827.619,787.326,0.5153528225,0.48077319500000004,0.7706185025,0.8084421975,0.42005671499999997
1752076149.57,780.87915,775.64105,809.4872,813.5165,0.5153528225,0.48077319500000004,0.7706185025,0.8084421975,0.42005671499999997
1752076149.621,786.52014,771.6117,801.02563,795.78754,0.5153528225,0.48077319500000004,0.7706185025,0.8084421975,0.42005671499999997
1752076149.621,773.22345,792.96704,819.15753,770.80585,0.5153528225,0.48077319500000004,0.7706185025,0.8084421975,0.42005671499999997
1752076149.621,783.2967,780.4762,809.0842,782.8938,0.5153528225,0.48077319500000004,0.7706185025,0.8084421975,0.42005671499999997
1752076149.621,792.1612,779.2674,807.8755,782.0879,0.5153528225,0.48077319500000004,0.7706185025,0.8084421975,0.42005671499999997
1752076149.621,778.0586,782.8938,815.9341,773.6264,0.5153528225,0.48077319500000004,0.7706185025,0.8084421975,0.42005671499999997
1752076149.6220002,774.0293,778.0586,811.50183,766.3736,0.5153528225,0.48077319500000004,0.7706185025,0.8084421975,0.42005671499999997
1752076149.6220002,780.87915,762.74725,799.81683,788.1319,0.5153528225,0.48077319500000004,0.7706185025,0.8084421975,0.42005671499999997
1752076149.6220002,782.0879,744.61536,789.7436,801.8315,0.5153528225,0.48077319500000004,0.7706185025,0.8084421975,0.42005671499999997
1752076149.6230001,776.04395,774.43225,811.9048,768.3883,0.5153528225,0.48077319500000004,0.7706185025,0.8084421975,0.42005671499999997
1752076149.6230001,773.6264,799.81683,836.08057,758.71796,0.5153528225,0.48077319500000004,0.7706185025,0.8084421975,0.42005671499999997
1752076149.6230001,764.7619,790.54944,832.8571,774.83514,0.5153528225,0.48077319500000004,0.7706185025,0.8084421975,0.42005671499999997
1752076149.6230001,765.16486,776.4469,816.7399,767.5824,0.4882807225,0.4317775725,0.7662536924999999,0.8047749925000001,0.424839015
1752076149.668,774.0293,777.25275,813.1135,762.3443,0.4882807225,0.4317775725,0.7662536924999999,0.8047749925000001,0.424839015
1752076149.668,779.2674,778.0586,810.293,768.3883,0.4882807225,0.4317775725,0.7662536924999999,0.8047749925000001,0.424839015
1752076149.669,776.8498,778.46155,810.696,762.74725,0.4882807225,0.4317775725,0.7662536924999999,0.8047749925000001,0.424839015
1752076149.669,767.1795,779.2674,809.4872,769.59705,0.4882807225,0.4317775725,0.7662536924999999,0.8047749925000001,0.424839015
1752076149.669,769.19415,784.10254,815.12823,774.43225,0.4882807225,0.4317775725,0.7662536924999999,0.8047749925000001,0.424839015
1752076149.669,785.31134,788.5348,817.1429,777.25275,0.4882807225,0.4317775725,0.7662536924999999,0.8047749925000001,0.424839015
1752076149.669,790.9524,765.16486,790.14655,799.011,0.4882807225,0.4317775725,0.7662536924999999,0.8047749925000001,0.424839015
1752076149.669,785.31134,756.7033,790.9524,799.81683,0.4882807225,0.4317775725,0.7662536924999999,0.8047749925000001,0.424839015
1752076149.67,770.0,790.14655,824.3956,771.2088,0.4882807225,0.4317775725,0.7662536924999999,0.8047749925000001,0.424839015
1752076149.67,782.8938,791.3553,819.15753,769.59705,0.4882807225,0.4317775725,0.7662536924999999,0.8047749925000001,0.424839015
1752076149.67,790.54944,778.0586,810.293,789.34064,0.4882807225,0.4317775725,0.7662536924999999,0.8047749925000001,0.424839015
1752076149.67,771.6117,789.7436,819.15753,774.0293,0.4882807225,0.4317775725,0.7662536924999999,0.8047749925000001,0.424839015
1752076149.719,781.28204,791.75824,814.3223,771.6117,0.4882807225,0.4317775725,0.7662536924999999,0.8047749925000001,0.424839015
1752076149.719,801.4286,782.8938,804.65204,789.7436,0.4882807225,0.4317775725,0.7662536924999999,0.8047749925000001,0.424839015
1752076149.72,789.7436,779.2674,803.8461,784.10254,0.4882807225,0.4317775725,0.7662536924999999,0.8047749925000001,0.424839015
1752076149.72,777.6557,782.0879,806.26373,774.83514,0.4882807225,0.4317775725,0.7662536924999999,0.8047749925000001,0.424839015
1752076149.72,781.28204,782.8938,809.4872,775.64105,0.4882807225,0.4317775725,0.7662536924999999,0.8047749925000001,0.424839015
1752076149.72,788.93774,775.2381,806.6667,795.38464,0.4882807225,0.4317775725,0.7662536924999999,0.8047749925000001,0.424839015
1752076149.721,790.54944,773.22345,800.6227,803.8461,0.4882807225,0.4317775725,0.7662536924999999,0.8047749925000001,0.424839015
1752076149.721,775.2381,794.17584,816.337,790.9524,0.4882807225,0.4317775725,0.7662536924999999,0.8047749925000001,0.424839015
1752076149.721,764.7619,798.20514,823.1868,778.0586,0.4882807225,0.4317775725,0.7662536924999999,0.8047749925000001,0.424839015
1752076149.721,781.28204,772.4176,802.6374,790.54944,0.4882807225,0.4317775725,0.7662536924999999,0.8047749925000001,0.424839015
1752076149.721,800.6227,772.4176,803.0403,795.38464,0.4882807225,0.4317775725,0.7662536924999999,0.8047749925000001,0.424839015
1752076149.722,790.54944,793.36993,820.7692,768.3883,0.4882807225,0.4317775725,0.7662536924999999,0.8047749925000001,0.424839015
1752076149.769,773.6264,798.60803,828.4249,757.50916,0.4882807225,0.4317775725,0.7662536924999999,0.8047749925000001,0.424839015
1752076149.769,783.69965,785.31134,814.7253,772.8205,0.4446953,0.36886512250000003,0.7347845925000001,0.8002446049999999,0.435144855
1752076149.7710001,784.90845,783.69965,806.26373,777.6557,0.4446953,0.36886512250000003,0.7347845925000001,0.8002446049999999,0.435144855
1752076149.7710001,774.0293,788.1319,810.696,764.7619,0.4446953,0.36886512250000003,0.7347845925000001,0.8002446049999999,0.435144855
1752076149.7710001,775.2381,784.5055,812.3077,769.19415,0.4446953,0.36886512250000003,0.7347845925000001,0.8002446049999999,0.435144855
1752076149.772,782.8938,769.59705,796.5934,791.75824,0.4446953,0.36886512250000003,0.7347845925000001,0.8002446049999999,0.435144855
1752076149.772,784.10254,763.5531,789.34064,783.69965,0.4446953,0.36886512250000003,0.7347845925000001,0.8002446049999999,0.435144855
1752076149.772,772.01465,792.96704,815.9341,759.5238,0.4446953,0.36886512250000003,0.7347845925000001,0.8002446049999999,0.435144855
1752076149.773,764.35895,792.5641,813.1135,765.56775,0.4446953,0.36886512250000003,0.7347845925000001,0.8002446049999999,0.435144855
1752076149.773,765.56775,782.8938,809.89014,769.59705,0.4446953,0.36886512250000003,0.7347845925000001,0.8002446049999999,0.435144855
1752076149.773,766.3736,799.41394,824.7985,767.98535,0.4446953,0.36886512250000003,0.7347845925000001,0.8002446049999999,0.435144855
1752076149.773,772.8205,809.4872,823.1868,766.3736,0.4446953,0.36886512250000003,0.7347845925000001,0.8002446049999999,0.435144855
1752076149.832,777.6557,794.9817,809.0842,779.67035,0.4446953,0.36886512250000003,0.7347845925000001,0.8002446049999999,0.435144855
1752076149.832,777.6557,786.1172,801.4286,777.25275,0.4446953,0.36886512250000003,0.7347845925000001,0.8002446049999999,0.435144855
1752076149.833,770.0,794.57874,807.47253,773.22345,0.4446953,0.36886512250000003,0.7347845925000001,0.8002446049999999,0.435144855
1752076149.833,772.8205,796.5934,814.3223,780.07324,0.4446953,0.36886512250000003,0.7347845925000001,0.8002446049999999,0.435144855
1752076149.833,789.7436,783.69965,804.65204,793.7729,0.4446953,0.36886512250000003,0.7347845925000001,0.8002446049999999,0.435144855
1752076149.8339999,786.1172,778.86444,799.81683,792.1612,0.4446953,0.36886512250000003,0.7347845925000001,0.8002446049999999,0.435144855
1752076149.8339999,785.31134,794.17584,817.5458,774.83514,0.4446953,0.36886512250000003,0.7347845925000001,0.8002446049999999,0.435144855
1752076149.8339999,794.57874,804.65204,823.9927,775.2381,0.4446953,0.36886512250000003,0.7347845925000001,0.8002446049999999,0.435144855
1752076149.835,796.5934,778.0586,800.2198,782.0879,0.4446953,0.36886512250000003,0.7347845925000001,0.8002446049999999,0.435144855
1752076149.835,787.72894,770.0,795.38464,798.60803,0.4446953,0.36886512250000003,0.7347845925000001,0.8002446049999999,0.435144855
1752076149.835,766.77655,805.4579,828.8278,778.86444,0.4446953,0.36886512250000003,0.7347845925000001,0.8002446049999999,0.435144855
1752076149.836,773.22345,806.26373,830.0366,768.3883,0.4446953,0.36886512250000003,0.7347845925000001,0.8002446049999999,0.435144855
1752076149.86,773.6264,792.5641,815.12823,778.0586,0.4446953,0.36886512250000003,0.7347845925000001,0.8002446049999999,0.435144855
1752076149.8609998,773.22345,786.9231,807.47253,776.04395,0.4446953,0.36886512250000003,0.7347845925000001,0.8002446049999999,0.435144855
1752076149.8609998,784.10254,786.52014,803.8461,773.22345,0.4446953,0.36886512250000003,0.7347845925000001,0.8002446049999999,0.435144855
1752076149.8609998,780.4762,784.5055,813.1135,778.46155,0.38698755,0.296533111,0.67489716,0.7967235225,0.4502646975
1752076149.8630002,777.25275,773.6264,810.293,794.9817,0.38698755,0.296533111,0.67489716,0.7967235225,0.4502646975
1752076149.8630002,774.83514,771.6117,805.4579,782.49084,0.38698755,0.296533111,0.67489716,0.7967235225,0.4502646975
1752076149.8630002,777.25275,780.4762,811.9048,765.9707,0.38698755,0.296533111,0.67489716,0.7967235225,0.4502646975
1752076149.8630002,786.9231,786.1172,809.0842,775.64105,0.38698755,0.296533111,0.67489716,0.7967235225,0.4502646975
1752076149.8630002,784.90845,768.7912,803.44324,784.90845,0.38698755,0.296533111,0.67489716,0.7967235225,0.4502646975
1752076149.864,768.7912,780.07324,819.9634,771.2088,0.38698755,0.296533111,0.67489716,0.7967235225,0.4502646975
1752076149.864,766.3736,802.6374,828.022,754.68866,0.38698755,0.296533111,0.67489716,0.7967235225,0.4502646975
1752076149.864,774.43225,782.8938,809.89014,764.35895,0.38698755,0.296533111,0.67489716,0.7967235225,0.4502646975
1752076149.889,781.28204,780.4762,813.5165,774.0293,0.38698755,0.296533111,0.67489716,0.7967235225,0.4502646975
1752076149.8899999,774.83514,788.1319,821.5751,773.6264,0.38698755,0.296533111,0.67489716,0.7967235225,0.4502646975
1752076149.8899999,770.40295,793.7729,827.2161,780.07324,0.38698755,0.296533111,0.67489716,0.7967235225,0.4502646975
1752076149.891,775.64105,785.7143,818.7546,785.7143,0.38698755,0.296533111,0.67489716,0.7967235225,0.4502646975
1752076149.891,784.10254,775.64105,808.2784,780.4762,0.38698755,0.296533111,0.67489716,0.7967235225,0.4502646975
1752076149.891,786.52014,786.1172,819.5604,782.49084,0.38698755,0.296533111,0.67489716,0.7967235225,0.4502646975
1752076149.891,774.43225,784.5055,816.7399,777.25275,0.38698755,0.296533111,0.67489716,0.7967235225,0.4502646975
1752076149.892,771.6117,767.5824,796.5934,788.1319,0.38698755,0.296533111,0.67489716,0.7967235225,0.4502646975
1752076149.892,778.0586,757.1062,787.72894,799.41394,0.38698755,0.296533111,0.67489716,0.7967235225,0.4502646975
1752076149.892,771.6117,784.10254,816.7399,765.16486,0.38698755,0.296533111,0.67489716,0.7967235225,0.4502646975
1752076149.892,777.6557,801.02563,829.6337,760.7326,0.38698755,0.296533111,0.67489716,0.7967235225,0.4502646975
1752076149.893,774.83514,790.14655,818.3516,773.6264,0.38698755,0.296533111,0.67489716,0.7967235225,0.4502646975
1752076149.947,770.0,787.326,821.1722,773.22345,0.38698755,0.296533111,0.67489716,0.7967235225,0.4502646975
1752076149.948,780.07324,792.96704,824.7985,778.46155,0.38698755,0.296533111,0.67489716,0.7967235225,0.4502646975
1752076149.948,778.86444,788.1319,817.5458,777.25275,0.38698755,0.296533111,0.67489716,0.7967235225,0.4502646975
1752076149.948,779.2674,782.0879,819.9634,786.1172,0.38698755,0.296533111,0.67489716,0.7967235225,0.4502646975
1752076149.949,782.49084,788.1319,827.2161,780.07324,0.38698755,0.296533111,0.67489716,0.7967235225,0.4502646975
1752076149.949,784.10254,786.9231,816.7399,782.0879,0.3794365625,0.290412501,0.67489716,0.7937776525,0.4447617075
1752076149.95,785.7143,780.87915,808.2784,793.36993,0.3794365625,0.290412501,0.67489716,0.7937776525,0.4447617075
1752076149.95,787.72894,755.09155,791.3553,791.75824,0.3794365625,0.290412501,0.67489716,0.7937776525,0.4447617075
1752076149.95,780.4762,755.09155,796.99634,779.2674,0.3794365625,0.290412501,0.67489716,0.7937776525,0.4447617075
1752076149.95,765.9707,790.54944,832.0513,769.59705,0.3794365625,0.290412501,0.67489716,0.7937776525,0.4447617075
1752076149.951,779.67035,786.1172,825.6044,792.96704,0.3794365625,0.290412501,0.67489716,0.7937776525,0.4447617075
1752076149.951,784.90845,782.0879,819.15753,796.99634,0.3794365625,0.290412501,0.67489716,0.7937776525,0.4447617075
1752076149.997,772.8205,789.7436,820.3663,764.7619,0.3794365625,0.290412501,0.67489716,0.7937776525,0.4447617075
1752076149.997,766.3736,785.7143,814.3223,756.30035,0.3794365625,0.290412501,0.67489716,0.7937776525,0.4447617075
1752076149.997,772.01465,778.86444,806.6667,776.8498,0.3794365625,0.290412501,0.67489716,0.7937776525,0.4447617075
1752076149.997,768.3883,780.87915,807.0696,781.685,0.3794365625,0.290412501,0.67489716,0.7937776525,0.4447617075
1752076149.9980001,765.9707,788.93774,812.71063,773.6264,0.3794365625,0.290412501,0.67489716,0.7937776525,0.4447617075
1752076149.9980001,770.80585,786.52014,813.5165,774.83514,0.3794365625,0.290412501,0.67489716,0.7937776525,0.4447617075
1752076149.9980001,770.0,764.35895,805.05493,790.9524,0.3794365625,0.290412501,0.67489716,0.7937776525,0.4447617075
1752076149.9980001,767.98535,752.674,797.8022,789.34064,0.3794365625,0.290412501,0.67489716,0.7937776525,0.4447617075
1752076149.9980001,757.9121,775.64105,817.1429,760.32965,0.3794365625,0.290412501,0.67489716,0.7937776525,0.4447617075
1752076149.999,764.35895,778.86444,817.9487,765.9707,0.3794365625,0.290412501,0.67489716,0.7937776525,0.4447617075
1752076149.999,781.28204,774.0293,813.5165,772.01465,0.3794365625,0.290412501,0.67489716,0.7937776525,0.4447617075
1752076149.999,788.5348,783.2967,815.5311,769.19415,0.3794365625,0.290412501,0.67489716,0.7937776525,0.4447617075
1752076150.069,782.8938,793.7729,829.2308,770.80585,0.3794365625,0.290412501,0.67489716,0.7937776525,0.4447617075
1752076150.0700002,778.46155,788.1319,833.2601,785.31134,0.3794365625,0.290412501,0.67489716,0.7937776525,0.4447617075
1752076150.0700002,769.59705,787.326,824.7985,783.69965,0.3794365625,0.290412501,0.67489716,0.7937776525,0.4447617075
1752076150.0700002,770.40295,787.72894,824.7985,780.07324,0.3794365625,0.290412501,0.67489716,0.7937776525,0.4447617075
1752076150.0700002,777.25275,787.326,822.7839,786.52014,0.3794365625,0.290412501,0.67489716,0.7937776525,0.4447617075
1752076150.071,774.0293,786.9231,807.0696,775.2381,0.3794365625,0.290412501,0.67489716,0.7937776525,0.4447617075
1752076150.071,787.326,767.1795,797.8022,793.36993,0.3794365625,0.290412501,0.67489716,0.7937776525,0.4447617075
1752076150.071,794.17584,759.92676,803.0403,797.8022,0.3748692625,0.28590022100000007,0.67489716,0.7931135525,0.44307503249999997
1752076150.072,778.0586,790.14655,817.1429,758.71796,0.3748692625,0.28590022100000007,0.67489716,0.7931135525,0.44307503249999997
1752076150.073,781.685,798.20514,819.5604,767.1795,0.3748692625,0.28590022100000007,0.67489716,0.7931135525,0.44307503249999997
1752076150.073,784.90845,784.90845,810.696,788.5348,0.3748692625,0.28590022100000007,0.67489716,0.7931135525,0.44307503249999997
1752076150.073,776.4469,794.17584,819.9634,763.5531,0.3748692625,0.28590022100000007,0.67489716,0.7931135525,0.44307503249999997
1752076150.095,785.31134,790.9524,809.89014,760.7326,0.3748692625,0.28590022100000007,0.67489716,0.7931135525,0.44307503249999997
1752076150.096,786.1172,775.2381,798.60803,778.46155,0.3748692625,0.28590022100000007,0.67489716,0.7931135525,0.44307503249999997
1752076150.096,778.46155,776.4469,812.71063,779.2674,0.3748692625,0.28590022100000007,0.67489716,0.7931135525,0.44307503249999997
1752076150.097,776.8498,780.07324,819.15753,783.2967,0.3748692625,0.28590022100000007,0.67489716,0.7931135525,0.44307503249999997
1752076150.097,773.6264,786.1172,820.3663,776.4469,0.3748692625,0.28590022100000007,0.67489716,0.7931135525,0.44307503249999997
1752076150.097,780.4762,767.5824,794.57874,778.86444,0.3748692625,0.28590022100000007,0.67489716,0.7931135525,0.44307503249999997
1752076150.097,793.7729,757.50916,780.4762,772.4176,0.3748692625,0.28590022100000007,0.67489716,0.7931135525,0.44307503249999997
1752076150.0979998,797.3993,785.7143,806.26373,760.32965,0.3748692625,0.28590022100000007,0.67489716,0.7931135525,0.44307503249999997
1752076150.0979998,784.10254,788.93774,815.5311,774.0293,0.3748692625,0.28590022100000007,0.67489716,0.7931135525,0.44307503249999997
1752076150.0979998,776.8498,775.2381,800.6227,790.54944,0.3748692625,0.28590022100000007,0.67489716,0.7931135525,0.44307503249999997
1752076150.0979998,774.83514,773.6264,799.011,784.90845,0.3748692625,0.28590022100000007,0.67489716,0.7931135525,0.44307503249999997
1752076150.099,783.69965,783.2967,816.337,782.8938,0.3748692625,0.28590022100000007,0.67489716,0.7931135525,0.44307503249999997
1752076150.206,796.1905,784.90845,817.5458,799.011,0.3748692625,0.28590022100000007,0.67489716,0.7931135525,0.44307503249999997
1752076150.207,791.75824,770.80585,798.20514,801.4286,0.3748692625,0.28590022100000007,0.67489716,0.7931135525,0.44307503249999997
1752076150.207,775.2381,782.49084,816.337,779.67035,0.3748692625,0.28590022100000007,0.67489716,0.7931135525,0.44307503249999997
1752076150.207,769.59705,805.8608,838.49817,766.3736,0.3748692625,0.28590022100000007,0.67489716,0.7931135525,0.44307503249999997
1752076150.208,779.2674,801.8315,827.2161,779.2674,0.3748692625,0.28590022100000007,0.67489716,0.7931135525,0.44307503249999997
1752076150.208,797.3993,770.80585,791.3553,809.0842,0.3748692625,0.28590022100000007,0.67489716,0.7931135525,0.44307503249999997
1752076150.208,805.05493,761.13556,784.10254,802.6374,0.3748692625,0.28590022100000007,0.67489716,0.7931135525,0.44307503249999997
1752076150.2089999,784.90845,786.52014,816.337,769.59705,0.3748692625,0.28590022100000007,0.67489716,0.7931135525,0.44307503249999997
1752076150.2089999,783.69965,780.4762,808.68134,776.04395,0.3748692625,0.28590022100000007,0.67489716,0.7931135525,0.44307503249999997
1752076150.2089999,796.5934,767.1795,797.3993,782.8938,0.3730610125,0.28132218600000003,0.67489716,0.79410194,0.4437923075
1752076150.211,776.8498,781.28204,809.0842,774.43225,0.3730610125,0.28132218600000003,0.67489716,0.79410194,0.4437923075
1752076150.211,761.9414,796.5934,821.1722,774.0293,0.3730610125,0.28132218600000003,0.67489716,0.79410194,0.4437923075
1752076150.2140002,784.5055,783.69965,815.5311,787.72894,0.3730610125,0.28132218600000003,0.67489716,0.79410194,0.4437923075
1752076150.2150002,789.34064,774.83514,809.4872,781.685,0.3730610125,0.28132218600000003,0.67489716,0.79410194,0.4437923075
1752076150.2150002,786.1172,781.685,814.7253,768.7912,0.3730610125,0.28132218600000003,0.67489716,0.79410194,0.4437923075
1752076150.2150002,786.1172,785.7143,817.5458,773.22345,0.3730610125,0.28132218600000003,0.67489716,0.79410194,0.4437923075
1752076150.2150002,777.25275,778.0586,805.4579,780.4762,0.3730610125,0.28132218600000003,0.67489716,0.79410194,0.4437923075
1752076150.2150002,780.4762,777.25275,806.6667,788.5348,0.3730610125,0.28132218600000003,0.67489716,0.79410194,0.4437923075
1752076150.216,783.69965,784.90845,806.6667,776.8498,0.3730610125,0.28132218600000003,0.67489716,0.79410194,0.4437923075
1752076150.216,779.67035,786.52014,805.4579,766.77655,0.3730610125,0.28132218600000003,0.67489716,0.79410194,0.4437923075
1752076150.216,782.8938,775.64105,804.2491,770.40295,0.3730610125,0.28132218600000003,0.67489716,0.79410194,0.4437923075
1752076150.216,786.1172,775.2381,804.65204,778.86444,0.3730610125,0.28132218600000003,0.67489716,0.79410194,0.4437923075
1752076150.216,782.8938,783.2967,813.91943,776.4469,0.3730610125,0.28132218600000003,0.67489716,0.79410194,0.4437923075
1752076150.216,780.87915,785.7143,817.1429,774.43225,0.3730610125,0.28132218600000003,0.67489716,0.79410194,0.4437923075
1752076150.2380002,773.22345,781.28204,814.7253,777.25275,0.3730610125,0.28132218600000003,0.67489716,0.79410194,0.4437923075
1752076150.2380002,780.87915,779.67035,812.3077,770.40295,0.3730610125,0.28132218600000003,0.67489716,0.79410194,0.4437923075
1752076150.2380002,806.26373,778.46155,813.1135,782.0879,0.3730610125,0.28132218600000003,0.67489716,0.79410194,0.4437923075
1752076150.239,808.2784,780.07324,806.26373,797.8022,0.3730610125,0.28132218600000003,0.67489716,0.79410194,0.4437923075
1752076150.239,782.0879,776.4469,785.31134,782.49084,0.3730610125,0.28132218600000003,0.67489716,0.79410194,0.4437923075
1752076150.239,758.71796,775.2381,788.1319,743.8095,0.3730610125,0.28132218600000003,0.67489716,0.79410194,0.4437923075
1752076150.24,749.0476,785.31134,804.2491,730.9158,0.3730610125,0.28132218600000003,0.67489716,0.79410194,0.4437923075
1752076150.24,735.34796,786.52014,798.60803,723.663,0.3730610125,0.28132218600000003,0.67489716,0.79410194,0.4437923075
1752076150.24,722.8571,770.40295,784.10254,718.8278,0.3730610125,0.28132218600000003,0.67489716,0.79410194,0.4437923075
1752076150.24,720.4396,757.50916,777.6557,732.52747,0.3730610125,0.28132218600000003,0.67489716,0.79410194,0.4437923075
1752076150.241,719.2308,784.90845,801.8315,710.7692,0.3730610125,0.28132218600000003,0.67489716,0.79410194,0.4437923075
1752076150.241,715.2015,795.38464,809.0842,690.2198,0.37243737250000003,0.275552811,0.67489716,0.79591194,0.4464947275
1752076150.278,723.663,781.685,795.38464,708.7546,0.37243737250000003,0.275552811,0.67489716,0.79591194,0.4464947275
1752076150.279,725.6777,791.3553,800.2198,722.8571,0.37243737250000003,0.275552811,0.67489716,0.79591194,0.4464947275
1752076150.279,733.73627,799.011,807.47253,726.4835,0.37243737250000003,0.275552811,0.67489716,0.79591194,0.4464947275
1752076150.279,753.47986,787.72894,799.81683,750.65936,0.37243737250000003,0.275552811,0.67489716,0.79591194,0.4464947275
1752076150.279,753.0769,776.4469,786.52014,766.3736,0.37243737250000003,0.275552811,0.67489716,0.79591194,0.4464947275
1752076150.28,759.12085,775.2381,792.96704,751.4652,0.37243737250000003,0.275552811,0.67489716,0.79591194,0.4464947275
1752076150.28,765.16486,776.8498,795.78754,761.13556,0.37243737250000003,0.275552811,0.67489716,0.79591194,0.4464947275
1752076150.28,778.0586,763.5531,783.69965,779.2674,0.37243737250000003,0.275552811,0.67489716,0.79591194,0.4464947275
1752076150.28,788.1319,754.2857,780.87915,782.8938,0.37243737250000003,0.275552811,0.67489716,0.79591194,0.4464947275
1752076150.281,771.6117,785.7143,811.50183,760.7326,0.37243737250000003,0.275552811,0.67489716,0.79591194,0.4464947275
1752076150.281,781.28204,798.20514,821.5751,762.74725,0.37243737250000003,0.275552811,0.67489716,0.79591194,0.4464947275
1752076150.281,795.38464,790.14655,815.12823,782.0879,0.37243737250000003,0.275552811,0.67489716,0.79591194,0.4464947275
1752076150.3219998,784.10254,792.1612,815.12823,772.8205,0.37243737250000003,0.275552811,0.67489716,0.79591194,0.4464947275
1752076150.323,771.2088,793.7729,813.91943,775.2381,0.37243737250000003,0.275552811,0.67489716,0.79591194,0.4464947275
1752076150.323,776.04395,783.2967,808.68134,786.9231,0.37243737250000003,0.275552811,0.67489716,0.79591194,0.4464947275
1752076150.323,782.49084,772.8205,802.6374,781.685,0.37243737250000003,0.275552811,0.67489716,0.79591194,0.4464947275
1752076150.324,786.1172,776.4469,803.8461,786.1172,0.37243737250000003,0.275552811,0.67489716,0.79591194,0.4464947275
1752076150.324,788.93774,776.04395,805.05493,784.90845,0.37243737250000003,0.275552811,0.67489716,0.79591194,0.4464947275
1752076150.324,783.69965,778.0586,811.9048,788.5348,0.37243737250000003,0.275552811,0.67489716,0.79591194,0.4464947275
1752076150.324,790.9524,764.7619,803.8461,812.3077,0.37243737250000003,0.275552811,0.67489716,0.79591194,0.4464947275
1752076150.325,795.38464,755.89746,795.38464,809.89014,0.37243737250000003,0.275552811,0.67489716,0.79591194,0.4464947275
1752076150.325,776.04395,788.1319,825.2015,783.69965,0.37243737250000003,0.275552811,0.67489716,0.79591194,0.4464947275
1752076150.325,775.64105,792.96704,824.7985,778.0586,0.37243737250000003,0.275552811,0.67489716,0.79591194,0.4464947275
1752076150.325,790.54944,782.49084,811.50183,788.93774,0.37243737250000003,0.275552811,0.67489716,0.79591194,0.4464947275
1752076150.384,787.326,787.72894,816.337,780.87915,0.37243737250000003,0.275552811,0.67489716,0.79591194,0.4464947275
1752076150.385,772.4176,786.9231,811.9048,778.0586,0.3541298825,0.07299014350000001,0.6579110675000001,0.72973334,0.48047766
1752076150.386,774.43225,781.685,808.2784,785.31134,0.3541298825,0.07299014350000001,0.6579110675000001,0.72973334,0.48047766
1752076150.387,797.3993,780.07324,816.337,781.685,0.3541298825,0.07299014350000001,0.6579110675000001,0.72973334,0.48047766
1752076150.387,790.9524,797.3993,835.6777,781.685,0.3541298825,0.07299014350000001,0.6579110675000001,0.72973334,0.48047766
1752076150.387,776.8498,792.96704,829.2308,788.93774,0.3541298825,0.07299014350000001,0.6579110675000001,0.72973334,0.48047766
1752076150.388,779.2674,765.9707,800.2198,794.57874,0.3541298825,0.07299014350000001,0.6579110675000001,0.72973334,0.48047766
1752076150.388,776.4469,774.0293,800.2198,776.4469,0.3541298825,0.07299014350000001,0.6579110675000001,0.72973334,0.48047766
1752076150.388,774.43225,791.3553,814.7253,756.7033,0.3541298825,0.07299014350000001,0.6579110675000001,0.72973334,0.48047766
1752076150.388,772.4176,796.5934,817.9487,765.56775,0.3541298825,0.07299014350000001,0.6579110675000001,0.72973334,0.48047766
1752076150.389,783.69965,774.83514,796.99634,793.7729,0.3541298825,0.07299014350000001,0.6579110675000001,0.72973334,0.48047766
1752076150.389,782.49084,759.5238,791.3553,785.31134,0.3541298825,0.07299014350000001,0.6579110675000001,0.72973334,0.48047766
1752076150.414,767.5824,791.3553,829.6337,759.5238,0.3541298825,0.07299014350000001,0.6579110675000001,0.72973334,0.48047766
1752076150.414,768.7912,796.99634,830.4396,771.2088,0.3541298825,0.07299014350000001,0.6579110675000001,0.72973334,0.48047766
1752076150.415,774.83514,786.9231,815.5311,776.04395,0.3541298825,0.07299014350000001,0.6579110675000001,0.72973334,0.48047766
1752076150.415,784.5055,779.67035,817.9487,775.64105,0.3541298825,0.07299014350000001,0.6579110675000001,0.72973334,0.48047766
1752076150.415,781.685,776.4469,817.5458,781.28204,0.3541298825,0.07299014350000001,0.6579110675000001,0.72973334,0.48047766
1752076150.415,778.46155,786.1172,813.91943,776.8498,0.3541298825,0.07299014350000001,0.6579110675000001,0.72973334,0.48047766
1752076150.416,794.17584,767.1795,798.20514,794.57874,0.3541298825,0.07299014350000001,0.6579110675000001,0.72973334,0.48047766
1752076150.416,787.72894,764.7619,804.65204,797.8022,0.3541298825,0.07299014350000001,0.6579110675000001,0.72973334,0.48047766
1752076150.416,762.74725,794.9817,826.8132,771.2088,0.3541298825,0.07299014350000001,0.6579110675000001,0.72973334,0.48047766
1752076150.416,776.04395,792.1612,821.978,782.49084,0.3541298825,0.07299014350000001,0.6579110675000001,0.72973334,0.48047766
1752076150.4169998,789.34064,787.326,815.9341,778.46155,0.3541298825,0.07299014350000001,0.6579110675000001,0.72973334,0.48047766
1752076150.4169998,782.8938,793.7729,816.7399,768.7912,0.3541298825,0.07299014350000001,0.6579110675000001,0.72973334,0.48047766
1752076150.4659998,781.685,795.38464,821.5751,779.2674,0.3541298825,0.07299014350000001,0.6579110675000001,0.72973334,0.48047766
1752076150.4659998,788.93774,788.1319,816.337,794.57874,0.3541298825,0.07299014350000001,0.6579110675000001,0.72973334,0.48047766
1752076150.467,786.9231,786.9231,810.696,789.7436,0.3541298825,0.07299014350000001,0.6579110675000001,0.72973334,0.48047766
1752076150.467,781.28204,794.57874,816.337,772.4176,0.347999335,0.062400913500000016,0.65846036,0.73959204,0.483841695
1752076150.4689999,779.67035,794.17584,821.978,776.04395,0.347999335,0.062400913500000016,0.65846036,0.73959204,0.483841695
1752076150.4689999,789.7436,776.4469,804.65204,801.8315,0.347999335,0.062400913500000016,0.65846036,0.73959204,0.483841695
1752076150.47,786.52014,763.95605,794.57874,793.7729,0.347999335,0.062400913500000016,0.65846036,0.73959204,0.483841695
1752076150.47,777.25275,786.1172,809.4872,763.95605,0.347999335,0.062400913500000016,0.65846036,0.73959204,0.483841695
1752076150.47,786.52014,792.96704,813.1135,773.22345,0.347999335,0.062400913500000016,0.65846036,0.73959204,0.483841695
1752076150.47,788.1319,784.90845,812.3077,774.0293,0.347999335,0.062400913500000016,0.65846036,0.73959204,0.483841695
1752076150.471,793.36993,786.52014,805.05493,776.04395,0.347999335,0.062400913500000016,0.65846036,0.73959204,0.483841695
1752076150.471,794.9817,790.14655,809.4872,772.8205,0.347999335,0.062400913500000016,0.65846036,0.73959204,0.483841695
1752076150.5219998,793.7729,788.1319,817.5458,780.4762,0.347999335,0.062400913500000016,0.65846036,0.73959204,0.483841695
1752076150.523,784.10254,778.86444,808.2784,794.9817,0.347999335,0.062400913500000016,0.65846036,0.73959204,0.483841695
1752076150.523,774.43225,787.72894,820.3663,776.4469,0.347999335,0.062400913500000016,0.65846036,0.73959204,0.483841695
1752076150.523,781.28204,802.23444,835.6777,774.0293,0.347999335,0.062400913500000016,0.65846036,0.73959204,0.483841695
1752076150.524,784.5055,800.2198,828.022,775.64105,0.347999335,0.062400913500000016,0.65846036,0.73959204,0.483841695
1752076150.524,790.14655,770.80585,798.60803,790.14655,0.347999335,0.062400913500000016,0.65846036,0.73959204,0.483841695
1752076150.524,790.14655,762.3443,789.7436,785.31134,0.347999335,0.062400913500000016,0.65846036,0.73959204,0.483841695
1752076150.5249999,772.01465,792.1612,821.1722,769.19415,0.347999335,0.062400913500000016,0.65846036,0.73959204,0.483841695
1752076150.5249999,772.4176,779.67035,810.696,772.01465,0.347999335,0.062400913500000016,0.65846036,0.73959204,0.483841695
1752076150.5249999,775.2381,770.80585,809.89014,759.12085,0.347999335,0.062400913500000016,0.65846036,0.73959204,0.483841695
1752076150.526,769.59705,785.7143,823.1868,764.7619,0.347999335,0.062400913500000016,0.65846036,0.73959204,0.483841695
1752076150.526,767.1795,794.57874,823.1868,771.2088,0.347999335,0.062400913500000016,0.65846036,0.73959204,0.483841695
1752076150.549,780.87915,793.36993,821.978,781.28204,0.347999335,0.062400913500000016,0.65846036,0.73959204,0.483841695
1752076150.5500002,780.4762,782.0879,806.26373,783.2967,0.347999335,0.062400913500000016,0.65846036,0.73959204,0.483841695
1752076150.5500002,772.8205,790.9524,820.7692,760.32965,0.347999335,0.062400913500000016,0.65846036,0.73959204,0.483841695
1752076150.5500002,782.0879,795.38464,821.5751,767.5824,0.347999335,0.062400913500000016,0.65846036,0.73959204,0.483841695
1752076150.5500002,787.72894,777.25275,795.78754,786.1172,0.347999335,0.062400913500000016,0.65846036,0.73959204,0.483841695
1752076150.551,781.685,759.12085,785.31134,780.4762,0.3291685125,0.040373186000000005,0.65846036,0.74552029,0.484376585
1752076150.553,777.6557,766.3736,795.78754,770.0,0.3291685125,0.040373186000000005,0.65846036,0.74552029,0.484376585
1752076150.553,782.8938,785.31134,814.3223,778.86444,0.3291685125,0.040373186000000005,0.65846036,0.74552029,0.484376585
1752076150.553,793.36993,765.16486,795.78754,799.41394,0.3291685125,0.040373186000000005,0.65846036,0.74552029,0.484376585
1752076150.553,811.50183,748.24176,789.7436,811.50183,0.3291685125,0.040373186000000005,0.65846036,0.74552029,0.484376585
1752076150.553,806.6667,778.0586,819.5604,793.7729,0.3291685125,0.040373186000000005,0.65846036,0.74552029,0.484376585
1752076150.554,777.25275,798.20514,818.7546,761.13556,0.3291685125,0.040373186000000005,0.65846036,0.74552029,0.484376585
1752076150.6019998,765.9707,796.1905,809.0842,746.63007,0.3291685125,0.040373186000000005,0.65846036,0.74552029,0.484376585
1752076150.6030002,770.80585,801.4286,812.3077,761.53845,0.3291685125,0.040373186000000005,0.65846036,0.74552029,0.484376585
1752076150.6030002,785.7143,798.60803,797.8022,770.40295,0.3291685125,0.040373186000000005,0.65846036,0.74552029,0.484376585
1752076150.6030002,793.7729,782.0879,783.69965,776.04395,0.3291685125,0.040373186000000005,0.65846036,0.74552029,0.484376585
1752076150.6030002,796.5934,759.92676,771.6117,804.2491,0.3291685125,0.040373186000000005,0.65846036,0.74552029,0.484376585
1752076150.604,781.685,764.7619,788.93774,801.8315,0.3291685125,0.040373186000000005,0.65846036,0.74552029,0.484376585
1752076150.604,771.6117,788.5348,815.12823,776.8498,0.3291685125,0.040373186000000005,0.65846036,0.74552029,0.484376585
1752076150.604,781.685,785.7143,806.26373,776.4469,0.3291685125,0.040373186000000005,0.65846036,0.74552029,0.484376585
1752076150.604,784.5055,767.1795,786.9231,794.57874,0.3291685125,0.040373186000000005,0.65846036,0.74552029,0.484376585
1752076150.604,770.40295,770.0,797.3993,783.69965,0.3291685125,0.040373186000000005,0.65846036,0.74552029,0.484376585
1752076150.605,763.5531,797.3993,827.619,750.65936,0.3291685125,0.040373186000000005,0.65846036,0.74552029,0.484376585
1752076150.605,778.0586,790.9524,816.7399,758.71796,0.3291685125,0.040373186000000005,0.65846036,0.74552029,0.484376585
1752076150.655,786.1172,785.7143,813.91943,772.8205,0.3291685125,0.040373186000000005,0.65846036,0.74552029,0.484376585
1752076150.655,782.0879,790.14655,819.5604,778.86444,0.3291685125,0.040373186000000005,0.65846036,0.74552029,0.484376585
1752076150.655,772.4176,789.7436,815.12823,775.64105,0.3291685125,0.040373186000000005,0.65846036,0.74552029,0.484376585
1752076150.656,778.86444,782.49084,811.50183,781.685,0.3291685125,0.040373186000000005,0.65846036,0.74552029,0.484376585
1752076150.656,785.7143,780.4762,813.1135,780.07324,0.3291685125,0.040373186000000005,0.65846036,0.74552029,0.484376585
1752076150.656,780.87915,784.5055,816.337,775.2381,0.3291685125,0.040373186000000005,0.65846036,0.74552029,0.484376585
1752076150.6569998,775.64105,784.10254,817.1429,779.2674,0.3291685125,0.040373186000000005,0.65846036,0.74552029,0.484376585
1752076150.6569998,783.2967,774.0293,804.65204,784.5055,0.2978288525,0.005769233500000014,0.65846036,0.747678375,0.47939641
1752076150.6579998,786.9231,768.7912,797.8022,782.49084,0.2978288525,0.005769233500000014,0.65846036,0.747678375,0.47939641
1752076150.6579998,779.67035,789.7436,817.5458,775.64105,0.2978288525,0.005769233500000014,0.65846036,0.747678375,0.47939641
1752076150.6590002,785.31134,796.1905,821.5751,764.35895,0.2978288525,0.005769233500000014,0.65846036,0.747678375,0.47939641
1752076150.6590002,784.5055,783.2967,809.4872,772.8205,0.2978288525,0.005769233500000014,0.65846036,0.747678375,0.47939641
1752076150.681,775.2381,786.1172,818.7546,777.25275,0.2978288525,0.005769233500000014,0.65846036,0.747678375,0.47939641
1752076150.681,773.22345,801.02563,832.0513,775.2381,0.2978288525,0.005769233500000014,0.65846036,0.747678375,0.47939641
1752076150.682,779.67035,799.011,825.6044,791.3553,0.2978288525,0.005769233500000014,0.65846036,0.747678375,0.47939641
1752076150.682,782.0879,790.54944,817.5458,794.9817,0.2978288525,0.005769233500000014,0.65846036,0.747678375,0.47939641
1752076150.682,780.87915,789.7436,808.68134,775.2381,0.2978288525,0.005769233500000014,0.65846036,0.747678375,0.47939641
1752076150.682,778.86444,785.7143,806.26373,775.64105,0.2978288525,0.005769233500000014,0.65846036,0.747678375,0.47939641
1752076150.683,774.0293,790.9524,826.0073,783.2967,0.2978288525,0.005769233500000014,0.65846036,0.747678375,0.47939641
1752076150.683,772.01465,780.87915,819.15753,785.7143,0.2978288525,0.005769233500000014,0.65846036,0.747678375,0.47939641
1752076150.683,774.0293,773.6264,800.2198,782.0879,0.2978288525,0.005769233500000014,0.65846036,0.747678375,0.47939641
1752076150.683,776.4469,795.38464,812.3077,768.3883,0.2978288525,0.005769233500000014,0.65846036,0.747678375,0.47939641
1752076150.684,780.07324,786.9231,809.89014,767.1795,0.2978288525,0.005769233500000014,0.65846036,0.747678375,0.47939641
1752076150.684,780.4762,776.04395,797.3993,765.16486,0.2978288525,0.005769233500000014,0.65846036,0.747678375,0.47939641
1752076150.755,778.86444,778.46155,799.41394,763.1502,0.2978288525,0.005769233500000014,0.65846036,0.747678375,0.47939641
1752076150.755,776.4469,784.90845,810.293,764.7619,0.2978288525,0.005769233500000014,0.65846036,0.747678375,0.47939641
1752076150.756,778.0586,775.64105,801.8315,771.2088,0.2978288525,0.005769233500000014,0.65846036,0.747678375,0.47939641
1752076150.756,772.8205,773.6264,801.4286,769.59705,0.2978288525,0.005769233500000014,0.65846036,0.747678375,0.47939641
1752076150.756,757.50916,788.93774,812.3077,756.30035,0.2978288525,0.005769233500000014,0.65846036,0.747678375,0.47939641
1752076150.757,754.68866,784.10254,805.05493,775.64105,0.2978288525,0.005769233500000014,0.65846036,0.747678375,0.47939641
1752076150.757,777.25275,769.19415,794.57874,794.57874,0.2978288525,0.005769233500000014,0.65846036,0.747678375,0.47939641
1752076150.757,785.31134,765.16486,794.9817,780.4762,0.2978288525,0.005769233500000014,0.65846036,0.747678375,0.47939641
1752076150.7580001,777.6557,790.54944,812.71063,757.50916,0.2978288525,0.005769233500000014,0.65846036,0.747678375,0.47939641
1752076150.7580001,788.1319,795.38464,813.5165,765.9707,0.25731809,-0.037663364,0.6273593975,0.7473759274999999,0.47070833250000005
1752076150.759,792.1612,788.93774,815.5311,791.75824,0.25731809,-0.037663364,0.6273593975,0.7473759274999999,0.47070833250000005
1752076150.76,789.34064,793.36993,819.5604,782.8938,0.25731809,-0.037663364,0.6273593975,0.7473759274999999,0.47070833250000005
1752076150.811,786.1172,793.7729,818.3516,773.6264,0.25731809,-0.037663364,0.6273593975,0.7473759274999999,0.47070833250000005
1752076150.811,782.0879,794.57874,830.4396,786.52014,0.25731809,-0.037663364,0.6273593975,0.7473759274999999,0.47070833250000005
1752076150.811,794.17584,790.54944,827.2161,793.7729,0.25731809,-0.037663364,0.6273593975,0.7473759274999999,0.47070833250000005
1752076150.812,794.9817,782.0879,812.3077,782.49084,0.25731809,-0.037663364,0.6273593975,0.7473759274999999,0.47070833250000005
1752076150.812,784.10254,779.2674,811.0989,788.5348,0.25731809,-0.037663364,0.6273593975,0.7473759274999999,0.47070833250000005
1752076150.812,782.0879,779.2674,812.3077,792.1612,0.25731809,-0.037663364,0.6273593975,0.7473759274999999,0.47070833250000005
1752076150.812,784.90845,766.3736,803.44324,801.4286,0.25731809,-0.037663364,0.6273593975,0.7473759274999999,0.47070833250000005
1752076150.812,799.011,754.2857,788.5348,811.9048,0.25731809,-0.037663364,0.6273593975,0.7473759274999999,0.47070833250000005
1752076150.813,781.685,789.7436,817.9487,789.34064,0.25731809,-0.037663364,0.6273593975,0.7473759274999999,0.47070833250000005
1752076150.813,761.13556,809.89014,845.34796,766.3736,0.25731809,-0.037663364,0.6273593975,0.7473759274999999,0.47070833250000005
1752076150.813,766.77655,799.41394,831.2454,759.5238,0.25731809,-0.037663364,0.6273593975,0.7473759274999999,0.47070833250000005
1752076150.813,776.04395,798.20514,822.7839,762.3443,0.25731809,-0.037663364,0.6273593975,0.7473759274999999,0.47070833250000005
1752076150.837,780.4762,784.10254,807.0696,774.83514,0.25731809,-0.037663364,0.6273593975,0.7473759274999999,0.47070833250000005
1752076150.838,771.2088,768.7912,795.38464,775.2381,0.25731809,-0.037663364,0.6273593975,0.7473759274999999,0.47070833250000005
1752076150.838,774.43225,767.98535,800.2198,777.6557,0.25731809,-0.037663364,0.6273593975,0.7473759274999999,0.47070833250000005
1752076150.838,777.25275,783.2967,823.1868,783.2967,0.25731809,-0.037663364,0.6273593975,0.7473759274999999,0.47070833250000005
1752076150.839,784.5055,781.685,823.5897,781.685,0.25731809,-0.037663364,0.6273593975,0.7473759274999999,0.47070833250000005
1752076150.839,790.9524,765.56775,805.8608,788.5348,0.25731809,-0.037663364,0.6273593975,0.7473759274999999,0.47070833250000005
1752076150.839,774.43225,773.6264,813.91943,777.25275,0.25731809,-0.037663364,0.6273593975,0.7473759274999999,0.47070833250000005
1752076150.839,772.8205,781.685,811.9048,779.67035,0.25731809,-0.037663364,0.6273593975,0.7473759274999999,0.47070833250000005
1752076150.839,774.83514,788.5348,820.7692,786.1172,0.25731809,-0.037663364,0.6273593975,0.7473759274999999,0.47070833250000005
1752076150.84,778.86444,772.8205,805.4579,794.17584,0.25731809,-0.037663364,0.6273593975,0.7473759274999999,0.47070833250000005
1752076150.84,790.54944,759.5238,790.9524,791.75824,0.25731809,-0.037663364,0.6273593975,0.7473759274999999,0.47070833250000005
1752076150.84,776.04395,783.69965,816.7399,782.8938,0.2589215075,-0.033902776499999995,0.627719085,0.7528357149999999,0.46423799000000004
1752076150.8860002,780.4762,782.8938,819.5604,784.5055,0.2589215075,-0.033902776499999995,0.627719085,0.7528357149999999,0.46423799000000004
1752076150.8860002,784.10254,781.28204,820.3663,773.22345,0.2589215075,-0.033902776499999995,0.627719085,0.7528357149999999,0.46423799000000004
1752076150.8860002,779.2674,790.14655,825.2015,772.8205,0.2589215075,-0.033902776499999995,0.627719085,0.7528357149999999,0.46423799000000004
1752076150.887,792.5641,793.36993,829.6337,774.43225,0.2589215075,-0.033902776499999995,0.627719085,0.7528357149999999,0.46423799000000004
1752076150.887,797.8022,790.54944,823.9927,779.2674,0.2589215075,-0.033902776499999995,0.627719085,0.7528357149999999,0.46423799000000004
1752076150.887,806.26373,769.19415,804.65204,803.8461,0.2589215075,-0.033902776499999995,0.627719085,0.7528357149999999,0.46423799000000004
1752076150.887,791.75824,765.16486,809.0842,790.54944,0.2589215075,-0.033902776499999995,0.627719085,0.7528357149999999,0.46423799000000004
1752076150.887,768.7912,793.7729,836.08057,759.5238,0.2589215075,-0.033902776499999995,0.627719085,0.7528357149999999,0.46423799000000004
1752076150.887,789.7436,791.75824,830.4396,773.6264,0.2589215075,-0.033902776499999995,0.627719085,0.7528357149999999,0.46423799000000004
1752076150.888,793.7729,772.01465,816.337,791.75824,0.2589215075,-0.033902776499999995,0.627719085,0.7528357149999999,0.46423799000000004
1752076150.888,773.22345,785.31134,824.3956,774.0293,0.2589215075,-0.033902776499999995,0.627719085,0.7528357149999999,0.46423799000000004
1752076150.888,761.13556,799.81683,826.8132,765.16486,0.2589215075,-0.033902776499999995,0.627719085,0.7528357149999999,0.46423799000000004
1752076150.9350002,772.8205,782.8938,811.9048,780.87915,0.2589215075,-0.033902776499999995,0.627719085,0.7528357149999999,0.46423799000000004
1752076150.936,786.52014,782.0879,814.7253,784.5055,0.2589215075,-0.033902776499999995,0.627719085,0.7528357149999999,0.46423799000000004
1752076150.936,780.87915,791.75824,823.1868,760.7326,0.2589215075,-0.033902776499999995,0.627719085,0.7528357149999999,0.46423799000000004
1752076150.936,766.77655,789.34064,815.5311,754.2857,0.2589215075,-0.033902776499999995,0.627719085,0.7528357149999999,0.46423799000000004
1752076150.936,774.0293,783.2967,807.8755,765.16486,0.2589215075,-0.033902776499999995,0.627719085,0.7528357149999999,0.46423799000000004
1752076150.936,790.9524,781.685,805.8608,770.0,0.2589215075,-0.033902776499999995,0.627719085,0.7528357149999999,0.46423799000000004
1752076150.937,792.1612,784.90845,804.2491,782.0879,0.2589215075,-0.033902776499999995,0.627719085,0.7528357149999999,0.46423799000000004
1752076150.937,788.93774,789.7436,813.5165,780.07324,0.2589215075,-0.033902776499999995,0.627719085,0.7528357149999999,0.46423799000000004
1752076150.937,782.49084,768.7912,807.8755,770.80585,0.2589215075,-0.033902776499999995,0.627719085,0.7528357149999999,0.46423799000000004
1752076150.937,776.04395,753.47986,798.60803,770.80585,0.2589215075,-0.033902776499999995,0.627719085,0.7528357149999999,0.46423799000000004
1752076150.937,765.56775,777.25275,826.0073,771.6117,0.2589215075,-0.033902776499999995,0.627719085,0.7528357149999999,0.46423799000000004
1752076150.938,771.2088,781.685,828.4249,769.59705,0.2589215075,-0.033902776499999995,0.627719085,0.7528357149999999,0.46423799000000004
1752076150.9859998,776.04395,774.83514,814.7253,776.4469,0.2589215075,-0.033902776499999995,0.627719085,0.7528357149999999,0.46423799000000004
1752076150.987,771.2088,787.326,819.15753,775.64105,0.25720812,-0.0226653265,0.630549135,0.7583847324999999,0.45943992
1752076150.988,776.4469,796.5934,826.8132,772.01465,0.25720812,-0.0226653265,0.630549135,0.7583847324999999,0.45943992
1752076150.988,774.0293,780.87915,820.3663,782.49084,0.25720812,-0.0226653265,0.630549135,0.7583847324999999,0.45943992
1752076150.988,775.64105,765.9707,805.4579,785.7143,0.25720812,-0.0226653265,0.630549135,0.7583847324999999,0.45943992
1752076150.9889998,780.4762,774.0293,805.05493,776.8498,0.25720812,-0.0226653265,0.630549135,0.7583847324999999,0.45943992
1752076150.9889998,777.6557,783.2967,811.0989,766.77655,0.25720812,-0.0226653265,0.630549135,0.7583847324999999,0.45943992
1752076150.9889998,770.0,781.685,812.3077,767.1795,0.25720812,-0.0226653265,0.630549135,0.7583847324999999,0.45943992
1752076150.9889998,774.83514,764.7619,800.6227,788.1319,0.25720812,-0.0226653265,0.630549135,0.7583847324999999,0.45943992
1752076150.9889998,777.6557,771.2088,808.68134,786.1172,0.25720812,-0.0226653265,0.630549135,0.7583847324999999,0.45943992
1752076150.99,769.19415,794.9817,830.0366,770.40295,0.25720812,-0.0226653265,0.630549135,0.7583847324999999,0.45943992
1752076150.99,776.04395,784.5055,817.9487,775.64105,0.25720812,-0.0226653265,0.630549135,0.7583847324999999,0.45943992
1752076151.016,772.01465,774.0293,810.293,769.19415,0.25720812,-0.0226653265,0.630549135,0.7583847324999999,0.45943992
1752076151.016,774.43225,783.69965,813.1135,763.1502,0.25720812,-0.0226653265,0.630549135,0.7583847324999999,0.45943992
1752076151.017,782.8938,790.14655,815.5311,772.4176,0.25720812,-0.0226653265,0.630549135,0.7583847324999999,0.45943992
1752076151.017,782.0879,772.4176,804.2491,791.3553,0.25720812,-0.0226653265,0.630549135,0.7583847324999999,0.45943992
1752076151.017,786.9231,765.56775,796.1905,787.72894,0.25720812,-0.0226653265,0.630549135,0.7583847324999999,0.45943992
1752076151.017,781.28204,782.8938,813.1135,774.43225,0.25720812,-0.0226653265,0.630549135,0.7583847324999999,0.45943992
1752076151.017,779.2674,786.52014,820.7692,779.2674,0.25720812,-0.0226653265,0.630549135,0.7583847324999999,0.45943992
1752076151.018,791.75824,778.46155,810.696,796.1905,0.25720812,-0.0226653265,0.630549135,0.7583847324999999,0.45943992
1752076151.018,789.7436,778.86444,811.9048,791.3553,0.25720812,-0.0226653265,0.630549135,0.7583847324999999,0.45943992
1752076151.018,773.22345,803.8461,836.08057,758.71796,0.25720812,-0.0226653265,0.630549135,0.7583847324999999,0.45943992
1752076151.018,777.6557,808.2784,836.4835,774.43225,0.25720812,-0.0226653265,0.630549135,0.7583847324999999,0.45943992
1752076151.018,779.67035,790.54944,813.1135,784.5055,0.25720812,-0.0226653265,0.630549135,0.7583847324999999,0.45943992
1752076151.069,778.0586,778.0586,801.4286,776.04395,0.25720812,-0.0226653265,0.630549135,0.7583847324999999,0.45943992
1752076151.0700002,771.6117,782.0879,807.8755,780.4762,0.25720812,-0.0226653265,0.630549135,0.7583847324999999,0.45943992
1752076151.0700002,767.98535,782.8938,799.011,781.685,0.25720812,-0.0226653265,0.630549135,0.7583847324999999,0.45943992
1752076151.0700002,777.25275,776.04395,790.14655,786.9231,0.416774884,0.30005662975,0.741550085,0.8229739249999999,0.45536407500000003
1752076151.071,776.8498,782.8938,803.8461,773.6264,0.416774884,0.30005662975,0.741550085,0.8229739249999999,0.45536407500000003
1752076151.072,773.22345,786.52014,816.337,764.35895,0.416774884,0.30005662975,0.741550085,0.8229739249999999,0.45536407500000003
1752076151.072,774.43225,784.90845,816.337,767.98535,0.416774884,0.30005662975,0.741550085,0.8229739249999999,0.45536407500000003
1752076151.072,792.1612,771.2088,803.0403,789.34064,0.416774884,0.30005662975,0.741550085,0.8229739249999999,0.45536407500000003
1752076151.073,802.23444,757.9121,799.41394,806.6667,0.416774884,0.30005662975,0.741550085,0.8229739249999999,0.45536407500000003
1752076151.073,779.2674,786.1172,824.3956,785.31134,0.416774884,0.30005662975,0.741550085,0.8229739249999999,0.45536407500000003
1752076151.073,768.7912,804.2491,843.3333,771.6117,0.416774884,0.30005662975,0.741550085,0.8229739249999999,0.45536407500000003
1752076151.074,772.01465,791.3553,830.84247,773.6264,0.416774884,0.30005662975,0.741550085,0.8229739249999999,0.45536407500000003
1752076151.121,770.40295,780.4762,808.2784,768.7912,0.416774884,0.30005662975,0.741550085,0.8229739249999999,0.45536407500000003
1752076151.122,767.5824,782.8938,803.0403,756.7033,0.416774884,0.30005662975,0.741550085,0.8229739249999999,0.45536407500000003
1752076151.122,774.83514,778.0586,798.20514,766.77655,0.416774884,0.30005662975,0.741550085,0.8229739249999999,0.45536407500000003
1752076151.122,777.25275,782.0879,805.4579,769.59705,0.416774884,0.30005662975,0.741550085,0.8229739249999999,0.45536407500000003
1752076151.122,778.0586,789.34064,808.2784,757.9121,0.416774884,0.30005662975,0.741550085,0.8229739249999999,0.45536407500000003
1752076151.1230001,781.28204,780.87915,799.011,763.95605,0.416774884,0.30005662975,0.741550085,0.8229739249999999,0.45536407500000003
1752076151.1230001,784.10254,771.6117,792.1612,779.2674,0.416774884,0.30005662975,0.741550085,0.8229739249999999,0.45536407500000003
1752076151.1230001,784.10254,771.2088,798.60803,778.86444,0.416774884,0.30005662975,0.741550085,0.8229739249999999,0.45536407500000003
1752076151.1230001,772.01465,787.326,814.3223,765.9707,0.416774884,0.30005662975,0.741550085,0.8229739249999999,0.45536407500000003
1752076151.1230001,773.6264,792.1612,811.9048,774.0293,0.416774884,0.30005662975,0.741550085,0.8229739249999999,0.45536407500000003
1752076151.124,774.0293,778.86444,802.6374,774.83514,0.416774884,0.30005662975,0.741550085,0.8229739249999999,0.45536407500000003
1752076151.124,761.53845,779.2674,809.4872,765.56775,0.416774884,0.30005662975,0.741550085,0.8229739249999999,0.45536407500000003
1752076151.181,765.16486,786.1172,819.9634,771.6117,0.416774884,0.30005662975,0.741550085,0.8229739249999999,0.45536407500000003
1752076151.1820002,777.6557,781.28204,817.1429,778.86444,0.416774884,0.30005662975,0.741550085,0.8229739249999999,0.45536407500000003
1752076151.1820002,780.4762,781.685,815.5311,774.0293,0.416774884,0.30005662975,0.741550085,0.8229739249999999,0.45536407500000003
1752076151.1820002,774.0293,786.9231,823.5897,779.2674,0.416774884,0.30005662975,0.741550085,0.8229739249999999,0.45536407500000003
1752076151.1820002,775.64105,787.72894,823.9927,786.52014,0.416774884,0.30005662975,0.741550085,0.8229739249999999,0.45536407500000003
1752076151.183,784.5055,782.49084,812.3077,783.2967,0.40824516499999997,0.31082376225,0.7417663624999999,0.82623219,0.460336495
1752076151.184,791.75824,765.56775,800.2198,794.9817,0.40824516499999997,0.31082376225,0.7417663624999999,0.82623219,0.460336495
1752076151.184,780.4762,767.98535,808.2784,796.99634,0.40824516499999997,0.31082376225,0.7417663624999999,0.82623219,0.460336495
1752076151.184,765.16486,798.60803,836.08057,772.4176,0.40824516499999997,0.31082376225,0.7417663624999999,0.82623219,0.460336495
1752076151.185,774.83514,788.93774,825.6044,779.2674,0.40824516499999997,0.31082376225,0.7417663624999999,0.82623219,0.460336495
1752076151.185,770.80585,782.0879,820.3663,776.4469,0.40824516499999997,0.31082376225,0.7417663624999999,0.82623219,0.460336495
1752076151.185,753.8828,790.54944,826.8132,763.5531,0.40824516499999997,0.31082376225,0.7417663624999999,0.82623219,0.460336495
1752076151.212,763.95605,792.96704,823.5897,761.53845,0.40824516499999997,0.31082376225,0.7417663624999999,0.82623219,0.460336495
1752076151.212,783.2967,782.49084,814.3223,780.07324,0.40824516499999997,0.31082376225,0.7417663624999999,0.82623219,0.460336495
1752076151.212,791.3553,772.8205,805.8608,784.90845,0.40824516499999997,0.31082376225,0.7417663624999999,0.82623219,0.460336495
1752076151.212,790.9524,788.93774,815.5311,775.64105,0.40824516499999997,0.31082376225,0.7417663624999999,0.82623219,0.460336495
1752076151.2129998,780.87915,794.57874,825.6044,779.67035,0.40824516499999997,0.31082376225,0.7417663624999999,0.82623219,0.460336495
1752076151.2129998,778.86444,787.326,824.7985,778.46155,0.40824516499999997,0.31082376225,0.7417663624999999,0.82623219,0.460336495
1752076151.2129998,786.1172,784.10254,819.15753,794.17584,0.40824516499999997,0.31082376225,0.7417663624999999,0.82623219,0.460336495
1752076151.2129998,765.56775,796.99634,830.84247,783.2967,0.40824516499999997,0.31082376225,0.7417663624999999,0.82623219,0.460336495
1752076151.2129998,756.7033,800.6227,836.8865,765.9707,0.40824516499999997,0.31082376225,0.7417663624999999,0.82623219,0.460336495
1752076151.2129998,776.8498,775.2381,810.293,795.38464,0.40824516499999997,0.31082376225,0.7417663624999999,0.82623219,0.460336495
1752076151.2129998,780.87915,770.40295,795.78754,796.5934,0.40824516499999997,0.31082376225,0.7417663624999999,0.82623219,0.460336495
1752076151.2129998,770.40295,798.20514,819.15753,755.09155,0.40824516499999997,0.31082376225,0.7417663624999999,0.82623219,0.460336495
1752076151.256,758.315,786.9231,817.1429,752.674,0.40824516499999997,0.31082376225,0.7417663624999999,0.82623219,0.460336495
1752076151.256,759.12085,781.685,818.3516,767.1795,0.40824516499999997,0.31082376225,0.7417663624999999,0.82623219,0.460336495
1752076151.257,768.7912,784.5055,813.91943,764.7619,0.40824516499999997,0.31082376225,0.7417663624999999,0.82623219,0.460336495
1752076151.257,767.98535,778.86444,808.68134,762.74725,0.40824516499999997,0.31082376225,0.7417663624999999,0.82623219,0.460336495
1752076151.257,755.4945,789.7436,819.9634,755.4945,0.40824516499999997,0.31082376225,0.7417663624999999,0.82623219,0.460336495
1752076151.257,752.674,780.4762,810.696,759.5238,0.40824516499999997,0.31082376225,0.7417663624999999,0.82623219,0.460336495
1752076151.257,764.35895,764.35895,797.8022,768.3883,0.40824516499999997,0.31082376225,0.7417663624999999,0.82623219,0.460336495
1752076151.258,749.85345,795.78754,828.022,749.45056,0.40103656275,0.31807053975,0.7303489249999999,0.8273100149999999,0.4677416075
1752076151.259,738.1685,809.0842,836.4835,736.1539,0.40103656275,0.31807053975,0.7303489249999999,0.8273100149999999,0.4677416075
1752076151.259,733.3333,801.4286,832.0513,732.52747,0.40103656275,0.31807053975,0.7303489249999999,0.8273100149999999,0.4677416075
1752076151.259,724.0659,815.5311,841.31866,720.4396,0.40103656275,0.31807053975,0.7303489249999999,0.8273100149999999,0.4677416075
1752076151.259,725.6777,817.5458,836.4835,714.3956,0.40103656275,0.31807053975,0.7303489249999999,0.8273100149999999,0.4677416075
1752076151.318,721.2454,800.2198,822.7839,708.7546,0.40103656275,0.31807053975,0.7303489249999999,0.8273100149999999,0.4677416075
1752076151.319,697.0696,800.6227,832.8571,695.05493,0.40103656275,0.31807053975,0.7303489249999999,0.8273100149999999,0.4677416075
1752076151.319,700.293,812.3077,846.55676,690.6227,0.40103656275,0.31807053975,0.7303489249999999,0.8273100149999999,0.4677416075
1752076151.319,717.2161,809.4872,826.8132,688.20514,0.40103656275,0.31807053975,0.7303489249999999,0.8273100149999999,0.4677416075
1752076151.319,696.26373,803.0403,811.50183,683.36993,0.40103656275,0.31807053975,0.7303489249999999,0.8273100149999999,0.4677416075
1752076151.32,685.38464,801.02563,809.89014,686.5934,0.40103656275,0.31807053975,0.7303489249999999,0.8273100149999999,0.4677416075
1752076151.32,687.8022,800.2198,823.1868,676.1172,0.40103656275,0.31807053975,0.7303489249999999,0.8273100149999999,0.4677416075
1752076151.32,682.1612,792.96704,831.2454,680.54944,0.40103656275,0.31807053975,0.7303489249999999,0.8273100149999999,0.4677416075
1752076151.32,686.1905,792.1612,817.5458,691.8315,0.40103656275,0.31807053975,0.7303489249999999,0.8273100149999999,0.4677416075
1752076151.3209999,703.1135,793.7729,809.89014,696.26373,0.40103656275,0.31807053975,0.7303489249999999,0.8273100149999999,0.4677416075
1752076151.3209999,684.57874,815.12823,843.3333,668.46155,0.40103656275,0.31807053975,0.7303489249999999,0.8273100149999999,0.4677416075
1752076151.3209999,672.8938,819.5604,848.5714,658.3883,0.40103656275,0.31807053975,0.7303489249999999,0.8273100149999999,0.4677416075
1752076151.369,695.4579,812.71063,843.3333,682.1612,0.40103656275,0.31807053975,0.7303489249999999,0.8273100149999999,0.4677416075
1752076151.369,697.0696,821.978,853.00366,690.2198,0.40103656275,0.31807053975,0.7303489249999999,0.8273100149999999,0.4677416075
1752076151.369,689.011,817.5458,848.97437,679.34064,0.40103656275,0.31807053975,0.7303489249999999,0.8273100149999999,0.4677416075
1752076151.37,685.38464,799.011,846.9597,682.1612,0.40103656275,0.31807053975,0.7303489249999999,0.8273100149999999,0.4677416075
1752076151.37,694.2491,779.67035,826.4103,700.293,0.40103656275,0.31807053975,0.7303489249999999,0.8273100149999999,0.4677416075
1752076151.37,709.9634,786.1172,819.5604,704.7253,0.40103656275,0.31807053975,0.7303489249999999,0.8273100149999999,0.4677416075
1752076151.37,713.9927,796.99634,831.6484,698.68134,0.40103656275,0.31807053975,0.7303489249999999,0.8273100149999999,0.4677416075
1752076151.37,704.7253,794.17584,836.4835,701.9048,0.40103656275,0.31807053975,0.7303489249999999,0.8273100149999999,0.4677416075
1752076151.37,710.7692,778.0586,819.15753,729.707,0.40103656275,0.31807053975,0.7303489249999999,0.8273100149999999,0.4677416075
1752076151.371,709.9634,782.0879,820.7692,718.4249,0.40019263174999997,0.32342541725,0.72399959,0.8269565999999999,0.4744432825
1752076151.372,702.71063,817.9487,855.82416,686.1905,0.40019263174999997,0.32342541725,0.72399959,0.8269565999999999,0.4744432825
1752076151.372,708.3516,806.6667,837.6923,701.9048,0.40019263174999997,0.32342541725,0.72399959,0.8269565999999999,0.4744432825
1752076151.3990002,714.7985,784.90845,821.1722,720.84247,0.40019263174999997,0.32342541725,0.72399959,0.8269565999999999,0.4744432825
1752076151.3990002,726.8865,793.36993,836.08057,724.87177,0.40019263174999997,0.32342541725,0.72399959,0.8269565999999999,0.4744432825
1752076151.4,726.8865,794.57874,830.4396,717.2161,0.40019263174999997,0.32342541725,0.72399959,0.8269565999999999,0.4744432825
1752076151.4,723.663,782.49084,828.8278,725.6777,0.40019263174999997,0.32342541725,0.72399959,0.8269565999999999,0.4744432825
1752076151.4,728.9011,783.2967,837.28937,733.3333,0.40019263174999997,0.32342541725,0.72399959,0.8269565999999999,0.4744432825
1752076151.4,732.9304,784.10254,840.5128,736.1539,0.40019263174999997,0.32342541725,0.72399959,0.8269565999999999,0.4744432825
1752076151.401,743.00366,783.69965,834.4689,747.03296,0.40019263174999997,0.32342541725,0.72399959,0.8269565999999999,0.4744432825
1752076151.401,751.8681,778.0586,823.9927,740.18317,0.40019263174999997,0.32342541725,0.72399959,0.8269565999999999,0.4744432825
1752076151.401,734.5421,778.0586,833.663,727.6923,0.40019263174999997,0.32342541725,0.72399959,0.8269565999999999,0.4744432825
1752076151.401,727.28937,786.9231,844.5421,727.6923,0.40019263174999997,0.32342541725,0.72399959,0.8269565999999999,0.4744432825
1752076151.401,734.94507,793.36993,851.79486,733.73627,0.40019263174999997,0.32342541725,0.72399959,0.8269565999999999,0.4744432825
