timestamp,RAW_TP9,RAW_AF7,RAW_AF8,RAW_TP10,AUX_RIGHT
1624462217.71875,829.4993894993895,800.7794057794058,803.1074481074481,831.6707366707367,852.0746845746846
1624462217.7265625,828.1562881562882,801.0704110704111,802.7716727716728,830.2157102157103,840.938135938136
1624462217.734375,826.8131868131868,801.3614163614163,802.4358974358975,828.7606837606837,829.8015873015873
1624462217.7421875,825.4700854700855,801.6524216524217,802.1001221001221,827.3056573056573,818.6650386650388
1624462217.7500002,824.1269841269841,801.943426943427,801.7643467643468,825.8506308506309,807.5284900284901
1624462217.7578125,822.7838827838827,802.2344322344322,801.4285714285714,824.3956043956043,796.3919413919414
1624462217.765625,821.4407814407815,802.5254375254375,801.0927960927961,822.9405779405779,785.2553927553928
1624462217.7734375,820.0976800976802,802.8164428164428,800.7570207570208,821.4855514855515,774.1188441188441
1624462217.78125,818.7545787545788,803.1074481074481,800.4212454212454,820.030525030525,762.9822954822955
1624462217.7890625,817.4114774114774,803.3984533984534,800.0854700854701,818.5754985754986,751.8457468457468
1624462217.796875,816.0683760683761,803.6894586894587,799.7496947496948,817.1204721204721,740.7091982091982
1624462217.8046875,814.7252747252747,803.9804639804639,799.4139194139194,815.6654456654456,729.5726495726495
1624462217.8125,816.4713064713064,803.8237688237688,798.3842083842084,815.8445258445258,739.8921448921449
1624462217.8203125,818.2173382173382,803.6670736670736,797.3544973544974,816.023606023606,750.2116402116402
1624462217.828125,819.9633699633699,803.5103785103785,796.3247863247864,816.2026862026862,760.5311355311355
1624462217.8359375,821.7094017094016,803.3536833536833,795.2950752950753,816.3817663817664,770.8506308506309
1624462217.84375,823.4554334554334,803.1969881969882,794.2653642653644,816.5608465608466,781.1701261701262
1624462217.8515625,825.2014652014651,803.040293040293,793.2356532356533,816.7399267399268,791.4896214896215
1624462217.859375,828.4249084249085,799.0109890109891,798.2051282051282,812.3076923076924,649.92673992674
1624462217.8671875,823.5897435897436,798.6886446886448,795.7875457875458,808.8424908424909,649.92673992674
1624462217.875,818.7545787545788,798.3663003663004,793.3699633699633,805.3772893772895,649.92673992674
1624462217.8828125,813.919413919414,798.0439560439561,790.952380952381,801.9120879120879,649.92673992674
1624462217.890625,809.0842490842491,797.7216117216117,788.5347985347985,798.4468864468865,649.92673992674
1624462217.8984373,804.2490842490843,797.3992673992674,786.1172161172161,794.981684981685,649.92673992674
1624462217.90625,802.4358974358975,799.4139194139194,784.7069597069598,803.4432234432235,627.967032967033
1624462217.9140625,807.2710622710623,799.9847374847375,787.5274725274726,804.5177045177045,686.425518925519
1624462217.921875,812.1062271062272,800.5555555555555,790.3479853479854,805.5921855921856,744.8840048840049
1624462217.9296875,816.941391941392,801.1263736263736,793.1684981684982,806.6666666666666,803.3424908424909
1624462217.9375,809.6886446886448,800.6946624803768,791.959706959707,802.3639455782312,786.7216117216118
1624462217.9453125,802.4358974358975,800.2629513343799,790.7509157509159,798.0612244897959,770.1007326007326
1624462217.9531252,795.1831501831502,799.831240188383,789.5421245421246,793.7585034013605,753.4798534798535
1624462217.9609375,787.9304029304029,799.3995290423862,788.3333333333334,789.4557823129252,736.8589743589744
1624462217.96875,780.6776556776557,798.9678178963894,787.1245421245421,785.1530612244898,720.2380952380953
1624462217.9765625,773.4249084249084,798.5361067503925,785.915750915751,780.8503401360545,703.6172161172161
1624462217.984375,766.1721611721612,798.1043956043957,784.7069597069598,776.547619047619,686.996336996337
1624462217.9921875,758.1471306471307,799.8000610500611,783.8675213675215,767.330586080586,692.4358974358975
1624462218.0,750.1221001221002,801.4957264957266,783.0280830280831,758.1135531135532,697.8754578754579
1624462218.0078125,742.0970695970695,803.191391941392,782.1886446886447,748.8965201465202,703.3150183150183
1624462218.015625,734.072039072039,804.8870573870574,781.3492063492064,739.6794871794872,708.7545787545788
1624462218.0234375,726.0470085470085,806.5827228327229,780.5097680097681,730.4624542124543,714.1941391941392
1624462218.03125,718.021978021978,808.2783882783883,779.6703296703297,721.2454212454213,719.6336996336996
1624462218.0390625,765.030525030525,798.2051282051283,796.7277167277167,766.5079365079365,702.173382173382
1624462218.0468748,767.6271876271876,796.2352462352463,794.5115995115996,768.4106634106635,703.3597883597882
1624462218.0546875,770.2238502238503,794.2653642653643,792.2954822954823,770.3133903133903,704.5461945461944
1624462218.0625,772.8205128205129,792.2954822954823,790.0793650793651,772.2161172161173,705.7326007326006
1624462218.0703125,775.4171754171755,790.3256003256004,787.8632478632479,774.1188441188442,706.9190069190068
1624462218.078125,778.013838013838,788.3557183557183,785.6471306471308,776.021571021571,708.105413105413
1624462218.0859375,780.6105006105007,786.3858363858363,783.4310134310135,777.924297924298,709.2918192918193
1624462218.09375,784.7685185185186,789.2958892958893,786.2123524623526,782.8657916157917,726.8136955636955
1624462218.1015627,788.9265364265365,792.2059422059422,788.9936914936916,787.8072853072854,744.3355718355717
1624462218.109375,793.0845543345545,795.1159951159951,791.7750305250306,792.748778998779,761.8574481074479
1624462218.1171875,797.2425722425724,798.0260480260481,794.5563695563696,797.6902726902728,779.3793243793242
1624462218.125,801.4005901505902,800.936100936101,797.3377085877087,802.6317663817665,796.9012006512005
1624462218.1328125,805.5586080586081,803.8461538461539,800.1190476190477,807.5732600732601,814.4230769230767
1624462218.140625,805.0045787545788,803.5439560439561,800.102258852259,806.9520757020757,821.9948107448106
1624462218.1484375,804.4505494505495,803.2417582417582,800.0854700854701,806.3308913308914,829.5665445665444
1624462218.15625,803.8965201465202,802.9395604395604,800.0686813186813,805.7097069597071,837.1382783882783
1624462218.1640625,803.3424908424909,802.6373626373627,800.0518925518926,805.0885225885227,844.7100122100122
1624462218.171875,802.7884615384615,802.3351648351648,800.0351037851037,804.4673382173382,852.281746031746
1624462218.1796875,802.2344322344322,802.032967032967,800.018315018315,803.8461538461539,859.8534798534799
1624462218.1953125,795.3062678062679,797.9588929588931,800.6227106227105,785.6471306471307,685.5189255189256
1624462218.203125,794.9592999593,798.1155881155883,799.9511599511599,786.923076923077,705.7997557997559
1624462218.2109375,794.6123321123322,798.2722832722834,799.2796092796093,788.1990231990233,726.080586080586
1624462218.21875,794.2653642653643,798.4289784289786,798.6080586080586,789.4749694749695,746.3614163614163
1624462218.2265625,793.9183964183965,798.5856735856737,797.936507936508,790.7509157509159,766.6422466422466
1624462218.234375,793.5714285714287,798.7423687423689,797.2649572649573,792.0268620268621,786.9230769230769
1624462218.2421875,793.2244607244608,798.899063899064,796.5934065934066,793.3028083028083,807.2039072039072
1624462218.2499998,792.877492877493,799.0557590557592,795.9218559218559,794.5787545787547,827.4847374847375
1624462218.2578125,792.530525030525,799.2124542124543,795.2503052503052,795.8547008547009,847.7655677655678
1624462218.265625,792.1835571835572,799.3691493691495,794.5787545787547,797.1306471306472,868.046398046398
1624462218.2734375,791.8365893365893,799.5258445258446,793.907203907204,798.4065934065935,888.3272283272282
1624462218.28125,791.4896214896215,799.6825396825398,793.2356532356533,799.6825396825398,908.6080586080584
1624462218.2890625,794.3996743996744,799.7273097273098,785.0875050875052,792.7431827431828,906.9963369963368
1624462218.296875,797.3097273097274,799.7720797720798,776.9393569393569,785.8038258038258,905.3846153846154
1624462218.3046875,800.2197802197802,799.8168498168499,768.7912087912088,778.8644688644689,903.7728937728938
1624462218.3125,811.5018315018315,805.1892551892552,780.3418803418804,787.5946275946276,1013.7728937728938
1624462218.3203125,811.9719169719169,807.6180301180301,782.8490028490029,790.5550468050468,967.0833333333334
1624462218.328125,812.4420024420025,810.046805046805,785.3561253561254,793.515466015466,920.393772893773
1624462218.3359375,812.9120879120879,812.47557997558,787.8632478632478,796.4758852258852,873.7042124542124
1624462218.34375,813.3821733821734,814.9043549043549,790.3703703703703,799.4363044363045,827.014652014652
1624462218.3515625,813.852258852259,817.3331298331299,792.8774928774928,802.3967236467237,780.3250915750916
1624462218.359375,814.3223443223444,819.7619047619048,795.3846153846154,805.3571428571429,733.6355311355312
1624462218.3671875,812.7106227106228,817.9151404151405,797.2649572649573,807.9929792429792,743.3226495726497
1624462218.375,811.0989010989011,816.0683760683761,799.1452991452992,810.6288156288157,753.0097680097681
1624462218.3828125,809.4871794871796,814.2216117216117,801.0256410256411,813.264652014652,762.6968864468865
1624462218.390625,807.875457875458,812.3748473748474,802.9059829059829,815.9004884004884,772.3840048840049
1624462218.3984373,806.2637362637363,810.5280830280831,804.7863247863248,818.5363247863248,782.0711233211233
1624462218.40625,804.6520146520147,808.6813186813187,806.6666666666667,821.1721611721612,791.7582417582418
1624462218.4140625,800.4212454212454,804.047619047619,800.2197802197802,816.1355311355312,819.1575091575091
1624462218.421875,796.1904761904763,799.4139194139194,793.7728937728938,811.0989010989011,846.5567765567765
1624462218.4296875,815.5311355311355,810.6959706959708,793.7728937728939,811.0989010989011,627.3626373626373
1624462218.4375,816.4041514041514,806.5995115995116,791.7918192918194,809.6214896214897,658.1532356532356
1624462218.4453125,817.2771672771673,802.5030525030526,789.810744810745,808.1440781440782,688.9438339438339
1624462218.4531252,818.1501831501832,798.4065934065934,787.8296703296704,806.6666666666667,719.7344322344321
1624462218.4609375,823.5897435897436,812.3076923076924,801.8315018315019,813.1135531135532,670.8791208791209
1624462218.46875,824.0430402930403,812.2573260073261,801.9154456654458,814.0537240537241,700.8302808302809
1624462218.4765625,824.496336996337,812.2069597069598,801.9993894993895,814.9938949938951,730.7814407814409
1624462218.484375,824.9496336996338,812.1565934065934,802.0833333333334,815.934065934066,760.7326007326008
1624462218.4921875,825.4029304029305,812.1062271062272,802.1672771672772,816.8742368742369,790.6837606837607
1624462218.5,825.8562271062272,812.0558608058609,802.251221001221,817.8144078144079,820.6349206349207
1624462218.5078125,826.3095238095239,812.0054945054945,802.3351648351648,818.7545787545788,850.5860805860807
1624462218.515625,815.8669108669109,808.0769230769231,802.032967032967,818.8888888888889,861.7338217338219
1624462218.5234375,805.424297924298,804.1483516483516,801.7307692307693,819.023199023199,872.8815628815629
1624462218.53125,794.981684981685,800.2197802197802,801.4285714285714,819.1575091575091,884.0293040293041
1624462218.5390625,809.6214896214897,809.2185592185592,786.3858363858363,806.2637362637364,701.5018315018315
1624462218.5468748,809.8341473341474,808.7428774928775,786.1563899063899,805.5082417582419,750.927960927961
1624462218.5546875,810.046805046805,808.2671957671957,785.9269434269435,804.7527472527473,800.3540903540903
1624462218.5625,810.2594627594628,807.791514041514,785.697496947497,803.9972527472528,849.7802197802198
1624462218.5703125,810.4721204721205,807.3158323158323,785.4680504680505,803.2417582417584,899.2063492063493
1624462218.578125,810.6847781847782,806.8401505901505,785.238603988604,802.4862637362638,948.6324786324788
1624462218.5859375,810.8974358974359,806.3644688644688,785.0091575091576,801.7307692307693,998.058608058608
1624462218.59375,812.1901709401709,808.1272893772893,789.7435897435898,804.7527472527473,969.6520146520148
1624462218.6015627,813.482905982906,809.8901098901099,794.4780219780221,807.7747252747254,941.2454212454212
1624462218.609375,814.7756410256411,811.6529304029305,799.2124542124543,810.7967032967033,912.838827838828
1624462218.6171875,816.0683760683761,813.4157509157509,803.9468864468865,813.8186813186813,884.4322344322344
1624462218.625,817.3611111111111,815.1785714285714,808.6813186813188,816.8406593406594,856.025641025641
1624462218.6328125,818.6538461538462,816.941391941392,813.415750915751,819.8626373626374,827.6190476190476
1624462218.640625,817.1932234432235,815.5647130647131,815.4136141636143,820.5173992673994,809.2185592185592
1624462218.6484375,815.7326007326008,814.1880341880343,817.4114774114774,821.1721611721613,790.8180708180709
1624462218.65625,814.271978021978,812.8113553113553,819.4093406593407,821.8269230769231,772.4175824175825
1624462218.6640625,812.8113553113553,811.4346764346765,821.407203907204,822.481684981685,754.017094017094
1624462218.671875,811.3507326007326,810.0579975579976,823.4050671550672,823.136446886447,735.6166056166056
1624462218.6796875,809.8901098901099,808.6813186813188,825.4029304029305,823.7912087912089,717.2161172161173
1624462218.6875,818.5531135531136,835.4761904761905,836.2820512820513,830.6410256410256,865.2930402930403
1624462218.6953125,819.4373219373219,833.0474155474155,836.6737891737891,828.6375661375662,846.500814000814
1624462218.703125,820.3215303215303,830.6186406186406,837.065527065527,826.6341066341066,827.7085877085877
1624462218.7109375,821.2057387057387,828.1898656898657,837.4572649572649,824.6306471306472,808.9163614163615
1624462218.71875,822.089947089947,825.7610907610908,837.8490028490029,822.6271876271877,790.1241351241351
1624462218.7265625,822.9741554741554,823.3323158323159,838.2407407407408,820.6237281237281,771.3319088319088
1624462218.734375,823.8583638583638,820.9035409035409,838.6324786324786,818.6202686202687,752.5396825396825
1624462218.7421875,808.2783882783883,810.2930402930403,817.5457875457876,799.4139194139194,862.2710622710623
1624462218.7500002,809.970695970696,810.6153846153846,816.7399267399268,801.9120879120879,868.4761904761905
1624462218.7578125,811.6630036630037,810.9377289377289,815.934065934066,804.4102564102565,874.6813186813187
1624462218.765625,813.3553113553114,811.2600732600733,815.1282051282051,806.9084249084249,880.886446886447
1624462218.7734375,815.047619047619,811.5824175824176,814.3223443223443,809.4065934065934,887.0915750915751
1624462218.78125,816.7399267399268,811.9047619047619,813.5164835164835,811.9047619047619,893.2967032967033
1624462218.7890625,811.5018315018315,818.4859584859586,809.89010989011,813.6507936507936,815.2625152625154
1624462218.796875,809.6662596662596,817.8703703703704,806.868131868132,811.7928367928367,804.7079772079774
1624462218.8046875,807.8306878306878,817.2547822547823,803.8461538461539,809.93487993488,794.1534391534393
1624462218.8125,805.9951159951161,816.6391941391942,800.8241758241759,808.0769230769231,783.5989010989013
1624462218.8203125,804.1595441595442,816.023606023606,797.8021978021978,806.2189662189662,773.0443630443631
1624462218.828125,802.3239723239724,815.4080179080179,794.7802197802198,804.3610093610095,762.489824989825
1624462218.8359375,800.4884004884005,814.7924297924297,791.7582417582418,802.5030525030526,751.935286935287
1624462218.84375,815.1282051282052,807.4725274725275,796.1904761904763,810.6959706959707,749.047619047619
1624462218.8515625,814.7028897028897,807.4277574277575,795.5860805860807,810.5280830280831,761.8070818070818
1624462218.859375,814.2775742775743,807.3829873829875,794.981684981685,810.3601953601953,774.5665445665445
1624462218.8671875,813.852258852259,807.3382173382174,794.3772893772895,810.1923076923077,787.3260073260074
1624462218.875,813.4269434269435,807.2934472934473,793.7728937728938,810.02442002442,800.0854700854701
1624462218.8828125,813.001628001628,807.2486772486773,793.1684981684982,809.8565323565324,812.8449328449328
1624462218.890625,812.5763125763126,807.2039072039072,792.5641025641025,809.6886446886447,825.6043956043957
1624462218.8984373,812.1509971509972,807.1591371591372,791.959706959707,809.5207570207571,838.3638583638584
1624462218.90625,811.7256817256817,807.1143671143672,791.3553113553114,809.3528693528694,851.1233211233211
1624462218.9140625,811.3003663003662,807.0695970695971,790.7509157509157,809.1849816849817,863.8827838827839
1624462218.921875,810.8750508750509,807.0248270248271,790.1465201465202,809.0170940170941,876.6422466422466
1624462218.9296875,810.4497354497355,806.980056980057,789.5421245421245,808.8492063492064,889.4017094017095
1624462218.9375,810.02442002442,806.935286935287,788.9377289377289,808.6813186813188,902.1611721611722
1624462218.9453125,808.7529507529507,808.1396011396012,789.9584859584859,806.7875457875459,877.5689865689866
1624462218.9531252,807.4814814814815,809.3439153439153,790.9792429792429,804.893772893773,852.976800976801
1624462218.9609375,806.2100122100122,810.5482295482295,792.0,803.0,828.3846153846155
1624462218.96875,804.9385429385429,811.7525437525438,793.020757020757,801.1062271062272,803.7924297924299
1624462218.9765625,803.6670736670737,812.956857956858,794.0415140415139,799.2124542124543,779.2002442002442
1624462218.984375,802.3956043956044,814.1611721611722,795.062271062271,797.3186813186813,754.6080586080586
1624462218.9921875,799.0109890109891,814.7252747252747,803.4432234432235,792.1611721611722,878.3882783882784
1624462219.0,801.2271062271063,816.5888278388279,803.191391941392,793.0173992673994,852.7014652014652
1624462219.0078125,803.4432234432235,818.452380952381,802.9395604395604,793.8736263736264,827.014652014652
1624462219.015625,805.6593406593407,820.315934065934,802.6877289377289,794.7298534798535,801.3278388278388
1624462219.0234375,807.8754578754579,822.1794871794872,802.4358974358975,795.5860805860807,775.6410256410256
1624462219.03125,810.0915750915751,824.0430402930403,802.184065934066,796.4423076923077,749.9542124542124
1624462219.0390625,812.3076923076924,825.9065934065934,801.9322344322345,797.2985347985349,724.2673992673994
1624462219.0468748,814.5238095238095,827.7701465201465,801.6804029304029,798.1547619047619,698.5805860805862
1624462219.0546875,816.7399267399268,829.6336996336996,801.4285714285714,799.0109890109891,672.893772893773
1624462219.0625,824.5299145299145,814.3223443223443,817.4114774114774,809.3528693528693,894.3711843711843
1624462219.0703125,821.1945461945462,815.3520553520553,816.8070818070819,810.1811151811152,878.1196581196581
1624462219.078125,817.8591778591779,816.3817663817664,816.2026862026862,811.009361009361,861.8681318681319
1624462219.0859375,814.5238095238096,817.4114774114773,815.5982905982905,811.8376068376068,845.6166056166056
1624462219.09375,811.1884411884413,818.4411884411884,814.993894993895,812.6658526658526,829.3650793650794
1624462219.1015627,807.853072853073,819.4708994708994,814.3894993894994,813.4940984940985,813.1135531135532
1624462219.109375,804.5177045177046,820.5006105006105,813.7851037851037,814.3223443223443,796.8620268620269
1624462219.1171875,805.29958137101,818.3516483516484,811.847200418629,811.9479330193616,792.6360544217688
1624462219.125,806.0814582243154,816.2026862026862,809.9092970521542,809.5735217163789,788.4100819815106
1624462219.1328125,806.8633350776208,814.0537240537241,807.9713936856795,807.1991104133962,784.1841095412525
1624462219.140625,807.6452119309263,811.9047619047618,806.0334903192046,804.8246991104133,779.9581371009942
1624462219.1484375,808.4270887842317,809.7557997557997,804.0955869527298,802.4502878074306,775.7321646607361
1624462219.15625,809.2089656375371,807.6068376068375,802.1576835862551,800.0758765044479,771.5061922204779
1624462219.1640625,809.9908424908425,805.4578754578754,800.2197802197803,797.7014652014652,767.2802197802198
1624462219.171875,811.182844932845,804.114774114774,798.8095238095239,798.0540293040293,775.7921245421246
1624462219.1796875,812.3748473748474,802.7716727716727,797.3992673992675,798.4065934065934,784.3040293040293
1624462219.1875,813.5668498168498,801.4285714285713,795.989010989011,798.7591575091576,792.815934065934
1624462219.1953125,814.7588522588522,800.0854700854701,794.5787545787546,799.1117216117217,801.3278388278388
1624462219.203125,815.9508547008547,798.7423687423687,793.1684981684982,799.4642857142858,809.8397435897436
1624462219.2109375,817.1428571428571,797.3992673992674,791.7582417582418,799.8168498168499,818.3516483516484
1624462219.21875,801.4285714285714,804.4505494505495,800.6227106227107,814.5238095238096,796.1904761904761
1624462219.2265625,800.7905982905983,803.8013838013838,800.3205128205128,811.2444037444038,784.606227106227
1624462219.234375,800.1526251526252,803.1522181522182,800.018315018315,807.964997964998,773.021978021978
1624462219.2421875,799.514652014652,802.5030525030525,799.7161172161173,804.6855921855922,761.4377289377289
1624462219.2499998,798.8766788766789,801.8538868538868,799.4139194139194,801.4061864061865,749.8534798534798
1624462219.2578125,798.2387057387058,801.2047212047212,799.1117216117216,798.1267806267807,738.2692307692308
1624462219.265625,797.6007326007326,800.5555555555555,798.8095238095237,794.8473748473749,726.6849816849817
1624462219.2734375,798.8383045525903,802.2344322344322,798.895866038723,794.4924123495553,719.8927263212978
1624462219.28125,800.0758765044479,803.9133089133089,798.9822082679225,794.1374498517356,713.1004709576139
1624462219.2890625,801.3134484563057,805.5921855921856,799.0685504971218,793.7824873539159,706.30821559393
1624462219.296875,802.5510204081633,807.2710622710623,799.1548927263212,793.4275248560964,699.5159602302459
1624462219.3046875,803.788592360021,808.949938949939,799.2412349555206,793.0725623582767,692.723704866562
1624462219.3125,805.0261643118786,810.6288156288157,799.32757718472,792.7175998604571,685.9314495028781
1624462219.3203125,806.2637362637363,812.3076923076924,799.4139194139193,792.3626373626374,679.1391941391942
1624462219.328125,806.8233618233619,812.4643874643875,799.4363044363043,794.3213268213269,705.564713064713
1624462219.3359375,807.3829873829874,812.6210826210827,799.4586894586894,796.2800162800163,731.990231990232
1624462219.34375,807.942612942613,812.7777777777778,799.4810744810745,798.2387057387058,758.4157509157509
1624462219.3515625,808.5022385022386,812.934472934473,799.5034595034596,800.1973951973953,784.8412698412698
1624462219.359375,809.0618640618641,813.0911680911681,799.5258445258446,802.1560846560847,811.2667887667887
1624462219.3671875,809.6214896214897,813.2478632478633,799.5482295482296,804.1147741147741,837.6923076923076
1624462219.375,809.0842490842491,810.8494679923251,796.0561660561661,804.1531484388628,828.9813361241931
1624462219.3828125,808.5470085470087,808.4510727367871,792.5641025641027,804.1915227629513,820.2703645560788
1624462219.390625,808.0097680097681,806.0526774812489,789.0720390720392,804.22989708704,811.5593929879643
1624462219.3984373,807.4725274725275,803.6542822257109,785.5799755799756,804.2682714111286,802.84842141985
1624462219.40625,806.935286935287,801.2558869701727,782.0879120879121,804.3066457352172,794.1374498517355
1624462219.4140625,806.3980463980465,798.8574917146346,778.5958485958486,804.3450200593057,785.426478283621
1624462219.421875,805.860805860806,796.4590964590965,775.1037851037851,804.3833943833944,776.7155067155066
1624462219.4296875,806.9520757020758,798.1939356939357,776.7714692714692,805.9895197395198,794.567562067562
1624462219.4375,808.0433455433456,799.9287749287749,778.4391534391534,807.5956450956451,812.4196174196173
1624462219.4453125,809.1346153846155,801.6636141636142,780.1068376068376,809.2017704517705,830.2716727716727
1624462219.4531252,810.2258852258853,803.3984533984534,781.7745217745218,810.8078958078959,848.123728123728
1624462219.4609375,811.3171550671551,805.1332926332926,783.4422059422059,812.4140211640212,865.9757834757834
1624462219.46875,812.408424908425,806.8681318681319,785.1098901098901,814.0201465201466,883.8278388278387
1624462219.4765625,811.8543956043957,807.1031746031746,785.613553113553,814.3391330891332,858.0738705738705
1624462219.484375,811.3003663003664,807.3382173382173,786.1172161172161,814.6581196581197,832.3199023199022
1624462219.4921875,810.746336996337,807.5732600732601,786.6208791208792,814.9771062271063,806.565934065934
1624462219.5,810.1923076923077,807.8083028083029,787.1245421245421,815.2960927960928,780.8119658119658
1624462219.5078125,809.6382783882784,808.0433455433456,787.6282051282051,815.6150793650794,755.0579975579975
1624462219.515625,809.0842490842491,808.2783882783883,788.1318681318681,815.934065934066,729.3040293040293
1624462219.5234375,805.2564102564103,809.2857142857143,797.1978021978023,798.4065934065934,703.3150183150183
1624462219.53125,808.1910866910866,807.8418803418804,797.8089133089134,800.1459096459097,714.9932844932845
1624462219.5390625,811.1257631257631,806.3980463980464,798.4200244200244,801.8852258852259,726.6715506715507
1624462219.5468748,814.0604395604396,804.9542124542124,799.0311355311355,803.6245421245421,738.3498168498169
1624462219.5546875,816.995115995116,803.5103785103786,799.6422466422466,805.3638583638584,750.0280830280831
1624462219.5625,819.9297924297923,802.0665445665446,800.2533577533577,807.1031746031746,761.7063492063493
1624462219.5703125,822.8644688644688,800.6227106227107,800.8644688644688,808.8424908424909,773.3846153846155
1624462219.578125,820.4334554334554,801.6300366300367,801.8986568986568,808.8827838827839,765.3663003663005
1624462219.5859375,818.002442002442,802.6373626373627,802.9328449328449,808.9230769230769,757.3479853479854
1624462219.59375,815.5714285714286,803.6446886446887,803.967032967033,808.96336996337,749.3296703296703
1624462219.6015627,813.1404151404151,804.6520146520147,805.001221001221,809.0036630036631,741.3113553113553
1624462219.609375,810.7094017094017,805.6593406593407,806.035409035409,809.0439560439561,733.2930402930403
1624462219.6171875,808.2783882783883,806.6666666666667,807.0695970695971,809.0842490842491,725.2747252747253
1624462219.625,804.047619047619,803.8461538461538,803.2417582417582,792.1611721611722,725.6776556776557
1624462219.6328125,803.5775335775336,805.9279609279608,803.6111111111111,793.3867521367522,720.7921245421246
1624462219.640625,803.1074481074481,808.009768009768,803.9804639804639,794.6123321123322,715.9065934065935
1624462219.6484375,802.6373626373627,810.0915750915751,804.3498168498168,795.8379120879122,711.0210622710624
1624462219.65625,802.1672771672771,812.1733821733822,804.7191697191697,797.063492063492,706.1355311355312
1624462219.6640625,801.6971916971917,814.2551892551892,805.0885225885226,798.289072039072,701.2500000000001
1624462219.671875,801.2271062271062,816.3369963369963,805.4578754578754,799.514652014652,696.364468864469
1624462219.6796875,802.9059829059829,813.3150183150183,803.9804639804639,797.5839438339439,699.5039682539684
1624462219.6875,804.5848595848596,810.2930402930402,802.5030525030525,795.6532356532357,702.6434676434677
1624462219.6953125,806.2637362637363,807.2710622710622,801.025641025641,793.7225274725274,705.7829670329671
1624462219.703125,807.942612942613,804.2490842490843,799.5482295482295,791.7918192918193,708.9224664224665
1624462219.7109375,809.6214896214897,801.2271062271062,798.0708180708181,789.8611111111111,712.0619658119658
1624462219.71875,811.3003663003664,798.2051282051282,796.5934065934066,787.9304029304029,715.2014652014652
1624462219.7265625,796.996336996337,807.8754578754579,792.5641025641025,805.4578754578755,859.047619047619
1624462219.734375,797.4664224664225,808.6813186813187,793.2164660736089,805.1412872841445,847.6024768881912
1624462219.7421875,797.936507936508,809.4871794871794,793.8688295831153,804.8246991104135,836.1573347287633
1624462219.7500002,798.4065934065934,810.2930402930403,794.5211930926216,804.5081109366824,824.7121925693355
1624462219.7578125,798.876678876679,811.0989010989011,795.1735566021281,804.1915227629514,813.2670504099075
1624462219.765625,799.3467643467644,811.9047619047619,795.8259201116344,803.8749345892204,801.8219082504796
1624462219.7734375,799.8168498168499,812.7106227106227,796.4782836211408,803.5583464154894,790.3767660910518
1624462219.78125,800.816427162581,812.6873767258382,796.7505937286157,804.2081270377975,797.0693958056595
1624462219.7890625,801.8160045083123,812.6641307410538,797.0229038360907,804.8579076601055,803.7620255202672
1624462219.796875,802.8155818540434,812.6408847562694,797.2952139435656,805.5076882824136,810.454655234875
1624462219.8046875,803.8151591997746,812.617638771485,797.5675240510406,806.1574689047217,817.1472849494827
1624462219.8125,804.8147365455059,812.5943927867005,797.8398341585155,806.8072495270297,823.8399146640904
1624462219.8203125,805.814313891237,812.571146801916,798.1121442659904,807.4570301493378,830.5325443786983
1624462219.828125,806.8138912369682,812.5479008171317,798.3844543734655,808.106810771646,837.225174093306
1624462219.8359375,807.8134685826993,812.5246548323472,798.6567644809404,808.7565913939541,843.9178038079137
1624462219.84375,808.8130459284306,812.5014088475627,798.9290745884153,809.4063720162621,850.6104335225215
1624462219.8515625,809.8126232741618,812.4781628627783,799.2013846958903,810.0561526385702,857.3030632371292
1624462219.859375,810.8122006198929,812.4549168779939,799.4736948033652,810.7059332608783,863.9956929517369
1624462219.8671875,811.8117779656242,812.4316708932095,799.7460049108402,811.3557138831864,870.6883226663447
1624462219.875,812.8113553113553,812.408424908425,800.0183150183151,812.0054945054944,877.3809523809524
1624462219.8828125,810.5784493284493,810.2426739926741,801.8650793650794,813.4661172161171,875.6684981684982
1624462219.890625,808.3455433455433,808.0769230769231,803.7118437118438,814.9267399267399,873.956043956044
1624462219.8984373,806.1126373626373,805.9111721611722,805.5586080586081,816.3873626373627,872.2435897435898
1624462219.90625,803.8797313797314,803.7454212454213,807.4053724053724,817.8479853479854,870.5311355311355
1624462219.9140625,801.6468253968254,801.5796703296703,809.2521367521368,819.3086080586081,868.8186813186813
1624462219.921875,799.4139194139194,799.4139194139194,811.0989010989011,820.7692307692308,867.1062271062272
1624462219.9296875,804.974358974359,805.2967032967033,815.8534798534799,811.2600732600732,725.8388278388279
1624462219.9375,806.1741961741963,804.5848595848596,813.1583231583232,810.6735856735856,748.3536833536834
1624462219.9453125,807.3740333740334,803.8730158730159,810.4631664631665,810.0870980870981,770.868538868539
1624462219.9531252,808.5738705738706,803.1611721611721,807.7680097680098,809.5006105006105,793.3833943833945
1624462219.9609375,809.7737077737079,802.4493284493284,805.0728530728531,808.9141229141229,815.8982498982499
1624462219.96875,810.973544973545,801.7374847374847,802.3776963776965,808.3276353276353,838.4131054131054
1624462219.9765625,812.1733821733823,801.025641025641,799.6825396825398,807.7411477411478,860.927960927961
1624462219.984375,810.7247514390373,801.1119832548404,799.5866038723183,806.1486132914705,845.261643118786
1624462219.9921875,809.2761207046922,801.1983254840397,799.4906680620967,804.5560788417931,829.5953253096111
1624462220.0,807.8274899703472,801.2846677132392,799.3947322518752,802.9635443921159,813.9290075004361
1624462220.0078125,806.3788592360021,801.3710099424385,799.2987964416536,801.3710099424385,798.2626896912611
1624462220.015625,804.9302285016571,801.4573521716379,799.2028606314321,799.7784754927612,782.5963718820861
1624462220.0234375,803.481597767312,801.5436944008372,799.1069248212106,798.1859410430839,766.9300540729113
1624462220.03125,802.032967032967,801.6300366300367,799.0109890109891,796.5934065934066,751.2637362637363
1624462220.0390625,817.5457875457876,803.8461538461539,788.5347985347986,796.1904761904763,708.7545787545788
1624462220.0468748,817.3667073667074,803.958078958079,788.4452584452586,797.3321123321124,716.007326007326
1624462220.0546875,817.1876271876272,804.0700040700042,788.3557183557184,798.4737484737485,723.2600732600733
1624462220.0625,817.008547008547,804.1819291819293,788.2661782661784,799.6153846153846,730.5128205128206
1624462220.0703125,816.8294668294668,804.2938542938543,788.1766381766382,800.7570207570208,737.7655677655678
1624462220.078125,816.6503866503867,804.4057794057795,788.0870980870982,801.898656898657,745.0183150183151
1624462220.0859375,816.4713064713065,804.5177045177046,787.997557997558,803.0402930402931,752.2710622710623
1624462220.09375,816.2922262922264,804.6296296296297,787.908017908018,804.1819291819293,759.5238095238095
1624462220.1015627,816.1131461131462,804.7415547415549,787.8184778184778,805.3235653235654,766.7765567765568
1624462220.109375,815.934065934066,804.8534798534799,787.7289377289378,806.4652014652015,774.0293040293041
1624462220.1171875,819.3589743589744,811.6025641025642,791.3553113553114,813.0128205128206,782.9945054945056
1624462220.125,815.6318681318681,810.5336792836794,789.3630443630444,812.7609890109891,777.2695360195361
1624462220.1328125,811.9047619047619,809.4647944647945,787.3707773707774,812.5091575091575,771.5445665445666
1624462220.140625,808.1776556776557,808.3959096459097,785.3785103785104,812.257326007326,765.8195970695972
1624462220.1484375,804.4505494505495,807.3270248270248,783.3862433862435,812.0054945054945,760.0946275946277
1624462220.15625,800.7234432234433,806.25814000814,781.3939763939765,811.753663003663,754.3696581196582
1624462220.1640625,796.996336996337,805.1892551892552,779.4017094017095,811.5018315018315,748.6446886446887
1624462220.171875,792.1611721611721,795.3846153846155,783.4981684981685,808.0769230769231,877.3809523809523
1624462220.1796875,790.6166056166055,797.3153235653236,783.8339438339439,803.980463980464,860.7600732600732
1624462220.1875,789.072039072039,799.2460317460318,784.1697191697192,799.8840048840049,844.139194139194
1624462220.1953125,787.5274725274726,801.17673992674,784.5054945054945,795.7875457875458,827.518315018315
1624462220.203125,785.982905982906,803.1074481074481,784.8412698412699,791.6910866910868,810.8974358974359
1624462220.2109375,784.4383394383394,805.0381562881563,785.1770451770452,787.5946275946276,794.2765567765567
1624462220.21875,782.893772893773,806.9688644688645,785.5128205128206,783.4981684981685,777.6556776556777
1624462220.2265625,768.8180708180709,815.8904151404151,788.7832722832724,767.6428571428571,762.935286935287
1624462220.234375,754.7423687423687,824.8119658119658,792.0537240537241,751.7875457875458,748.2148962148962
1624462220.2421875,740.6666666666667,833.7335164835165,795.3241758241759,735.9322344322344,733.4945054945055
1624462220.2499998,726.5909645909646,842.6550671550672,798.5946275946277,720.076923076923,718.7741147741148
1624462220.2578125,712.5152625152625,851.5766178266178,801.8650793650794,704.2216117216117,704.053724053724
1624462220.265625,698.4395604395604,860.4981684981685,805.1355311355312,688.3663003663003,689.3333333333333
1624462220.2734375,676.1507936507936,871.5720390720392,802.973137973138,669.9725274725274,697.57326007326
1624462220.28125,653.8620268620268,882.6459096459097,800.8107448107448,651.5787545787545,705.8131868131868
1624462220.2890625,631.5732600732601,893.7197802197802,798.6483516483518,633.1849816849816,714.0531135531135
1624462220.296875,609.2844932844934,904.7936507936508,796.4859584859586,614.7912087912088,722.2930402930402
1624462220.3046875,586.9957264957266,915.8675213675216,794.3235653235654,596.3974358974358,730.532967032967
1624462220.3125,564.7069597069598,926.941391941392,792.1611721611722,578.003663003663,738.7728937728938
1624462220.3203125,553.6263736263736,878.992673992674,799.6153846153846,558.6630036630037,845.3479853479854
1624462220.328125,575.3846153846154,872.1092796092796,795.539072039072,578.534188034188,856.6434676434676
1624462220.3359375,597.1428571428571,865.2258852258852,791.4627594627595,598.4053724053724,867.9389499389499
1624462220.34375,618.901098901099,858.3424908424909,787.386446886447,618.2765567765568,879.2344322344322
1624462220.3515625,640.6593406593407,851.4590964590966,783.3101343101343,638.1477411477412,890.5299145299144
1624462220.359375,662.4175824175825,844.5757020757022,779.2338217338219,658.0189255189255,901.8253968253966
1624462220.3671875,684.1758241758242,837.6923076923078,775.1575091575093,677.8901098901099,913.120879120879
1624462220.375,707.7696377696378,828.2682132682135,774.3874643874644,700.3825803825804,882.7981277981277
1624462220.3828125,731.3634513634514,818.844118844119,773.6174196174197,722.8750508750509,852.4753764753764
1624462220.390625,754.957264957265,809.4200244200244,772.8473748473749,745.3675213675214,822.1526251526251
1624462220.3984373,778.5510785510786,799.99592999593,772.0773300773301,767.8599918599919,791.8298738298738
1624462220.40625,802.1448921448922,790.5718355718357,771.3072853072854,790.3524623524623,761.5071225071225
1624462220.4140625,825.7387057387058,781.1477411477412,770.5372405372406,812.8449328449328,731.1843711843712
1624462220.421875,874.7619047619048,771.2087912087912,781.2820512820513,873.5531135531136,721.2454212454213
1624462220.4296875,875.3663003663004,771.1584249084249,782.8266178266178,874.9465811965813,724.9557387057388
1624462220.4375,875.970695970696,771.1080586080586,784.3711843711843,876.3400488400489,728.6660561660563
1624462220.4453125,876.5750915750916,771.0576923076924,785.9157509157509,877.7335164835165,732.3763736263736
1624462220.4531252,877.1794871794872,771.007326007326,787.4603174603175,879.1269841269842,736.0866910866911
1624462220.4609375,877.7838827838829,770.9569597069597,789.0048840048839,880.5204517704519,739.7970085470085
1624462220.4765625,880.2446363160649,768.8775510204082,790.8228676085819,883.079539508111,749.0188383045526
1624462220.484375,882.1009942438515,766.8485086342229,791.0962846677132,884.2451596023026,754.5303506017792
1624462220.4921875,883.9573521716379,764.8194662480377,791.3697017268446,885.410779696494,760.0418628990058
1624462220.5,885.8137100994244,762.7904238618524,791.643118785976,886.5763997906856,765.5533751962323
1624462220.5078125,887.6700680272108,760.7613814756672,791.9165358451073,887.7420198848771,771.0648874934589
1624462220.515625,889.5264259549974,758.7323390894819,792.1899529042387,888.9076399790687,776.5763997906855
1624462220.5234375,891.3827838827839,756.7032967032967,792.46336996337,890.0732600732601,782.0879120879121
1624462220.53125,891.9703907203907,755.4273504273505,795.0992063492064,892.6923076923077,789.8778998778998
1624462220.5390625,892.5579975579976,754.1514041514041,797.7350427350428,895.3113553113553,797.6678876678876
1624462220.5468748,893.1456043956044,752.8754578754579,800.3708791208792,897.930402930403,805.4578754578754
1624462220.5546875,893.7332112332113,751.5995115995116,803.0067155067155,900.5494505494506,813.2478632478633
1624462220.5625,894.3208180708182,750.3235653235653,805.642551892552,903.1684981684982,821.037851037851
1624462220.5703125,894.908424908425,749.047619047619,808.2783882783883,905.7875457875458,828.8278388278388
1624462220.578125,872.3443223443223,771.8803418803419,810.02442002442,878.7912087912088,887.6556776556778
1624462220.5859375,861.4652014652015,773.4696784696785,803.3984533984534,871.6727716727717,890.0732600732601
1624462220.59375,850.5860805860806,775.0590150590151,796.7724867724868,864.5543345543346,892.4908424908426
1624462220.6015627,839.7069597069598,776.6483516483516,790.1465201465202,857.4358974358975,894.908424908425
1624462220.609375,839.7069597069598,782.893772893773,800.6227106227107,861.8681318681319,1054.468864468864
1624462220.6171875,838.4310134310135,783.923483923484,800.4361687695022,857.9731379731379,1019.913851580518
1624462220.625,837.1550671550672,784.9531949531951,800.2496269162937,854.0781440781441,985.3588386921716
1624462220.6328125,835.8791208791209,785.982905982906,800.063085063085,850.1831501831501,950.8038258038256
1624462220.640625,834.6031746031746,787.012617012617,799.8765432098766,846.2881562881563,916.2488129154792
1624462220.6484375,833.3272283272283,788.0423280423281,799.6900013566681,842.3931623931624,881.6938000271332
1624462220.65625,832.051282051282,789.0720390720392,799.5034595034596,838.4981684981685,847.1387871387869
1624462220.6640625,830.7753357753357,790.1017501017501,799.316917650251,834.6031746031746,812.5837742504408
1624462220.671875,829.4993894993894,791.1314611314612,799.1303757970425,830.7081807081807,778.0287613620947
1624462220.6796875,828.2234432234432,792.1611721611722,798.943833943834,826.8131868131868,743.4737484737485
1624462220.6875,825.1007326007325,794.981684981685,802.6485551485551,828.1562881562882,751.7226292226293
1624462220.6953125,821.978021978022,797.8021978021978,806.3532763532763,829.4993894993895,759.97150997151
1624462220.703125,818.8553113553114,800.6227106227107,810.0579975579976,830.8424908424909,768.2203907203907
1624462220.7109375,815.7326007326008,803.4432234432235,813.7627187627188,832.1855921855922,776.4692714692715
1624462220.71875,812.6098901098901,806.2637362637363,817.46743996744,833.5286935286936,784.7181522181522
1624462220.7265625,809.4871794871796,809.0842490842491,821.1721611721612,834.8717948717949,792.967032967033
1624462220.734375,816.7399267399268,800.4212454212454,819.1575091575091,831.8498168498169,865.2930402930403
1624462220.7421875,817.5289987789988,801.3782051282051,818.6874236874237,830.1205738705739,850.7371794871796
1624462220.7500002,818.3180708180709,802.3351648351648,818.2173382173382,828.391330891331,836.1813186813188
1624462220.7578125,819.1071428571429,803.2921245421246,817.7472527472528,826.662087912088,821.6254578754579
1624462220.765625,819.8962148962149,804.2490842490843,817.2771672771672,824.932844932845,807.0695970695971
1624462220.7734375,820.685286935287,805.2060439560439,816.8070818070818,823.2036019536021,792.5137362637363
1624462220.78125,821.474358974359,806.1630036630037,816.3369963369963,821.4743589743591,777.9578754578755
1624462220.7890625,819.8570411070411,807.9482091982093,814.7700447700447,820.3718966218967,779.6087708587709
1624462220.796875,818.2397232397233,809.7334147334147,813.2030932030932,819.2694342694343,781.2596662596663
1624462220.8046875,816.6224053724054,811.5186202686202,811.6361416361417,818.166971916972,782.9105616605617
1624462220.8125,815.0050875050875,813.3038258038258,810.0691900691901,817.0645095645095,784.5614570614571
1624462220.8203125,813.3877696377697,815.0890313390314,808.5022385022385,815.9620472120471,786.2123524623526
1624462220.828125,811.7704517704518,816.8742368742369,806.935286935287,814.8595848595847,787.8632478632479
1624462220.8359375,822.9181929181929,802.2344322344321,806.2637362637364,816.3369963369964,864.957264957265
1624462220.84375,818.9504477004476,803.7957875457874,805.7600732600733,814.7252747252749,870.2177452177452
1624462220.8515625,814.9827024827025,805.3571428571428,805.2564102564104,813.1135531135532,875.4782254782256
1624462220.859375,811.0149572649573,806.9184981684982,804.7527472527473,811.5018315018316,880.7387057387059
1624462220.8671875,807.047212047212,808.4798534798535,804.2490842490843,809.89010989011,885.9991859991861
1624462220.875,803.0794668294669,810.0412087912089,803.7454212454213,808.2783882783883,891.2596662596663
1624462220.8828125,799.1117216117217,811.6025641025642,803.2417582417582,806.6666666666667,896.5201465201467
1624462220.890625,800.5275742775743,810.9813797313798,805.9615384615385,806.957671957672,868.1359381359383
1624462220.8984373,801.943426943427,810.3601953601955,808.6813186813187,807.2486772486773,839.7517297517298
1624462220.90625,803.3592796092796,809.739010989011,811.401098901099,807.5396825396826,811.3675213675215
1624462220.9140625,804.7751322751323,809.1178266178266,814.1208791208792,807.8306878306879,782.9833129833131
1624462220.921875,806.1909849409849,808.4966422466423,816.8406593406594,808.1216931216932,754.5991045991046
1624462220.9296875,807.6068376068375,807.8754578754579,819.5604395604396,808.4126984126984,726.2148962148963
1624462220.9375,810.6064306064305,808.6813186813187,820.2319902319903,810.4049654049654,736.9373219373219
1624462220.9453125,813.6060236060235,809.4871794871794,820.9035409035409,812.3972323972324,747.6597476597477
1624462220.9531252,816.6056166056167,810.2930402930403,821.5750915750916,814.3894993894994,758.3821733821735
1624462220.9609375,819.6052096052097,811.0989010989011,822.2466422466423,816.3817663817664,769.1045991045992
1624462220.96875,822.6048026048027,811.9047619047619,822.918192918193,818.3740333740334,779.8270248270248
1624462220.9765625,825.6043956043957,812.7106227106227,823.5897435897436,820.3663003663004,790.5494505494506
1624462220.984375,827.3504273504274,816.4713064713064,816.6056166056165,822.2466422466423,802.6373626373626
1624462220.9921875,823.9870777370777,816.8518518518518,815.5535205535205,822.0675620675621,799.2796092796093
1624462221.0,820.6237281237281,817.2323972323973,814.5014245014245,821.8884818884819,795.9218559218559
1624462221.0078125,817.2603785103786,817.6129426129426,813.4493284493284,821.7094017094017,792.5641025641025
1624462221.015625,813.8970288970289,817.993487993488,812.3972323972323,821.5303215303215,789.2063492063493
1624462221.0234375,810.5336792836792,818.3740333740334,811.3451363451363,821.3512413512414,785.848595848596
1624462221.03125,807.1703296703297,818.7545787545788,810.2930402930402,821.1721611721612,782.4908424908426
1624462221.0390625,807.4221611721612,818.5083435083435,811.2332112332113,819.8290598290598,767.0899470899471
1624462221.0468748,807.6739926739928,818.2621082621083,812.1733821733822,818.4859584859585,751.6890516890518
1624462221.0546875,807.9258241758242,818.015873015873,813.113553113553,817.1428571428571,736.2881562881564
1624462221.0625,808.1776556776557,817.7696377696377,814.0537240537241,815.7997557997559,720.8872608872609
1624462221.0703125,808.4294871794873,817.5234025234025,814.9938949938951,814.4566544566545,705.4863654863655
1624462221.078125,808.6813186813188,817.2771672771672,815.934065934066,813.1135531135532,690.0854700854701
1624462221.0859375,817.1428571428571,809.1849816849817,824.496336996337,820.8699633699634,778.8644688644689
1624462221.09375,811.994301994302,809.5095645095646,816.3593813593814,816.896621896622,773.4920634920635
1624462221.1015627,806.8457468457468,809.8341473341474,808.2224257224258,812.9232804232805,768.1196581196582
1624462221.109375,801.6971916971917,810.1587301587302,800.0854700854701,808.9499389499391,762.7472527472528
1624462221.1171875,805.054945054945,805.054945054945,792.1611721611722,816.7399267399268,753.4798534798535
1624462221.125,807.920227920228,805.9055759055759,794.5115995115996,816.2698412698413,759.3447293447293
1624462221.1328125,810.7855107855108,806.7562067562068,796.8620268620269,815.7997557997558,765.2096052096052
1624462221.140625,813.6507936507937,807.6068376068376,799.2124542124543,815.3296703296703,771.0744810744811
1624462221.1484375,816.5160765160765,808.4574684574684,801.5628815628817,814.8595848595849,776.9393569393569
1624462221.15625,819.3813593813594,809.3080993080993,803.913308913309,814.3894993894993,782.8042328042327
1624462221.1640625,822.2466422466423,810.1587301587301,806.2637362637364,813.9194139194138,788.6691086691086
1624462221.171875,788.1318681318681,792.967032967033,786.5201465201466,812.3076923076924,647.9120879120879
1624462221.1796875,791.3553113553114,794.6682946682947,788.2661782661783,811.927146927147,681.0866910866911
1624462221.1875,794.5787545787546,796.3695563695564,790.0122100122101,811.5466015466016,714.2612942612943
1624462221.1953125,797.8021978021978,798.0708180708182,791.7582417582419,811.1660561660563,747.4358974358975
1624462221.203125,801.0256410256411,799.7720797720798,793.5042735042736,810.7855107855108,780.6105006105006
1624462221.2109375,804.2490842490843,801.4733414733415,795.2503052503052,810.4049654049654,813.7851037851037
1624462221.21875,807.4725274725275,803.1746031746032,796.996336996337,810.02442002442,846.959706959707
1624462221.2265625,809.93487993488,804.1147741147741,800.0407000407001,808.9051689051689,829.0964590964592
1624462221.234375,812.3972323972324,805.054945054945,803.0850630850631,807.7859177859178,811.2332112332113
1624462221.2421875,814.8595848595849,805.9951159951161,806.1294261294261,806.6666666666667,793.3699633699634
1624462221.2499998,817.3219373219374,806.935286935287,809.1737891737891,805.5474155474155,775.5067155067156
1624462221.2578125,819.7842897842899,807.8754578754579,812.2181522181522,804.4281644281645,757.6434676434677
1624462221.265625,822.2466422466423,808.8156288156288,815.2625152625152,803.3089133089134,739.7802197802199
1624462221.2734375,817.6017501017501,809.1961741961742,815.7773707773707,804.3722018722019,756.7368742368743
1624462221.28125,812.956857956858,809.5767195767196,816.2922262922262,805.4354904354905,773.6935286935287
1624462221.2890625,808.3119658119658,809.9572649572649,816.8070818070818,806.498778998779,790.6501831501832
1624462221.296875,803.6670736670736,810.3378103378103,817.3219373219373,807.5620675620676,807.6068376068376
1624462221.3046875,799.0221815221815,810.7183557183557,817.8367928367928,808.6253561253561,824.563492063492
1624462221.3125,794.3772893772893,811.0989010989011,818.3516483516484,809.6886446886447,841.5201465201465
1624462221.3203125,805.4578754578755,810.2930402930403,818.3516483516484,804.6520146520147,841.7216117216118
1624462221.328125,805.4195011337869,809.0266875981163,817.641723356009,803.5199720914007,834.4976452119311
1624462221.3359375,805.3811268096982,807.7603349031921,816.9317983603697,802.3879295307868,827.2736787022502
1624462221.34375,805.3427524856096,806.4939822082679,816.2218733647305,801.2558869701727,820.0497121925694
1624462221.3515625,805.304378161521,805.2276295133438,815.5119483690912,800.1238444095587,812.8257456828886
1624462221.359375,805.2660038374323,803.9612768184197,814.8020233734519,798.9918018489448,805.6017791732079
1624462221.3671875,805.2276295133437,802.6949241234955,814.0920983778126,797.8597592883308,798.377812663527
1624462221.375,806.5731292517006,802.5390284318855,813.9433978719692,799.4666841095413,789.6332635618351
1624462221.3828125,807.9186289900574,802.3831327402756,813.7946973661259,801.0736089307518,780.8887144601431
1624462221.390625,809.2641287284143,802.2272370486656,813.6459968602826,802.6805337519623,772.1441653584511
1624462221.3984373,810.6096284667713,802.0713413570556,813.4972963544392,804.2874585731729,763.3996162567591
1624462221.40625,811.9551282051282,801.9154456654456,813.3485958485958,805.8943833943835,754.6550671550672
1624462221.4140625,813.3006279434851,801.7595499738356,813.1998953427525,807.501308215594,745.9105180533752
1624462221.421875,814.6461276818419,801.6036542822258,813.0511948369092,809.1082330368044,737.1659689516833
1624462221.4296875,815.9916274201988,801.4477585906158,812.9024943310658,810.715157858015,728.4214198499914
1624462221.4375,817.3371271585557,801.2918628990058,812.7537938252224,812.3220826792256,719.6768707482994
1624462221.4453125,818.6826268969126,801.1359672073959,812.6050933193791,813.929007500436,710.9323216466074
1624462221.4531252,820.0281266352695,800.9800715157859,812.4563928135358,815.5359323216466,702.1877725449154
1624462221.4609375,821.3736263736264,800.8241758241759,812.3076923076924,817.1428571428571,693.4432234432235
1624462221.46875,799.2124542124543,803.2417582417582,789.7435897435898,803.6446886446887,787.5274725274726
1624462221.4765625,803.5215710215712,803.9916564916565,793.2244607244608,805.4131054131054,791.0978835978837
1624462221.484375,807.8306878306879,804.7415547415548,796.7053317053318,807.1815221815223,794.6682946682947
1624462221.4921875,812.1398046398047,805.4914529914531,800.1862026862027,808.949938949939,798.2387057387059
1624462221.5,816.4489214489215,806.2413512413514,803.6670736670736,810.7183557183557,801.809116809117
1624462221.5078125,820.7580382580384,806.9912494912496,807.1479446479447,812.4867724867726,805.379527879528
1624462221.515625,825.0671550671551,807.7411477411479,810.6288156288156,814.2551892551893,808.9499389499391
1624462221.5234375,823.33604666938,809.5021028354363,811.382444715778,814.4865011531679,807.8605345272014
1624462221.53125,821.604938271605,811.2630579297247,812.1360738027404,814.7178130511464,806.7711301044636
1624462221.5390625,819.8738298738299,813.0240130240131,812.8897028897029,814.949124949125,805.6817256817258
1624462221.5468748,818.1427214760548,814.7849681183015,813.6433319766653,815.1804368471036,804.592321258988
1624462221.5546875,816.4116130782799,816.54592321259,814.3969610636277,815.411748745082,803.5029168362503
1624462221.5625,814.6805046805048,818.3068783068784,815.1505901505901,815.6430606430606,802.4135124135125
1624462221.5703125,812.9493962827297,820.0678334011668,815.9042192375526,815.8743725410392,801.3241079907747
1624462221.578125,811.2182878849546,821.8287884954552,816.657848324515,816.1056844390178,800.2347035680369
1624462221.5859375,809.4871794871796,823.5897435897436,817.4114774114774,816.3369963369963,799.1452991452992
1624462221.59375,807.4725274725275,800.2197802197802,795.3846153846154,814.7252747252747,844.5421245421246
1624462221.6015627,809.2633292633293,801.965811965812,795.4741554741555,813.4493284493285,829.6336996336997
1624462221.609375,811.0541310541311,803.7118437118437,795.5636955636955,812.1733821733822,814.7252747252747
1624462221.6171875,812.8449328449328,805.4578754578754,795.6532356532357,810.8974358974359,799.8168498168499
1624462221.625,814.6357346357347,807.2039072039072,795.7427757427758,809.6214896214897,784.908424908425
1624462221.6328125,816.4265364265365,808.949938949939,795.8323158323159,808.3455433455433,770.0
1624462221.640625,818.2173382173382,810.6959706959707,795.921855921856,807.0695970695971,755.0915750915751
1624462221.6484375,813.3541921041922,807.8418803418804,798.7199837199838,803.3928571428571,764.8794261294262
1624462221.65625,808.491045991046,804.98778998779,801.5181115181116,799.7161172161173,774.6672771672772
1624462221.6640625,803.6278998778998,802.1336996336997,804.3162393162393,796.0393772893774,784.4551282051282
1624462221.671875,798.7647537647538,799.2796092796093,807.114367114367,792.3626373626374,794.2429792429792
1624462221.6796875,793.9016076516077,796.425518925519,809.9124949124948,788.6858974358975,804.0308302808303
1624462221.6875,789.0384615384615,793.5714285714287,812.7106227106226,785.0091575091576,813.8186813186813
1624462221.6953125,789.9786324786324,793.1517094017095,813.3653846153845,787.7625152625153,809.6550671550672
1624462221.703125,790.9188034188035,792.7319902319903,814.0201465201465,790.5158730158731,805.491452991453
1624462221.7109375,791.8589743589744,792.3122710622711,814.6749084249084,793.2692307692308,801.3278388278388
1624462221.71875,792.7991452991453,791.8925518925519,815.3296703296703,796.0225885225885,797.1642246642248
1624462221.7265625,793.7393162393163,791.4728327228327,815.9844322344322,798.7759462759464,793.0006105006106
1624462221.734375,794.6794871794872,791.0531135531135,816.6391941391942,801.5293040293041,788.8369963369964
1624462221.7421875,796.5430402930403,793.1852869352869,815.5815018315019,802.9899267399268,779.7878510378512
1624462221.7500002,798.4065934065934,795.3174603174602,814.5238095238095,804.4505494505495,770.7387057387058
1624462221.7578125,800.2701465201465,797.4496336996338,813.4661172161173,805.9111721611722,761.6895604395605
1624462221.765625,802.1336996336996,799.5818070818071,812.408424908425,807.3717948717949,752.6404151404153
1624462221.7734375,803.9972527472528,801.7139804639805,811.3507326007326,808.8324175824176,743.5912698412699
1624462221.78125,805.8608058608058,803.8461538461539,810.2930402930403,810.2930402930403,734.5421245421246
1624462221.7890625,805.4578754578755,803.040293040293,807.2039072039073,798.0708180708181,855.958485958486
1624462221.796875,803.4879934879935,802.3687423687423,805.7264957264958,801.1599511599511,880.4477004477005
1624462221.8046875,801.5181115181116,801.6971916971917,804.2490842490843,804.2490842490843,904.936914936915
1624462221.8125,799.5482295482296,801.025641025641,802.7716727716728,807.3382173382173,929.4261294261296
1624462221.8203125,798.89010989011,801.4957264957264,802.5164835164835,807.1636141636142,907.7887667887668
1624462221.828125,798.2319902319904,801.9658119658119,802.2612942612943,806.9890109890109,886.1514041514042
1624462221.8359375,797.5738705738706,802.4358974358975,802.006105006105,806.8144078144078,864.5140415140415
1624462221.84375,796.915750915751,802.9059829059829,801.7509157509157,806.6398046398047,842.876678876679
1624462221.8515625,796.2576312576314,803.3760683760684,801.4957264957266,806.4652014652015,821.2393162393163
1624462221.859375,795.5995115995117,803.8461538461538,801.2405372405373,806.2905982905983,799.6019536019537
1624462221.8671875,794.9413919413921,804.3162393162393,800.985347985348,806.1159951159951,777.964590964591
1624462221.875,794.2832722832724,804.7863247863248,800.7301587301587,805.941391941392,756.3272283272283
1624462221.8828125,793.6251526251527,805.2564102564103,800.4749694749695,805.7667887667887,734.6898656898658
1624462221.890625,792.9670329670331,805.7264957264957,800.2197802197802,805.5921855921856,713.0525030525031
1624462221.8984373,796.3079975579976,806.0342897842897,799.8168498168498,804.0923890923891,725.0117012617013
1624462221.90625,799.6489621489623,806.3420838420839,799.4139194139194,802.5925925925926,736.9708994708996
1624462221.9140625,802.9899267399269,806.649877899878,799.0109890109891,801.0927960927961,748.9300976800978
1624462221.921875,806.3308913308914,806.957671957672,798.6080586080586,799.5929995929996,760.8892958892959
1624462221.9296875,809.6718559218559,807.265466015466,798.2051282051282,798.0932030932031,772.8484940984941
1624462221.9375,813.0128205128206,807.5732600732601,797.8021978021978,796.5934065934066,784.8076923076924
1624462221.9453125,801.8315018315018,808.8827838827839,797.6007326007326,788.1318681318681,687.6007326007326
1624462221.9531252,802.469474969475,808.4126984126984,797.936507936508,788.6187423687423,700.7127594627594
1624462221.9609375,803.1074481074481,807.942612942613,798.2722832722833,789.1056166056167,713.8247863247864
1624462221.96875,803.7454212454213,807.4725274725274,798.6080586080586,789.5924908424909,726.9368131868132
1624462221.9765625,804.3833943833944,807.002442002442,798.9438339438341,790.0793650793651,740.04884004884
1624462221.984375,805.0213675213676,806.5323565323565,799.2796092796094,790.5662393162394,753.160866910867
1624462221.9921875,805.6593406593407,806.0622710622711,799.6153846153848,791.0531135531136,766.2728937728938
1624462222.0,799.9175824175825,808.8268213268213,798.3282458282459,785.5519943019943,763.4243996743996
1624462222.0078125,794.1758241758242,811.5913715913716,797.0411070411071,780.0508750508751,760.5759055759056
1624462222.015625,788.434065934066,814.3559218559219,795.7539682539684,774.5497557997559,757.7274114774116
1624462222.0234375,782.6923076923077,817.1204721204721,794.4668294668296,769.0486365486366,754.8789173789174
1624462222.03125,776.9505494505495,819.8850223850224,793.1796906796908,763.5475172975174,752.0304232804233
1624462222.0390625,771.2087912087912,822.6495726495726,791.892551892552,758.0463980463982,749.1819291819293
1624462222.0468748,706.7399267399268,843.3333333333334,836.4835164835165,699.8901098901099,876.3736263736264
1624462222.0546875,703.5612535612536,844.8555148555149,835.9462759462759,699.1514041514041,864.2409442409443
1624462222.0625,700.3825803825804,846.3776963776965,835.4090354090354,698.4126984126984,852.1082621082621
1624462222.0703125,697.2039072039072,847.8998778998779,834.8717948717949,697.6739926739926,839.97557997558
1624462222.078125,694.025234025234,849.4220594220594,834.3345543345544,696.935286935287,827.8428978428979
1624462222.0859375,690.8465608465609,850.944240944241,833.7973137973138,696.1965811965812,815.7102157102157
1624462222.09375,687.6678876678877,852.4664224664225,833.2600732600732,695.4578754578755,803.5775335775336
1624462222.1015627,684.4892144892145,853.9886039886039,832.7228327228328,694.7191697191697,791.4448514448515
1624462222.109375,681.3105413105413,855.5107855107855,832.1855921855922,693.980463980464,779.3121693121693
1624462222.1171875,678.1318681318681,857.032967032967,831.6483516483516,693.2417582417582,767.1794871794872
1624462222.125,654.8962148962149,876.7765567765567,826.5445665445665,653.5531135531136,741.5262515262515
1624462222.1328125,662.999592999593,873.5866910866911,826.3878713878713,661.3431013431014,743.7535612535612
1624462222.140625,671.1029711029711,870.3968253968254,826.2311762311762,669.1330891330891,745.9808709808709
1624462222.1484375,679.2063492063492,867.2069597069597,826.0744810744811,676.9230769230769,748.2081807081806
1624462222.15625,687.3097273097274,864.017094017094,825.917785917786,684.7130647130648,750.4354904354905
1624462222.1640625,695.4131054131054,860.8272283272283,825.7610907610908,692.5030525030526,752.6628001628002
1624462222.171875,703.5164835164835,857.6373626373627,825.6043956043957,700.2930402930403,754.8901098901099
1624462222.1796875,794.5787545787546,796.996336996337,808.0769230769231,796.7948717948718,715.2014652014652
1624462222.1875,812.1733821733822,792.3626373626374,803.1074481074481,813.4493284493285,786.7216117216118
1624462222.1953125,829.7680097680098,787.7289377289377,798.1379731379732,830.1037851037851,858.2417582417584
1624462222.203125,847.3626373626374,783.0952380952381,793.1684981684982,846.7582417582418,929.7619047619048
1624462222.2109375,844.9450549450551,781.449938949939,791.8589743589744,847.2619047619048,928.4523809523812
1624462222.21875,842.5274725274726,779.8046398046398,790.5494505494506,847.7655677655678,927.1428571428572
1624462222.2265625,840.1098901098901,778.1593406593406,789.2399267399268,848.2692307692307,925.8333333333336
1624462222.234375,837.6923076923077,776.5140415140415,787.9304029304029,848.7728937728938,924.5238095238096
1624462222.2421875,835.2747252747254,774.8687423687425,786.6208791208792,849.2765567765568,923.214285714286
1624462222.2499998,832.8571428571429,773.2234432234433,785.3113553113553,849.7802197802198,921.904761904762
1624462222.2578125,862.6739926739926,787.1245421245421,791.7582417582418,857.2344322344322,800.4212454212454
1624462222.265625,861.0063085063084,788.6131461131462,792.7319902319903,855.5891330891332,797.4216524216524
1624462222.2734375,859.3386243386243,790.1017501017501,793.7057387057387,853.943833943834,794.4220594220594
1624462222.28125,857.6709401709402,791.5903540903541,794.6794871794872,852.2985347985348,791.4224664224664
1624462222.2890625,856.003256003256,793.0789580789582,795.6532356532357,850.6532356532357,788.4228734228735
1624462222.296875,854.3355718355717,794.5675620675621,796.6269841269841,849.0079365079366,785.4232804232805
1624462222.3046875,852.6678876678876,796.0561660561661,797.6007326007326,847.3626373626374,782.4236874236875
1624462222.3203125,848.2132682132682,789.3854293854295,801.025641025641,845.4822954822955,742.1530321530322
1624462222.328125,845.9859584859585,786.0500610500611,802.7380952380952,844.5421245421246,722.0177045177045
1624462222.3359375,843.7586487586487,782.7146927146928,804.4505494505495,843.6019536019537,701.8823768823769
1624462222.34375,841.531339031339,779.3793243793244,806.1630036630037,842.6617826617827,681.7470492470493
1624462222.3515625,839.3040293040293,776.0439560439561,807.8754578754579,841.7216117216118,661.6117216117216
1624462222.359375,839.7069597069598,785.4456654456654,808.4126984126984,840.9157509157509,817.8144078144078
1624462222.3671875,835.442612942613,786.7160154660155,809.212962962963,838.0280830280831,826.3822751322751
1624462222.375,831.1782661782662,787.9863654863655,810.0132275132275,835.1404151404151,834.9501424501425
1624462222.3828125,826.9139194139194,789.2567155067155,810.813492063492,832.2527472527472,843.5180097680097
1624462222.390625,822.6495726495726,790.5270655270656,811.6137566137567,829.3650793650794,852.0858770858771
1624462222.3984373,818.3852258852259,791.7974155474155,812.4140211640213,826.4774114774116,860.6537444037444
1624462222.40625,814.1208791208791,793.0677655677656,813.2142857142858,823.5897435897436,869.2216117216118
1624462222.4140625,814.7252747252747,791.0195360195361,812.5091575091576,817.1428571428572,850.6532356532357
1624462222.421875,815.3296703296703,788.9713064713064,811.8040293040293,810.6959706959707,832.0848595848596
1624462222.4296875,815.934065934066,786.9230769230769,811.0989010989011,804.2490842490843,813.5164835164835
1624462222.4375,812.3076923076924,801.965811965812,811.3675213675214,793.2356532356533,891.8192918192921
1624462222.4453125,811.2332112332113,800.6227106227107,811.9719169719169,795.2726902726904,860.726495726496
1624462222.4531252,810.1587301587302,799.2796092796093,812.5763125763126,797.3097273097274,829.6336996336998
1624462222.4609375,809.0842490842492,797.936507936508,813.1807081807082,799.3467643467644,798.5409035409037
1624462222.46875,808.0097680097681,796.5934065934067,813.7851037851037,801.3838013838015,767.4481074481076
1624462222.4765625,806.935286935287,795.2503052503054,814.3894993894994,803.4208384208384,736.3553113553115
1624462222.484375,805.860805860806,793.907203907204,814.993894993895,805.4578754578755,705.2625152625154
1624462222.4921875,804.4841269841271,793.9016076516077,814.2104192104192,805.9951159951161,716.2367724867727
1624462222.5,803.1074481074481,793.8960113960114,813.4269434269435,806.5323565323565,727.2110297110298
1624462222.5078125,801.7307692307693,793.8904151404151,812.6434676434676,807.0695970695971,738.185286935287
1624462222.515625,800.3540903540904,793.884818884819,811.8599918599919,807.6068376068376,749.1595441595442
1624462222.5234375,798.9774114774115,793.8792226292227,811.0765160765161,808.1440781440781,760.1338013838015
1624462222.53125,797.6007326007326,793.8736263736264,810.2930402930403,808.6813186813187,771.1080586080586
1624462222.5390625,799.8168498168499,794.9720914006629,809.0650619222048,809.5639281353567,770.4125239839526
1624462222.5468748,802.032967032967,796.0705564276993,807.8370835513693,810.4465375893948,769.7169893598465
1624462222.5546875,804.2490842490843,797.1690214547358,806.6091051805338,811.3291470434328,769.0214547357405
1624462222.5625,806.4652014652015,798.2674864817722,805.3811268096982,812.2117564974708,768.3259201116344
1624462222.5703125,808.6813186813188,799.3659515088086,804.1531484388627,813.0943659515088,767.6303854875284
1624462222.578125,810.8974358974359,800.4644165358451,802.9251700680272,813.9769754055469,766.9348508634223
1624462222.5859375,813.1135531135532,801.5628815628816,801.6971916971917,814.859584859585,766.2393162393163
1624462222.59375,815.497557997558,800.5331705331705,802.4750712250712,816.4321326821328,765.9595034595035
1624462222.6015627,817.8815628815629,799.5034595034596,803.2529507529507,818.0046805046806,765.6796906796907
1624462222.609375,820.2655677655678,798.4737484737485,804.0308302808303,819.5772283272283,765.399877899878
1624462222.6171875,822.6495726495727,797.4440374440375,804.8087098087099,821.1497761497761,765.1200651200652
1624462222.625,825.0335775335776,796.4143264143265,805.5865893365893,822.7223239723239,764.8402523402524
1624462222.6328125,827.4175824175825,795.3846153846155,806.3644688644689,824.2948717948717,764.5604395604396
1624462222.640625,823.6457061457062,797.1082621082621,806.0566748066749,822.6327838827838,780.8903133903134
1624462222.6484375,819.8738298738299,798.8319088319089,805.7488807488808,820.9706959706959,797.2201872201872
1624462222.65625,816.1019536019537,800.5555555555557,805.4410866910868,819.308608058608,813.550061050061
1624462222.6640625,812.3300773300774,802.2792022792023,805.1332926332927,817.6465201465201,829.8799348799349
1624462222.671875,808.5582010582011,804.002849002849,804.8254985754986,815.9844322344322,846.2098087098087
1624462222.6796875,804.7863247863248,805.7264957264957,804.5177045177046,814.3223443223443,862.5396825396825
1624462222.6875,813.1135531135532,819.5604395604396,801.8315018315019,826.007326007326,927.948717948718
1624462222.6953125,812.8001628001629,818.3964183964184,795.7427757427757,817.6800976800977,874.2694342694343
1624462222.703125,812.4867724867726,817.2323972323973,789.6540496540497,809.3528693528694,820.5901505901506
1624462222.7109375,812.1733821733823,816.0683760683761,783.5653235653235,801.0256410256411,766.910866910867
1624462222.71875,812.0774463631607,815.8381301238444,784.8316762602477,802.215245072388,785.5032269317984
1624462222.7265625,811.9815105529392,815.6078841793128,786.0980289551718,803.4048491191348,804.0955869527298
1624462222.734375,811.8855747427176,815.3776382347811,787.364381650096,804.5944531658818,822.6879469736614
1624462222.7421875,811.7896389324961,815.1473922902495,788.6307343450201,805.7840572126287,841.2803069945928
1624462222.7500002,811.6937031222745,814.9171463457178,789.8970870399443,806.9736612593756,859.8726670155243
1624462222.7578125,811.5977673120531,814.6869004011862,791.1634397348683,808.1632653061224,878.4650270364557
1624462222.765625,811.5018315018315,814.4566544566545,792.4297924297925,809.3528693528693,897.0573870573871
1624462222.7734375,811.9335426478283,814.5381998953428,793.5858189429619,808.7244897959183,896.2611198325485
1624462222.78125,812.3652537938252,814.6197453340311,794.7418454561313,808.0961102389674,895.4648526077098
1624462222.7890625,812.796964939822,814.7012907727194,795.8978719693006,807.4677306820164,894.6685853828711
1624462222.796875,813.228676085819,814.7828362114077,797.0538984824699,806.8393511250655,893.8723181580325
1624462222.8046875,813.6603872318158,814.864381650096,798.2099249956392,806.2109715681145,893.0760509331939
1624462222.8125,814.0920983778127,814.9459270887843,799.3659515088086,805.5825920111636,892.2797837083551
1624462222.8203125,814.5238095238095,815.0274725274726,800.5219780219779,804.9542124542126,891.4835164835165
1624462222.828125,814.9155474155474,815.4248066748067,801.9937932437931,806.4931827431828,894.7405372405373
1624462222.8359375,815.3072853072853,815.8221408221409,803.4656084656084,808.0321530321531,897.997557997558
1624462222.84375,815.6990231990233,816.219474969475,804.9374236874237,809.5711233211234,901.2545787545788
1624462222.8515625,816.0907610907611,816.6168091168091,806.4092389092389,811.1100936100936,904.5115995115996
1624462222.859375,816.482498982499,817.0141432641433,807.881054131054,812.6490638990639,907.7686202686202
1624462222.8671875,816.8742368742369,817.4114774114774,809.3528693528693,814.1880341880342,911.025641025641
1624462222.875,817.5234025234025,816.1579161579161,807.4277574277575,812.934472934473,879.2612942612942
1624462222.8828125,818.1725681725682,814.9043549043549,805.5026455026455,811.6809116809117,847.4969474969474
1624462222.890625,818.8217338217339,813.6507936507937,803.5775335775336,810.4273504273505,815.7326007326008
1624462222.8984373,819.4708994708996,812.3972323972324,801.6524216524217,809.1737891737893,783.968253968254
1624462222.90625,820.1200651200652,811.1436711436711,799.7273097273097,807.920227920228,752.2039072039072
1624462222.9140625,820.7692307692308,809.8901098901099,797.8021978021978,806.6666666666667,720.4395604395604
1624462222.921875,812.065934065934,807.875457875458,798.0439560439561,804.007326007326,742.842490842491
1624462222.9296875,812.0726495726495,809.4703907203908,797.7686202686203,801.8986568986569,740.7875457875459
1624462222.9375,812.0793650793651,811.0653235653236,797.4932844932845,799.7899877899878,738.7326007326009
1624462222.9453125,812.0860805860806,812.6602564102565,797.2179487179487,797.6813186813188,736.6776556776558
1624462222.9531252,812.0927960927961,814.2551892551893,796.942612942613,795.5726495726497,734.6227106227107
1624462222.9609375,812.0995115995116,815.8501221001221,796.6672771672771,793.4639804639805,732.5677655677656
1624462222.96875,812.1062271062272,817.445054945055,796.3919413919414,791.3553113553114,730.5128205128206
1624462222.9765625,812.1398046398047,817.1932234432235,797.567155067155,795.2503052503052,765.5006105006105
1624462222.984375,812.1733821733823,816.941391941392,798.7423687423687,799.1452991452992,800.4884004884005
1624462222.9921875,812.2069597069598,816.6895604395604,799.9175824175825,803.0402930402931,835.4761904761905
1624462223.0,812.2405372405373,816.4377289377289,801.0927960927961,806.935286935287,870.4639804639804
1624462223.0078125,812.2741147741149,816.1858974358975,802.2680097680097,810.8302808302808,905.4517704517704
1624462223.015625,812.3076923076924,815.934065934066,803.4432234432235,814.7252747252747,940.4395604395604
1624462223.0234375,817.3443223443223,808.4798534798535,800.8241758241759,807.8754578754579,781.080586080586
1624462223.03125,815.6094831094831,806.431623931624,802.2680097680098,808.2783882783883,793.605006105006
1624462223.0390625,813.8746438746439,804.3833943833944,803.7118437118438,808.6813186813187,806.1294261294261
1624462223.0468748,812.1398046398047,802.3351648351648,805.1556776556777,809.084249084249,818.6538461538462
1624462223.0546875,810.4049654049654,800.2869352869353,806.5995115995116,809.4871794871794,831.1782661782662
1624462223.0625,808.6701261701262,798.2387057387057,808.0433455433456,809.8901098901099,843.7026862026862
1624462223.0703125,806.935286935287,796.1904761904761,809.4871794871796,810.2930402930402,856.2271062271062
1624462223.078125,807.4949124949126,797.1978021978022,807.7635327635328,808.5693935693936,860.6817256817257
1624462223.0859375,808.054538054538,798.2051282051282,806.0398860398861,806.8457468457468,865.1363451363452
1624462223.09375,808.6141636141635,799.2124542124541,804.3162393162394,805.1221001221002,869.5909645909646
1624462223.1015627,809.1737891737891,800.2197802197801,802.5925925925926,803.3984533984535,874.0455840455841
1624462223.109375,809.7334147334147,801.2271062271061,800.868945868946,801.6748066748067,878.5002035002036
1624462223.1171875,810.2930402930402,802.2344322344321,799.1452991452992,799.9511599511601,882.954822954823
1624462223.125,808.2783882783882,800.6227106227105,797.5111925111926,799.4586894586896,865.4721204721205
1624462223.1328125,806.2637362637362,799.010989010989,795.877085877086,798.9662189662191,847.989417989418
1624462223.140625,804.2490842490843,797.3992673992673,794.2429792429793,798.4737484737486,830.5067155067156
1624462223.1484375,802.2344322344322,795.7875457875457,792.6088726088726,797.981277981278,813.0240130240131
1624462223.15625,800.2197802197802,794.1758241758241,790.974765974766,797.4888074888075,795.5413105413106
1624462223.1640625,798.2051282051282,792.5641025641025,789.3406593406594,796.996336996337,778.0586080586081
1624462223.171875,799.8168498168498,806.0622710622711,788.1318681318681,799.0109890109891,790.7509157509157
1624462223.1796875,802.251221001221,803.8965201465202,787.5610500610501,799.9175824175825,773.5424297924297
1624462223.1875,804.6855921855922,801.7307692307693,786.990231990232,800.8241758241759,756.3339438339439
1624462223.1953125,807.1199633699634,799.5650183150183,786.419413919414,801.7307692307693,739.1254578754579
1624462223.203125,809.5543345543346,797.3992673992674,785.8485958485958,802.6373626373627,721.9169719169719
1624462223.2109375,811.9887057387058,795.2335164835165,785.2777777777777,803.5439560439561,704.708485958486
1624462223.21875,814.423076923077,793.0677655677656,784.7069597069597,804.4505494505495,687.5
1624462223.2265625,815.8501221001222,796.0561660561661,785.1098901098901,806.498778998779,719.6672771672771
1624462223.234375,817.2771672771673,799.0445665445666,785.5128205128204,808.5470085470085,751.8345543345544
1624462223.2421875,818.7042124542124,802.032967032967,785.9157509157509,810.5952380952381,784.0018315018315
1624462223.2499998,820.1312576312577,805.0213675213676,786.3186813186813,812.6434676434676,816.1691086691086
1624462223.2578125,821.5583028083029,808.0097680097681,786.7216117216117,814.6916971916971,848.3363858363857
1624462223.265625,822.985347985348,810.9981684981685,787.1245421245421,816.7399267399267,880.503663003663
1624462223.2734375,820.7580382580383,811.2611925111926,788.0759055759056,817.2771672771672,853.2219169719169
1624462223.28125,818.5307285307285,811.5242165242166,789.0272690272691,817.8144078144078,825.9401709401709
1624462223.2890625,816.3034188034188,811.7872405372407,789.9786324786326,818.3516483516484,798.6584249084249
1624462223.296875,814.0761090761091,812.0502645502646,790.9299959299959,818.8888888888889,771.3766788766789
1624462223.3046875,811.8487993487994,812.3132885632887,791.8813593813594,819.4261294261295,744.0949328449328
1624462223.3125,809.6214896214897,812.5763125763127,792.8327228327229,819.96336996337,716.8131868131868
1624462223.3203125,809.8901098901099,817.5457875457876,802.6373626373627,812.7106227106227,826.4102564102565
1624462223.328125,808.7708587708588,815.5311355311355,804.1819291819293,813.6284086284086,829.0293040293041
1624462223.3359375,807.6516076516077,813.5164835164835,805.7264957264957,814.5461945461946,831.6483516483516
1624462223.34375,806.5323565323565,811.5018315018315,807.2710622710623,815.4639804639805,834.2673992673992
1624462223.3515625,805.4131054131054,809.4871794871796,808.8156288156289,816.3817663817664,836.8864468864468
1624462223.359375,804.2938542938543,807.4725274725275,810.3601953601953,817.2995522995523,839.5054945054944
1624462223.3671875,803.1746031746032,805.4578754578755,811.9047619047619,818.2173382173382,842.124542124542
1624462223.375,802.6015466015467,805.7802197802198,809.4871794871794,814.049247049247,827.9951159951158
1624462223.3828125,802.0284900284901,806.1025641025641,807.0695970695971,809.8811558811559,813.8656898656898
1624462223.390625,801.4554334554334,806.4249084249084,804.6520146520147,805.7130647130648,799.7362637362637
1624462223.3984373,800.8823768823769,806.7472527472528,802.2344322344322,801.5449735449736,785.6068376068375
1624462223.40625,800.3093203093204,807.0695970695971,799.8168498168498,797.3768823768823,771.4774114774114
1624462223.4140625,799.7362637362637,807.3919413919414,797.3992673992674,793.2087912087912,757.3479853479853
1624462223.421875,796.7277167277167,806.3980463980464,796.1233211233211,792.899877899878,744.3467643467643
1624462223.4296875,793.7191697191697,805.4041514041514,794.8473748473748,792.5909645909646,731.3455433455433
1624462223.4375,790.7106227106227,804.4102564102564,793.5714285714286,792.2820512820513,718.3443223443223
1624462223.4453125,787.7020757020757,803.4163614163614,792.2954822954823,791.973137973138,705.3431013431014
1624462223.4531252,784.6935286935287,802.4224664224664,791.019536019536,791.6642246642248,692.3418803418804
1624462223.4609375,781.6849816849817,801.4285714285714,789.7435897435897,791.3553113553114,679.3406593406594
1624462223.46875,803.8461538461538,801.6300366300366,781.4835164835165,787.1245421245421,706.9413919413919
1624462223.4765625,803.1522181522181,803.4544159544159,784.516687016687,789.530932030932,707.1316646316645
1624462223.484375,802.4582824582825,805.2787952787953,787.5498575498576,791.9373219373219,707.3219373219373
1624462223.4921875,801.7643467643468,807.1031746031747,790.5830280830281,794.3437118437118,707.5122100122101
1624462223.5,801.0704110704111,808.927553927554,793.6161986161986,796.7501017501017,707.7024827024827
1624462223.5078125,800.3764753764755,810.7519332519333,796.6493691493692,799.1564916564917,707.8927553927554
1624462223.515625,799.6825396825398,812.5763125763127,799.6825396825398,801.5628815628816,708.0830280830281
1624462223.5234375,811.5018315018315,801.8315018315019,789.7435897435897,792.1611721611722,867.5091575091575
1624462223.53125,810.3154253154253,802.7269027269028,789.5645095645095,791.3329263329264,867.5986975986976
1624462223.5390625,809.1290191290191,803.6223036223037,789.3854293854293,790.5046805046806,867.6882376882377
1624462223.5468748,807.9426129426129,804.5177045177046,789.2063492063492,789.6764346764347,867.7777777777778
1624462223.5546875,806.7562067562068,805.4131054131055,789.027269027269,788.8481888481889,867.867317867318
1624462223.5625,805.5698005698006,806.3085063085064,788.8481888481888,788.0199430199431,867.956857956858
1624462223.5703125,804.3833943833944,807.2039072039073,788.6691086691086,787.1916971916972,868.0463980463982
1624462223.578125,802.3015873015873,807.39417989418,788.3557183557183,789.3182743182743,855.5331705331706
1624462223.5859375,800.2197802197802,807.5844525844527,788.042328042328,791.4448514448516,843.0199430199431
1624462223.59375,798.1379731379732,807.7747252747254,787.7289377289377,793.5714285714287,830.5067155067156
1624462223.6015627,796.0561660561661,807.964997964998,787.4155474155474,795.6980056980058,817.9934879934881
1624462223.609375,793.974358974359,808.1552706552708,787.1021571021571,797.824582824583,805.4802604802605
1624462223.6171875,791.892551892552,808.3455433455434,786.7887667887668,799.9511599511601,792.967032967033
1624462223.625,819.5604395604396,805.4578754578755,799.0109890109891,807.8754578754579,807.4725274725275
1624462223.6328125,819.2498473748474,805.5837912087912,799.6825396825398,808.4378815628816,799.5314407814409
1624462223.640625,818.9392551892552,805.709706959707,800.3540903540904,809.0003052503052,791.5903540903541
1624462223.6484375,818.6286630036631,805.8356227106227,801.0256410256411,809.5627289377289,783.6492673992675
1624462223.65625,818.3180708180709,805.9615384615385,801.6971916971918,810.1251526251526,775.7081807081807
1624462223.6640625,818.0074786324786,806.0874542124542,802.3687423687425,810.6875763125763,767.7670940170941
1624462223.671875,817.6968864468865,806.21336996337,803.0402930402931,811.25,759.8260073260074
1624462223.6796875,817.3862942612943,806.3392857142858,803.7118437118437,811.8124236874237,751.8849206349207
1624462223.6875,817.0757020757021,806.4652014652015,804.3833943833944,812.3748473748474,743.9438339438341
1624462223.6953125,816.7651098901099,806.5911172161173,805.054945054945,812.9372710622711,736.0027472527473
1624462223.703125,816.4545177045177,806.717032967033,805.7264957264957,813.4996947496948,728.0616605616607
1624462223.7109375,816.1439255189256,806.8429487179487,806.3980463980464,814.0621184371184,720.1205738705739
1624462223.71875,815.8333333333334,806.9688644688645,807.0695970695971,814.6245421245421,712.1794871794873
1624462223.7265625,814.6581196581197,804.047619047619,808.949938949939,813.5836385836386,731.3186813186815
1624462223.734375,813.482905982906,801.1263736263736,810.8302808302808,812.542735042735,750.4578754578755
1624462223.7421875,812.3076923076924,798.2051282051282,812.7106227106227,811.5018315018315,769.5970695970697
1624462223.7500002,822.5824175824175,809.4871794871794,810.6959706959708,809.8901098901099,684.3772893772893
1624462223.7578125,820.8028083028082,809.6214896214896,810.4945054945056,809.8229548229549,697.0807895807895
1624462223.765625,819.023199023199,809.7557997557997,810.2930402930403,809.7557997557998,709.7842897842897
1624462223.7734375,817.2435897435897,809.8901098901099,810.0915750915751,809.6886446886447,722.4877899877899
1624462223.78125,815.4639804639804,810.02442002442,809.89010989011,809.6214896214897,735.1912901912902
1624462223.7890625,813.6843711843712,810.1587301587301,809.6886446886448,809.5543345543347,747.8947903947904
1624462223.796875,811.9047619047619,810.2930402930402,809.4871794871796,809.4871794871796,760.5982905982906
1624462223.8046875,810.2124542124542,808.5201465201465,809.6886446886448,807.956043956044,764.7708587708588
1624462223.8125,808.5201465201466,806.7472527472527,809.89010989011,806.4249084249085,768.943426943427
1624462223.8203125,806.8278388278388,804.9743589743589,810.0915750915751,804.893772893773,773.1159951159952
1624462223.828125,805.1355311355311,803.2014652014652,810.2930402930403,803.3626373626374,777.2885632885634
1624462223.8359375,803.4432234432235,801.4285714285714,810.4945054945056,801.8315018315019,781.4611314611316
1624462223.84375,801.7509157509157,799.6556776556777,810.6959706959708,800.3003663003664,785.6336996336997
1624462223.8515625,801.4122623408338,800.6860282574569,810.5328798185942,800.2312925170069,782.9733996162569
1624462223.859375,801.0736089307518,801.716378859236,810.3697889412176,800.1622187336474,780.313099598814
1624462223.8671875,800.7349555206698,802.7467294610152,810.206698063841,800.0931449502879,777.6527995813711
1624462223.875,800.3963021105878,803.7770800627943,810.0436071864644,800.0240711669284,774.9924995639283
1624462223.8828125,800.0576487005059,804.8074306645735,809.8805163090879,799.9549973835689,772.3321995464854
1624462223.890625,799.7189952904239,805.8377812663527,809.7174254317113,799.8859236002094,769.6718995290425
1624462223.8984373,799.3803418803418,806.8681318681319,809.5543345543346,799.8168498168499,767.0115995115997
1624462223.90625,799.0416884702598,807.8984824699111,809.391243676958,799.7477760334904,764.3512994941568
1624462223.9140625,798.7030350601779,808.9288330716902,809.2281527995814,799.6787022501309,761.690999476714
1624462223.921875,798.3643816500959,809.9591836734694,809.0650619222048,799.6096284667714,759.0306994592711
1624462223.9296875,798.0257282400139,810.9895342752485,808.9019710448282,799.5405546834119,756.3703994418282
1624462223.9375,797.6870748299319,812.0198848770277,808.7388801674516,799.4714809000524,753.7100994243854
1624462223.9453125,801.1311704168846,814.2168149311007,805.8416186987615,801.8794697366127,766.3640327926043
1624462223.9531252,804.5752660038374,816.4137449851736,802.9443572300715,804.2874585731729,779.0179661608234
1624462223.9609375,808.0193615907901,818.6106750392464,800.0470957613816,806.6954474097331,791.6718995290425
1624462223.96875,811.4634571777428,820.8076050933194,797.1498342926915,809.1034362462934,804.3258328972615
1624462223.9765625,814.9075527646957,823.0045351473923,794.2525728240014,811.5114250828537,816.9797662654805
1624462223.984375,818.3516483516484,825.2014652014652,791.3553113553114,813.919413919414,829.6336996336996
1624462223.9921875,815.7326007326008,823.5897435897436,800.8241758241759,815.3296703296703,773.4249084249084
1624462224.0,815.564713064713,822.6159951159951,804.0140415140415,815.6318681318681,793.9072039072039
1624462224.0078125,815.3968253968254,821.6422466422466,807.2039072039072,815.934065934066,814.3894993894994
1624462224.015625,815.2289377289378,820.6684981684982,810.3937728937728,816.2362637362637,834.8717948717949
1624462224.0234375,815.0610500610501,819.6947496947497,813.5836385836386,816.5384615384615,855.3540903540903
1624462224.03125,814.8931623931624,818.7210012210012,816.7735042735043,816.8406593406594,875.8363858363858
1624462224.0390625,814.7252747252747,817.7472527472527,819.9633699633699,817.1428571428572,896.3186813186813
1624462224.0468748,809.4871794871796,813.3821733821734,815.2625152625152,809.4871794871796,798.3394383394384
1624462224.0546875,804.2490842490843,809.017094017094,810.5616605616606,801.8315018315019,700.3601953601953
1624462224.0625,799.0109890109891,804.6520146520147,805.8608058608058,794.1758241758242,602.3809523809524
1624462224.0703125,784.9084249084249,796.5934065934066,789.7435897435898,797.6007326007327,911.4285714285714
1624462224.078125,784.606227106227,802.1001221001221,792.3962148962149,789.9786324786326,873.452380952381
1624462224.0859375,784.3040293040293,807.6068376068375,795.0488400488401,782.3565323565325,835.4761904761905
1624462224.09375,784.0018315018315,813.113553113553,797.7014652014652,774.7344322344323,797.5
1624462224.1015627,775.6410256410256,816.4075091575091,799.202380952381,768.3076923076924,796.3315018315018
1624462224.109375,767.2802197802198,819.7014652014651,800.7032967032967,761.8809523809525,795.1630036630037
1624462224.1171875,758.9194139194138,822.9954212454212,802.2042124542124,755.4542124542126,793.9945054945056
1624462224.125,750.558608058608,826.2893772893773,803.7051282051282,749.0274725274726,792.8260073260074
1624462224.1328125,742.1978021978022,829.5833333333333,805.2060439560439,742.6007326007327,791.6575091575091
1624462224.140625,733.8369963369963,832.8772893772893,806.7069597069598,736.1739926739928,790.489010989011
1624462224.1484375,725.4761904761905,836.1712454212454,808.2078754578755,729.7472527472528,789.3205128205129
1624462224.15625,717.1153846153845,839.4652014652015,809.7087912087912,723.3205128205128,788.1520146520147
1624462224.1640625,708.7545787545787,842.7591575091575,811.209706959707,716.893772893773,786.9835164835165
1624462224.171875,700.3937728937728,846.0531135531136,812.7106227106227,710.467032967033,785.8150183150184
1624462224.1796875,690.9752747252746,856.5460927960928,812.1733821733822,694.8702686202687,795.9386446886448
1624462224.1875,681.5567765567765,867.0390720390722,811.6361416361417,679.2735042735043,806.0622710622711
1624462224.1953125,672.1382783882784,877.5320512820514,811.0989010989011,663.67673992674,816.1858974358975
1624462224.203125,662.7197802197802,888.0250305250306,810.5616605616606,648.0799755799757,826.3095238095239
1624462224.2109375,653.301282051282,898.51800976801,810.0244200244201,632.4832112332113,836.4331501831501
1624462224.21875,643.8827838827839,909.0109890109892,809.4871794871796,616.886446886447,846.5567765567765
1624462224.2265625,618.9010989010989,908.070818070818,825.7387057387059,605.6043956043956,867.6434676434677
1624462224.234375,625.5662393162393,901.2433862433862,825.346967846968,613.3608058608058,861.1238298738299
1624462224.2421875,632.2313797313797,894.4159544159544,824.95522995523,621.1172161172161,854.6041921041922
1624462224.2499998,638.8965201465201,887.5885225885227,824.5634920634922,628.8736263736264,848.0845543345545
1624462224.2578125,645.5616605616606,880.7610907610908,824.1717541717543,636.6300366300366,841.5649165649166
1624462224.265625,652.226800976801,873.933658933659,823.7800162800163,644.3864468864468,835.0452787952788
1624462224.2734375,658.8919413919414,867.1062271062272,823.3882783882784,652.1428571428571,828.5256410256411
1624462224.28125,695.5250305250305,852.6678876678877,813.3821733821734,695.054945054945,779.6703296703297
1624462224.2890625,732.1581196581197,838.2295482295483,803.3760683760685,737.9670329670329,730.8150183150184
1624462224.296875,768.7912087912089,823.7912087912089,793.3699633699634,780.8791208791208,681.959706959707
1624462224.3046875,834.065934065934,796.3919413919414,788.3333333333333,857.2344322344322,940.8424908424912
1624462224.3125,841.8335368335368,794.3437118437118,786.7551892551892,862.1927146927147,921.9047619047622
1624462224.3203125,849.6011396011395,792.2954822954823,785.1770451770451,867.1509971509972,902.9670329670332
1624462224.328125,857.3687423687422,790.2472527472528,783.598901098901,872.1092796092796,884.0293040293043
1624462224.3359375,865.1363451363451,788.1990231990231,782.0207570207571,877.0675620675621,865.0915750915752
1624462224.34375,872.9039479039478,786.1507936507936,780.442612942613,882.0258445258446,846.1538461538463
1624462224.3515625,880.6715506715506,784.1025641025641,778.8644688644689,886.9841269841271,827.2161172161174
1624462224.359375,883.7159137159136,781.7521367521367,778.4615384615385,889.0435490435491,799.0781440781442
1624462224.3671875,886.7602767602767,779.4017094017094,778.0586080586081,891.1029711029712,770.940170940171
1624462224.375,889.8046398046397,777.051282051282,777.6556776556777,893.1623931623933,742.802197802198
1624462224.3828125,892.8490028490028,774.7008547008547,777.2527472527472,895.2218152218153,714.6642246642248
1624462224.390625,895.8933658933659,772.3504273504274,776.8498168498169,897.2812372812373,686.5262515262516
1624462224.3984373,898.9377289377289,770.0,776.4468864468864,899.3406593406594,658.3882783882784
1624462224.40625,901.758241758242,778.8644688644689,773.8278388278388,890.2747252747254,685.1831501831502
1624462224.4140625,898.6467236467238,776.961741961742,771.5781440781441,887.6444851444852,708.7433862433863
1624462224.421875,895.5352055352056,775.0590150590151,769.3284493284493,885.0142450142451,732.3036223036223
1624462224.4296875,892.4236874236874,773.1562881562882,767.0787545787546,882.384004884005,755.8638583638583
1624462224.4375,889.3121693121693,771.2535612535612,764.8290598290599,879.7537647537648,779.4240944240944
1624462224.4453125,886.2006512006512,769.3508343508344,762.5793650793652,877.1235246235248,802.9843304843305
1624462224.4609375,880.4700854700855,771.2759462759462,767.1123321123322,872.7024827024828,803.3984533984533
1624462224.46875,877.8510378510379,775.1037851037851,773.894993894994,870.911680911681,780.2523402523402
1624462224.4765625,875.2319902319903,778.9316239316239,780.6776556776557,869.1208791208792,757.106227106227
1624462224.484375,872.6129426129426,782.7594627594627,787.4603174603175,867.3300773300774,733.9601139601139
1624462224.4921875,869.993894993895,786.5873015873016,794.2429792429792,865.5392755392755,710.8140008140008
1624462224.5,867.3748473748474,790.4151404151404,801.025641025641,863.7484737484738,687.6678876678876
1624462224.5078125,864.3752543752544,788.4676434676435,802.1672771672771,860.8608058608058,689.2796092796092
1624462224.515625,861.3756613756614,786.5201465201465,803.3089133089132,857.973137973138,690.8913308913309
1624462224.5234375,858.3760683760684,784.5726495726495,804.4505494505495,855.0854700854702,692.5030525030525
1624462224.53125,855.3764753764754,782.6251526251526,805.5921855921856,852.1978021978023,694.114774114774
1624462224.5390625,852.3768823768823,780.6776556776556,806.7338217338217,849.3101343101343,695.7264957264957
1624462224.5468748,849.3772893772893,778.7301587301587,807.8754578754579,846.4224664224665,697.3382173382173
1624462224.5546875,836.0805860805862,794.5787545787546,805.4578754578755,830.8424908424909,805.8608058608058
1624462224.5625,834.9613349613351,795.2503052503052,803.4432234432235,834.7822547822548,827.5742775742775
1624462224.5703125,833.8420838420839,795.9218559218559,801.4285714285714,838.7220187220188,849.2877492877493
1624462224.578125,832.7228327228328,796.5934065934066,799.4139194139194,842.6617826617827,871.001221001221
1624462224.5859375,833.1145706145707,798.9774114774115,801.3614163614163,839.7685185185186,851.4646927146927
1624462224.59375,833.5063085063085,801.3614163614163,803.3089133089134,836.8752543752544,831.9281644281643
1624462224.6015627,833.8980463980465,803.7454212454213,805.2564102564103,833.9819902319903,812.3916361416361
1624462224.609375,834.2897842897844,806.1294261294262,807.2039072039072,831.0887260887262,792.8551078551078
1624462224.6171875,834.6815221815223,808.513431013431,809.1514041514042,828.195461945462,773.3185795685795
1624462224.625,835.0732600732601,810.8974358974359,811.0989010989011,825.3021978021978,753.7820512820512
1624462224.6328125,835.2075702075703,813.7851037851038,811.2667887667887,824.6810134310135,749.9710012210012
1624462224.640625,835.3418803418804,816.6727716727717,811.4346764346765,824.0598290598291,746.1599511599511
1624462224.6484375,835.4761904761905,819.5604395604396,811.6025641025642,823.4386446886447,742.348901098901
1624462224.65625,835.6105006105006,822.4481074481075,811.7704517704518,822.8174603174604,738.537851037851
1624462224.6640625,835.7448107448107,825.3357753357753,811.9383394383394,822.196275946276,734.7268009768011
1624462224.671875,835.8791208791208,828.2234432234433,812.1062271062272,821.5750915750916,730.915750915751
1624462224.6796875,848.1684981684982,829.6336996336996,804.6520146520147,838.4981684981685,1038.754578754579
1624462224.6875,841.5604395604396,828.5860805860806,803.6849816849817,838.3369963369963,958.3296703296704
1624462224.6953125,834.952380952381,827.5384615384615,802.7179487179487,838.1758241758242,877.904761904762
1624462224.703125,828.3443223443224,826.4908424908425,801.7509157509159,838.014652014652,797.4798534798535
1624462224.7109375,821.7362637362638,825.4432234432235,800.7838827838829,837.8534798534799,717.0549450549452
1624462224.71875,815.1282051282052,824.3956043956044,799.8168498168499,837.6923076923077,636.6300366300367
1624462224.7265625,808.5470085470087,807.0695970695971,799.2796092796093,810.02442002442,937.887667887668
1624462224.734375,810.5392755392756,807.4949124949126,799.7496947496948,811.3451363451363,906.5710215710216
1624462224.7421875,812.5315425315426,807.920227920228,800.2197802197802,812.6658526658526,875.2543752543754
1624462224.7500002,814.5238095238096,808.3455433455433,800.6898656898657,813.986568986569,843.937728937729
1624462224.7578125,816.5160765160765,808.7708587708588,801.1599511599512,815.3072853072853,812.6210826210827
1624462224.765625,818.5083435083435,809.1961741961743,801.6300366300367,816.6280016280016,781.3044363044364
1624462224.7734375,820.5006105006105,809.6214896214897,802.1001221001221,817.9487179487179,749.98778998779
1624462224.78125,820.5229955229955,812.7218152218153,801.965811965812,817.8144078144078,754.7669922669924
1624462224.7890625,820.5453805453806,815.8221408221409,801.8315018315018,817.6800976800977,759.5461945461946
1624462224.796875,820.5677655677657,818.9224664224664,801.6971916971917,817.5457875457876,764.3253968253969
1624462224.8046875,820.5901505901508,822.022792022792,801.5628815628816,817.4114774114774,769.1045991045992
1624462224.8125,820.6125356125358,825.1231176231177,801.4285714285713,817.2771672771673,773.8838013838014
1624462224.8203125,820.6349206349208,828.2234432234433,801.2942612942612,817.1428571428572,778.6630036630037
1624462224.828125,820.8267922553639,827.0242455956742,801.2175126460841,815.7997557997559,782.8745857317286
1624462224.8359375,821.0186638758069,825.8250479679052,801.1407639979068,814.4566544566545,787.0861678004535
1624462224.84375,821.2105354962499,824.6258503401361,801.0640153497296,813.1135531135532,791.2977498691785
1624462224.8515625,821.4024071166929,823.4266527123671,800.9872667015524,811.7704517704518,795.5093319379034
1624462224.859375,821.5942787371359,822.227455084598,800.9105180533752,810.4273504273505,799.7209140066284
1624462224.8671875,821.7861503575789,821.028257456829,800.8337694051979,809.0842490842491,803.9324960753532
1624462224.875,821.978021978022,819.8290598290599,800.7570207570208,807.7411477411478,808.1440781440782
1624462224.8828125,823.1196581196581,819.0903540903541,803.3536833536833,808.949938949939,819.5380545380546
1624462224.890625,824.2612942612943,818.3516483516485,805.950345950346,810.1587301587302,830.9320309320309
1624462224.8984373,825.4029304029305,817.6129426129427,808.5470085470085,811.3675213675215,842.3260073260074
1624462224.90625,826.5445665445666,816.8742368742369,811.1436711436711,812.5763125763126,853.7199837199837
1624462224.9140625,827.6862026862028,816.1355311355312,813.7403337403338,813.7851037851038,865.11396011396
1624462224.921875,828.827838827839,815.3968253968254,816.3369963369963,814.9938949938951,876.5079365079364
1624462224.9296875,825.5820105820106,814.2999592999593,815.7997557997558,814.2104192104193,859.3386243386243
1624462224.9375,822.3361823361824,813.2030932030932,815.2625152625153,813.4269434269435,842.1693121693121
1624462224.9453125,819.0903540903541,812.1062271062272,814.7252747252747,812.6434676434676,825.0
1624462224.9531252,815.8445258445258,811.009361009361,814.1880341880342,811.8599918599919,807.8306878306879
1624462224.9609375,812.5986975986976,809.9124949124948,813.6507936507937,811.0765160765161,790.6613756613757
1624462224.96875,809.3528693528693,808.8156288156288,813.1135531135532,810.2930402930402,773.4920634920636
1624462224.9765625,796.5934065934066,809.0842490842491,823.1868131868132,816.7399267399268,915.8608058608058
1624462224.984375,800.5421245421246,809.4065934065934,822.985347985348,815.5714285714286,869.4835164835165
1624462224.9921875,804.4908424908425,809.7289377289377,822.7838827838827,814.4029304029305,823.1062271062272
1624462225.0,808.4395604395605,810.0512820512821,822.5824175824176,813.2344322344322,776.7289377289378
1624462225.0078125,812.3882783882784,810.3736263736264,822.3809523809524,812.0659340659341,730.3516483516484
1624462225.015625,816.3369963369964,810.6959706959707,822.1794871794872,810.8974358974359,683.974358974359
1624462225.0234375,809.0842490842491,814.3223443223443,813.1135531135532,786.9230769230769,748.6446886446887
1624462225.03125,809.8901098901099,813.2747252747253,810.9377289377289,787.5677655677656,745.9853479853481
1624462225.0390625,810.6959706959707,812.2271062271062,808.7619047619048,788.2124542124542,743.3260073260074
1624462225.0468748,811.5018315018316,811.1794871794872,806.5860805860806,788.8571428571429,740.6666666666667
1624462225.0546875,812.3076923076924,810.1318681318681,804.4102564102565,789.5018315018315,738.007326007326
1624462225.0625,813.1135531135532,809.0842490842491,802.2344322344322,790.1465201465202,735.3479853479854
1624462225.0703125,793.5042735042736,803.8461538461539,792.1611721611722,795.6532356532357,787.5946275946276
1624462225.078125,794.6906796906798,803.8237688237689,796.3024013024013,796.2352462352462,780.8119658119658
1624462225.0859375,795.877085877086,803.8013838013838,800.4436304436305,796.8172568172569,774.0293040293041
1624462225.09375,797.063492063492,803.7789987789988,804.5848595848595,797.3992673992675,767.2466422466423
1624462225.1015627,798.2498982498983,803.7566137566138,808.7260887260886,797.981277981278,760.4639804639804
1624462225.109375,799.4363044363045,803.7342287342287,812.8673178673178,798.5632885632886,753.6813186813187
1624462225.1171875,800.6227106227107,803.7118437118437,817.0085470085469,799.1452991452992,746.8986568986569
1624462225.125,802.7213064713064,806.2021774521775,818.3572446072445,801.1711436711437,743.966218966219
1624462225.1328125,804.8199023199023,808.6925111925112,819.705942205942,803.1969881969883,741.033781033781
1624462225.140625,806.9184981684982,811.182844932845,821.0546398046397,805.2228327228328,738.1013431013431
1624462225.1484375,809.017094017094,813.6731786731787,822.4033374033373,807.2486772486773,735.1689051689052
1624462225.15625,811.1156898656898,816.1635124135124,823.7520350020349,809.2745217745219,732.2364672364672
1624462225.1640625,813.2142857142857,818.6538461538462,825.1007326007325,811.3003663003664,729.3040293040293
1624462225.171875,809.257733007733,814.6637159137159,823.7968050468049,808.446275946276,722.073667073667
1624462225.1796875,805.3011803011802,810.6735856735856,822.4928774928774,805.5921855921856,714.8433048433048
1624462225.1875,801.3446275946276,806.6834554334555,821.1889499389499,802.7380952380953,707.6129426129426
1624462225.1953125,797.3880748880749,802.6933251933252,819.8850223850224,799.884004884005,700.3825803825803
1624462225.203125,793.4315221815222,798.703194953195,818.5810948310948,797.0299145299145,693.1522181522181
1624462225.2109375,789.4749694749695,794.7130647130647,817.2771672771672,794.1758241758242,685.9218559218558
1624462225.21875,802.9059829059829,805.9951159951161,803.3089133089134,819.96336996337,775.909645909646
1624462225.2265625,804.6128408628408,807.2178978428979,803.3620777370778,819.8206654456656,778.3719983719984
1624462225.234375,806.3196988196988,808.4406796906798,803.4152421652423,819.677960927961,780.8343508343509
1624462225.2421875,808.0265567765568,809.6634615384617,803.4684065934066,819.5352564102565,783.2967032967033
1624462225.2499998,809.7334147334147,810.8862433862435,803.521571021571,819.392551892552,785.7590557590559
1624462225.2578125,811.4402726902726,812.1090252340252,803.5747354497355,819.2498473748474,788.2214082214083
1624462225.265625,813.1471306471307,813.3318070818071,803.6278998778998,819.1071428571429,790.6837606837607
1624462225.2734375,814.8539886039887,814.554588929589,803.6810643060643,818.9644383394384,793.1461131461132
1624462225.28125,816.5608465608466,815.7773707773708,803.7342287342287,818.8217338217338,795.6084656084656
1624462225.2890625,818.2677045177045,817.0001526251526,803.7873931623932,818.6790293040293,798.0708180708182
1624462225.296875,819.9745624745625,818.2229344729345,803.8405575905576,818.5363247863248,800.5331705331706
1624462225.3046875,821.6814204314205,819.4457163207164,803.893722018722,818.3936202686202,802.9955229955231
1624462225.3125,823.3882783882784,820.6684981684982,803.9468864468864,818.2509157509157,805.4578754578755
1624462225.3203125,821.474358974359,821.6758241758242,805.5418192918193,817.1260683760684,781.7017704517705
1624462225.328125,819.5604395604396,822.6831501831502,807.1367521367521,816.001221001221,757.9456654456654
1624462225.3359375,817.6465201465202,823.6904761904763,808.731684981685,814.8763736263736,734.1895604395604
1624462225.34375,815.7326007326008,824.6978021978023,810.3266178266178,813.7515262515263,710.4334554334555
1624462225.3515625,813.8186813186813,825.7051282051283,811.9215506715507,812.626678876679,686.6773504273505
1624462225.359375,811.9047619047619,826.7124542124543,813.5164835164835,811.5018315018316,662.9212454212454
1624462225.3671875,809.7557997557998,825.940170940171,814.3223443223443,809.957264957265,666.6483516483516
1624462225.375,807.6068376068375,825.1678876678877,815.1282051282052,808.4126984126985,670.3754578754579
1624462225.3828125,805.4578754578754,824.3956043956044,815.934065934066,806.868131868132,674.1025641025641
1624462225.390625,799.6153846153846,827.4175824175825,802.032967032967,815.934065934066,1063.131868131868
1624462225.3984373,799.7736787022502,824.8129251700681,801.5580847723704,813.3246118960406,1021.5005232862376
1624462225.40625,799.9319727891157,822.2082679225537,801.083202511774,810.715157858015,979.869178440607
1624462225.4140625,800.0902668759812,819.6036106750392,800.6083202511775,808.1057038199896,938.2378335949765
1624462225.421875,800.2485609628468,816.9989534275248,800.1334379905809,805.4962497819641,896.6064887493459
1624462225.4296875,800.4068550497122,814.3942961800104,799.6585557299843,802.8867957439386,854.9751439037154
1624462225.4375,800.5651491365778,811.789638932496,799.1836734693878,800.2773417059132,813.3437990580849
1624462225.4453125,801.0860241532512,811.6542001415951,799.7068057992428,800.2028503709176,815.7794399811207
1624462225.4531252,801.6068991699244,811.518761350694,800.2299381290978,800.1283590359221,818.2150809041566
1624462225.4609375,802.1277741865978,811.3833225597931,800.753070458953,800.0538677009266,820.6507218271925
1624462225.46875,802.6486492032711,811.2478837688922,801.276202788808,799.9793763659311,823.0863627502283
1624462225.4765625,803.1695242199445,811.1124449779912,801.799335118663,799.9048850309355,825.5220036732642
1624462225.484375,803.6903992366177,810.9770061870902,802.322467448518,799.83039369594,827.9576445963
1624462225.4921875,804.2112742532911,810.8415673961892,802.845599778373,799.7559023609444,830.3932855193359
1624462225.5,804.7321492699645,810.7061286052883,803.368732108228,799.6814110259489,832.8289264423718
1624462225.5078125,805.2530242866377,810.5706898143873,803.8918644380831,799.6069196909534,835.2645673654077
1624462225.515625,805.773899303311,810.4352510234863,804.4149967679381,799.5324283559579,837.7002082884436
1624462225.5234375,806.2947743199844,810.2998122325854,804.9381290977931,799.4579370209624,840.1358492114795
1624462225.53125,806.8156493366577,810.1643734416843,805.4612614276481,799.3834456859669,842.5714901345153
1624462225.5390625,807.336524353331,810.0289346507834,805.9843937575031,799.3089543509712,845.0071310575512
1624462225.5468748,807.8573993700044,809.8934958598825,806.5075260873581,799.2344630159757,847.442771980587
1624462225.5546875,808.3782743866777,809.7580570689815,807.0306584172132,799.1599716809802,849.8784129036229
1624462225.5625,808.899149403351,809.6226182780805,807.5537907470682,799.0854803459847,852.3140538266588
1624462225.5703125,809.4200244200243,809.4871794871796,808.0769230769232,799.0109890109892,854.7496947496946
1624462225.578125,824.2948717948718,808.0769230769231,806.7673992673994,815.4304029304029,818.6538461538462
1624462225.5859375,822.9014041514042,807.2150997150998,802.6989214489215,814.4846357346357,820.1256613756614
1624462225.59375,821.5079365079365,806.3532763532763,798.6304436304437,813.5388685388685,821.5974765974767
1624462225.6015627,820.1144688644689,805.491452991453,794.5619658119658,812.5931013431014,823.069291819292
1624462225.609375,818.7210012210013,804.6296296296297,790.493487993488,811.647334147334,824.5411070411071
1624462225.6171875,817.3275335775336,803.7678062678062,786.4250101750101,810.7015669515669,826.0129222629223
1624462225.625,815.934065934066,802.9059829059829,782.3565323565323,809.7557997557997,827.4847374847376
1624462225.6328125,791.7582417582418,801.4285714285714,792.967032967033,809.4871794871796,899.3406593406594
1624462225.640625,791.7582417582418,802.2344322344322,792.1611721611722,807.7948717948718,868.3956043956044
1624462225.6484375,791.7582417582418,803.040293040293,791.3553113553114,806.1025641025641,837.4505494505495
1624462225.65625,791.7582417582418,803.8461538461539,790.5494505494505,804.4102564102565,806.5054945054945
1624462225.6640625,791.7582417582418,804.6520146520147,789.7435897435897,802.7179487179487,775.5604395604396
1624462225.671875,791.7582417582418,805.4578754578755,788.9377289377289,801.025641025641,744.6153846153846
1624462225.6796875,797.6678876678876,804.5177045177046,787.5946275946276,787.3260073260075,813.3821733821734
1624462225.6875,801.3390313390313,804.5624745624746,791.7022792022792,790.9523809523811,797.6119251119251
1624462225.6953125,805.010175010175,804.6072446072446,795.8099308099308,794.5787545787547,781.8416768416769
1624462225.703125,808.6813186813187,804.6520146520146,799.9175824175825,798.2051282051283,766.0714285714286
1624462225.7109375,808.7708587708587,803.8237688237688,799.6601546601547,798.0260480260481,757.8897028897029
1624462225.71875,808.8603988603988,802.995522995523,799.402726902727,797.8469678469679,749.7079772079773
1624462225.7265625,808.9499389499389,802.1672771672771,799.1452991452992,797.6678876678877,741.5262515262515
1624462225.734375,809.039479039479,801.3390313390313,798.8878713878714,797.4888074888075,733.3445258445258
1624462225.7421875,809.1290191290191,800.5107855107856,798.6304436304438,797.3097273097274,725.1628001628002
1624462225.7500002,809.2185592185592,799.6825396825398,798.373015873016,797.1306471306472,716.9810744810745
1624462225.7578125,809.3080993080993,798.8542938542939,798.1155881155883,796.951566951567,708.7993487993488
1624462225.765625,809.3976393976394,798.0260480260481,797.8581603581605,796.7724867724868,700.6176231176231
1624462225.7734375,809.4871794871794,797.1978021978023,797.6007326007327,796.5934065934066,692.4358974358975
1624462225.78125,810.6959706959707,805.2564102564103,793.5714285714286,799.0109890109891,693.8461538461538
1624462225.7890625,808.1978021978022,807.7142857142858,794.4175824175824,802.3150183150184,760.2490842490843
1624462225.796875,805.6996336996336,810.1721611721612,795.2637362637363,805.6190476190477,826.6520146520147
1624462225.8046875,803.2014652014652,812.6300366300367,796.1098901098901,808.9230769230769,893.0549450549452
1624462225.8125,800.7032967032967,815.0879120879121,796.956043956044,812.2271062271062,959.4578754578756
1624462225.8203125,798.2051282051282,817.5457875457876,797.8021978021978,815.5311355311355,1025.860805860806
1624462225.828125,805.7264957264957,809.2185592185592,807.4725274725275,812.5763125763127,905.6532356532356
1624462225.8359375,803.4208384208384,805.6145706145707,806.1965811965813,803.6223036223038,847.8103378103378
1624462225.84375,801.1151811151811,802.0105820105821,804.9206349206349,794.6682946682947,789.96743996744
1624462225.8515625,798.8095238095239,798.4065934065935,803.6446886446887,785.7142857142858,732.1245421245421
1624462225.859375,799.5818070818071,799.6489621489623,803.5887260887262,787.4155474155475,734.0272690272691
1624462225.8671875,800.3540903540903,800.891330891331,803.5327635327636,789.1168091168091,735.9299959299959
1624462225.875,801.1263736263736,802.1336996336997,803.4768009768011,790.8180708180707,737.8327228327228
1624462225.8828125,801.8986568986569,803.3760683760685,803.4208384208384,792.5193325193325,739.7354497354497
1624462225.890625,802.6709401709401,804.6184371184372,803.3648758648759,794.2205942205942,741.6381766381767
1624462225.8984373,803.4432234432234,805.860805860806,803.3089133089134,795.9218559218558,743.5409035409035
1624462225.90625,801.8315018315019,800.6227106227107,805.054945054945,794.5787545787546,997.2527472527472
1624462225.9140625,802.3553113553114,803.1611721611722,805.5384615384615,797.3186813186813,930.1648351648352
1624462225.921875,802.8791208791209,805.6996336996338,806.021978021978,800.0586080586081,863.0769230769231
1624462225.9296875,803.4029304029305,808.2380952380952,806.5054945054945,802.7985347985348,795.9890109890109
1624462225.9375,803.92673992674,810.7765567765567,806.989010989011,805.5384615384615,728.9010989010989
1624462225.9453125,804.4505494505495,813.3150183150183,807.4725274725275,808.2783882783883,661.8131868131868
1624462225.9531252,794.8473748473749,801.025641025641,812.9792429792429,800.6227106227107,834.0659340659341
1624462225.9609375,797.0858770858772,801.1599511599511,812.4308099308099,801.1935286935287,813.3485958485959
1624462225.96875,799.3243793243794,801.2942612942613,811.8823768823769,801.7643467643468,792.6312576312577
1624462225.9765625,801.5628815628816,801.4285714285714,811.3339438339437,802.3351648351648,771.9139194139195
1624462225.984375,803.8013838013838,801.5628815628816,810.7855107855107,802.9059829059829,751.1965811965813
1624462225.9921875,806.0398860398861,801.6971916971918,810.2370777370777,803.476800976801,730.479242979243
1624462226.0,808.2783882783883,801.8315018315019,809.6886446886447,804.047619047619,709.7619047619048
1624462226.0078125,795.7875457875458,803.8461538461539,799.0109890109891,816.3369963369963,1063.736263736264
1624462226.015625,796.492673992674,803.9300976800978,799.2963980463982,814.339133089133,1021.327838827839
1624462226.0234375,797.1978021978023,804.0140415140415,799.5818070818071,812.3412698412698,978.919413919414
1624462226.03125,797.9029304029305,804.0979853479853,799.8672161172162,810.3434065934066,936.5109890109892
1624462226.0390625,798.6080586080586,804.1819291819291,800.1526251526253,808.3455433455433,894.1025641025641
1624462226.0468748,799.3131868131869,804.265873015873,800.4380341880343,806.34768009768,851.6941391941391
1624462226.0546875,800.0183150183151,804.3498168498168,800.7234432234434,804.3498168498168,809.2857142857142
1624462226.0625,798.0204517704518,803.4851953601953,803.2165750915752,803.6866605616605,789.0888278388278
1624462226.0703125,796.0225885225886,802.6205738705739,805.7097069597071,803.0235042735042,768.8919413919414
1624462226.078125,794.0247252747254,801.7559523809524,808.2028388278388,802.360347985348,748.695054945055
1624462226.0859375,792.0268620268621,800.891330891331,810.6959706959707,801.6971916971917,728.4981684981685
1624462226.09375,793.5602360602361,799.1005291005292,810.5616605616606,800.4436304436305,722.48778998779
1624462226.1015627,795.0936100936101,797.3097273097274,810.4273504273505,799.1900691900692,716.4774114774115
1624462226.109375,796.6269841269841,795.5189255189256,810.2930402930403,797.936507936508,710.467032967033
1624462226.1171875,798.1603581603582,793.7281237281238,810.1587301587301,796.6829466829467,704.4566544566545
1624462226.125,799.6937321937322,791.9373219373219,810.02442002442,795.4293854293854,698.4462759462759
1624462226.1328125,801.2271062271062,790.1465201465202,809.8901098901099,794.1758241758242,692.4358974358975
1624462226.140625,788.1318681318681,799.8168498168499,810.6959706959707,807.8754578754579,973.882783882784
1624462226.1484375,788.1542531542532,800.1302401302402,811.0765160765161,804.3833943833944,948.1623931623932
1624462226.15625,788.1766381766382,800.4436304436305,811.4570614570614,800.8913308913309,922.4420024420024
1624462226.1640625,788.1990231990233,800.7570207570208,811.8376068376068,797.3992673992675,896.7216117216118
1624462226.171875,788.2214082214083,801.0704110704111,812.2181522181522,793.907203907204,871.0012210012211
1624462226.1796875,788.2437932437933,801.3838013838014,812.5986975986975,790.4151404151405,845.2808302808303
1624462226.1875,788.2661782661784,801.6971916971917,812.9792429792429,786.923076923077,819.5604395604396
1624462226.1953125,783.2823129251701,804.234693877551,813.4013605442177,783.3398744113031,804.6664050235479
1624462226.203125,778.298447584162,806.7721960579104,813.8234781091924,779.7566718995291,789.7723704866562
1624462226.2109375,773.3145822431537,809.3096982382697,814.2455956741671,776.1734693877552,774.8783359497645
1624462226.21875,768.3307169021456,811.847200418629,814.6677132391418,772.5902668759812,759.9843014128729
1624462226.2265625,763.3468515611373,814.3847025989883,815.0898308041166,769.0070643642073,745.0902668759812
1624462226.234375,758.3629862201292,816.9222047793477,815.5119483690912,765.4238618524333,730.1962323390895
1624462226.2421875,753.3791208791209,819.459706959707,815.934065934066,761.8406593406594,715.3021978021978
1624462226.2499998,745.8745421245421,824.1773504273505,818.4859584859586,751.8513431013431,740.5357142857143
1624462226.2578125,738.3699633699634,828.894993894994,821.037851037851,741.8620268620269,765.7692307692308
1624462226.265625,730.8653846153846,833.6126373626373,823.5897435897436,731.8727106227107,791.0027472527472
1624462226.2734375,723.3608058608058,838.3302808302808,826.1416361416362,721.8833943833944,816.2362637362637
1624462226.28125,715.8562271062272,843.0479242979243,828.6935286935287,711.8940781440782,841.4697802197802
1624462226.2890625,708.3516483516484,847.7655677655678,831.2454212454213,701.9047619047619,866.7032967032967
1624462226.296875,677.4603174603175,880.5372405372406,827.4847374847374,674.9084249084249,858.7789987789989
1624462226.3046875,679.1951566951567,877.3026048026048,820.7804232804232,680.3144078144078,883.0107855107857
1624462226.3125,680.9299959299959,874.0679690679691,814.0761090761091,685.7203907203907,907.2425722425724
1624462226.3203125,682.6648351648352,870.8333333333334,807.3717948717949,691.1263736263736,931.4743589743592
1624462226.328125,704.339133089133,860.709706959707,808.1272893772895,712.699938949939,882.7701465201467
1624462226.3359375,726.013431013431,850.5860805860806,808.8827838827839,734.2735042735043,834.0659340659341
1624462226.34375,747.6877289377289,840.4624542124543,809.6382783882784,755.8470695970695,785.3617216117217
1624462226.3515625,769.3620268620268,830.3388278388279,810.393772893773,777.4206349206349,736.6575091575093
1624462226.359375,791.0363247863248,820.2152014652015,811.1492673992674,798.9942002442003,687.9532967032967
1624462226.3671875,812.7106227106227,810.0915750915751,811.9047619047619,820.5677655677656,639.2490842490843
1624462226.375,845.5494505494505,803.4432234432235,801.4285714285716,866.0989010989011,966.0256410256408
1624462226.3828125,851.7389092389092,801.1599511599512,800.9808709808711,867.7889702889703,923.639601139601
1624462226.390625,857.928367928368,798.876678876679,800.5331705331706,869.4790394790396,881.2535612535612
1624462226.3984373,864.1178266178266,796.5934065934066,800.0854700854702,871.1691086691087,838.8675213675212
1624462226.40625,870.3072853072853,794.3101343101343,799.6377696377698,872.8591778591779,796.4814814814814
1624462226.4140625,876.496743996744,792.0268620268621,799.1900691900693,874.5492470492471,754.0954415954416
1624462226.421875,882.6862026862027,789.7435897435898,798.7423687423689,876.2393162393163,711.7094017094017
1624462226.4296875,881.7684167684167,790.2136752136753,799.1229141229143,876.3960113960114,727.1662596662597
1624462226.4375,880.8506308506309,790.6837606837607,799.5034595034596,876.5527065527066,742.6231176231177
1624462226.4453125,879.932844932845,791.1538461538462,799.884004884005,876.7094017094017,758.0799755799756
1624462226.4531252,879.015059015059,791.6239316239316,800.2645502645504,876.8660968660969,773.5368335368336
1624462226.4609375,878.097273097273,792.0940170940171,800.6450956450957,877.022792022792,788.9936914936916
