timestamp,RAW_TP9,RAW_AF7,RAW_AF8,RAW_TP10,AUX_RIGHT
1624461468.8203125,795.770757020757,780.8623321123322,771.4186507936508,802.9815323565323,798.6164529914531
1624461468.828125,797.1642246642245,781.9871794871796,769.9832112332113,801.814713064713,799.2628205128207
1624461468.8359375,798.5576923076923,783.1120268620269,768.5477716727718,800.6478937728937,799.9091880341881
1624461468.84375,799.9511599511599,784.2368742368743,767.1123321123322,799.4810744810744,800.5555555555557
1624461468.8515625,800.5387667887667,783.1456043956044,765.9455128205129,798.7675518925519,812.6854395604397
1624461468.859375,801.1263736263736,782.0543345543346,764.7786935286936,798.0540293040292,824.8153235653236
1624461468.8671875,801.7139804639804,780.9630647130647,763.6118742368743,797.3405067155066,836.9452075702077
1624461468.875,802.3015873015872,779.8717948717949,762.4450549450551,796.6269841269841,849.0750915750916
1624461468.8828125,802.8891941391942,778.780525030525,761.2782356532357,795.9134615384615,861.2049755799757
1624461468.890625,803.476800976801,777.6892551892552,760.1114163614164,795.199938949939,873.3348595848597
1624461468.8984373,804.0644078144079,776.5979853479853,758.9445970695971,794.4864163614163,885.4647435897436
1624461468.90625,804.6520146520147,775.5067155067154,757.7777777777778,793.7728937728938,897.5946275946277
1624461468.9140625,804.1231684981685,775.0198412698412,758.5500610500611,794.4150641025641,880.3735500610502
1624461468.921875,803.5943223443223,774.532967032967,759.3223443223444,795.0572344322345,863.1524725274726
1624461468.9296875,803.0654761904763,774.0460927960928,760.0946275946276,795.6994047619048,845.9313949938951
1624461468.9375,802.5366300366301,773.5592185592186,760.8669108669109,796.3415750915751,828.7103174603176
1624461468.9453125,802.0077838827839,773.0723443223443,761.6391941391942,796.9837454212454,811.48923992674
1624461468.9531252,801.4789377289378,772.5854700854701,762.4114774114773,797.6259157509157,794.2681623931625
1624461468.9609375,800.9500915750916,772.0985958485959,763.1837606837606,798.2680860805862,777.0470848595849
1624461468.96875,800.4212454212454,771.6117216117217,763.9560439560439,798.9102564102565,759.8260073260074
1624461468.9765625,802.1193092621664,773.3385661957092,764.7043432757719,800.8241758241759,822.294610151753
1624461468.984375,803.8173731030874,775.0654107796965,765.4526425954997,802.7380952380953,884.7632129774987
1624461468.9921875,805.5154369440085,776.792255363684,766.2009419152276,804.6520146520147,947.2318158032444
1624461469.0,807.2135007849294,778.5190999476714,766.9492412349555,806.5659340659341,1009.70041862899
1624461469.0078125,808.9115646258504,780.2459445316589,767.6975405546834,808.4798534798535,1072.1690214547357
1624461469.015625,810.6096284667714,781.9727891156463,768.4458398744113,810.393772893773,1134.6376242804813
1624461469.0234375,812.3076923076924,783.6996336996338,769.1941391941392,812.3076923076924,1197.106227106227
1624461469.03125,826.7124542124543,778.9652014652015,779.3177655677656,821.2225274725274,814.7756410256411
1624461469.0390625,824.3242521367522,778.5664682539683,778.2034111721612,819.2855235042734,802.3960241147741
1624461469.0468748,821.9360500610501,778.1677350427351,777.0890567765568,817.3485195360195,790.0164072039073
1624461469.0546875,819.547847985348,777.7690018315019,775.9747023809524,815.4115155677655,777.6367902930403
1624461469.0625,817.1596459096459,777.3702686202687,774.860347985348,813.4745115995115,765.2571733821735
1624461469.0703125,814.7714438339439,776.9715354090355,773.7459935897436,811.5375076312577,752.8775564713065
1624461469.078125,812.3832417582418,776.5728021978023,772.6316391941392,809.6005036630037,740.4979395604396
1624461469.0859375,809.9950396825396,776.1740689865691,771.5172847985349,807.6634996947497,728.1183226495727
1624461469.09375,807.6068376068375,775.7753357753359,770.4029304029305,805.7264957264957,715.7387057387058
1624461469.1015627,807.2374847374847,776.2370268620269,770.919184981685,805.1011141636142,722.4835927960928
1624461469.109375,806.8681318681319,776.698717948718,771.4354395604396,804.4757326007326,729.2284798534799
1624461469.1171875,806.498778998779,777.1604090354091,771.9516941391942,803.850351037851,735.973366910867
1624461469.125,806.1294261294261,777.6221001221002,772.4679487179487,803.2249694749695,742.718253968254
1624461469.1328125,805.7600732600732,778.0837912087912,772.9842032967033,802.5995879120879,749.463141025641
1624461469.140625,805.3907203907204,778.5454822954823,773.5004578754579,801.9742063492064,756.208028083028
1624461469.1484375,805.0213675213676,779.0071733821734,774.0167124542124,801.3488247863248,762.9529151404151
1624461469.15625,804.6520146520147,779.4688644688645,774.532967032967,800.7234432234433,769.6978021978022
1624461469.1640625,802.2764041514042,775.322039072039,772.1531593406594,800.0476953601953,771.7586233211233
1624461469.171875,799.9007936507937,771.1752136752137,769.7733516483516,799.3719474969475,773.8194444444445
1624461469.1796875,797.5251831501832,767.0283882783883,767.3935439560439,798.6961996336997,775.8802655677656
1624461469.1875,795.1495726495727,762.881562881563,765.0137362637363,798.0204517704518,777.9410866910866
1624461469.1953125,792.7739621489621,758.7347374847376,762.6339285714287,797.3447039072039,780.0019078144078
1624461469.203125,790.3983516483516,754.5879120879122,760.2541208791209,796.6689560439561,782.0627289377289
1624461469.2109375,788.0227411477412,750.4410866910869,757.8743131868132,795.9932081807083,784.1235500610501
1624461469.21875,785.6471306471307,746.2942612942614,755.4945054945056,795.3174603174604,786.1843711843712
1624461469.2265625,786.4182147217862,746.3218428397001,754.9045002616432,795.4481728588872,793.4359192394908
1624461469.234375,787.1892987964417,746.3494243851388,754.3144950287808,795.578885400314,800.6874672946102
1624461469.2421875,787.9603828710972,746.3770059305775,753.7244897959184,795.7095979417409,807.9390153497297
1624461469.2499998,788.7314669457527,746.4045874760161,753.134484563056,795.8403104831677,815.1905634048492
1624461469.2578125,789.5025510204082,746.4321690214548,752.5444793301937,795.9710230245946,822.4421114599687
1624461469.265625,790.2736350950637,746.4597505668935,751.9544740973313,796.1017355660215,829.6936595150883
1624461469.2734375,791.0447191697192,746.4873321123322,751.3644688644689,796.2324481074482,836.9452075702077
1624461469.28125,791.8158032443747,746.5149136577709,750.7744636316065,796.3631606488751,844.1967556253272
1624461469.2890625,792.3626373626374,746.7811355311355,752.7369505494506,797.8651556776558,836.5842490842492
1624461469.296875,792.9094714809,747.0473574045003,754.6994374672946,799.3671507064365,828.9717425431712
1624461469.3046875,793.4563055991628,747.3135792778651,756.6619243851387,800.8691457352172,821.3592360020932
1624461469.3125,794.0031397174255,747.5798011512297,758.6244113029827,802.371140763998,813.7467294610153
1624461469.3203125,794.5499738356881,747.8460230245944,760.5868982208268,803.8731357927787,806.1342229199373
1624461469.328125,795.0968079539508,748.1122448979592,762.5493851386709,805.3751308215594,798.5217163788593
1624461469.3359375,795.6436420722134,748.3784667713239,764.5118720565149,806.8771258503401,790.9092098377813
1624461469.34375,796.1904761904761,748.6446886446886,766.474358974359,808.3791208791208,783.2967032967033
1624461469.3515625,795.9554334554334,748.6698717948717,766.5792887667887,807.7117673992674,795.2838827838827
1624461469.359375,795.7203907203907,748.695054945055,766.6842185592186,807.0444139194138,807.2710622710623
1624461469.3671875,795.485347985348,748.7202380952381,766.7891483516484,806.3770604395604,819.2582417582418
1624461469.375,795.2503052503052,748.7454212454213,766.8940781440781,805.7097069597069,831.2454212454213
1624461469.3828125,795.0152625152625,748.7706043956044,766.999007936508,805.0423534798534,843.2326007326008
1624461469.390625,794.7802197802198,748.7957875457876,767.1039377289377,804.375,855.2197802197802
1624461469.3984373,794.5451770451771,748.8209706959708,767.2088675213676,803.7076465201465,867.2069597069598
1624461469.40625,794.3101343101343,748.8461538461539,767.3137973137973,803.040293040293,879.1941391941392
1624461469.4140625,793.8526404151404,746.6426282051283,767.7503052503052,801.8063186813187,876.8772893772893
1624461469.421875,793.3951465201466,744.4391025641027,768.1868131868132,800.5723443223443,874.5604395604396
1624461469.4296875,792.9376526251526,742.235576923077,768.6233211233211,799.3383699633699,872.2435897435898
1624461469.4375,792.4801587301588,740.0320512820513,769.0598290598291,798.1043956043956,869.92673992674
1624461469.4453125,792.0226648351648,737.8285256410256,769.4963369963369,796.8704212454212,867.6098901098901
1624461469.4531252,791.5651709401709,735.625,769.9328449328449,795.6364468864468,865.2930402930403
1624461469.4609375,791.1076770451771,733.4214743589744,770.3693528693528,794.4024725274725,862.9761904761906
1624461469.46875,790.6501831501831,731.2179487179487,770.8058608058608,793.1684981684981,860.6593406593407
1624461469.4765625,791.7120726495726,731.0626526251526,769.2948717948718,792.7907509157509,848.9407814407815
1624461469.484375,792.7739621489621,730.9073565323565,767.7838827838827,792.4130036630036,837.2222222222223
1624461469.4921875,793.8358516483516,730.7520604395604,766.2728937728938,792.0352564102564,825.5036630036631
1624461469.5,794.8977411477412,730.5967643467643,764.7619047619048,791.6575091575091,813.7851037851038
1624461469.5078125,795.9596306471307,730.4414682539683,763.2509157509157,791.2797619047619,802.0665445665446
1624461469.515625,797.0215201465202,730.2861721611722,761.7399267399268,790.9020146520147,790.3479853479854
1624461469.5234375,798.0834096459097,730.1308760683761,760.2289377289377,790.5242673992674,778.6294261294262
1624461469.53125,799.1452991452992,729.97557997558,758.7179487179487,790.1465201465202,766.910866910867
1624461469.5390625,798.4065934065934,731.2899005756149,758.0272108843537,792.7655677655678,790.4055468341184
1624461469.5468748,797.6678876678877,732.6042211756497,757.3364730507587,795.3846153846155,813.9002267573696
1624461469.5546875,796.9291819291819,733.9185417756846,756.6457352171637,798.0036630036631,837.394906680621
1624461469.5625,796.1904761904763,735.2328623757195,755.9549973835689,800.6227106227107,860.8895866038723
1624461469.5703125,795.4517704517705,736.5471829757544,755.2642595499739,803.2417582417582,884.3842665271237
1624461469.578125,794.7130647130648,737.8615035757892,754.5735217163789,805.860805860806,907.878946450375
1624461469.5859375,793.974358974359,739.1758241758241,753.8827838827839,808.4798534798535,931.3736263736264
1624461469.59375,806.6666666666667,761.1355311355312,767.1794871794873,808.2783882783883,748.0402930402931
1624461469.6015627,803.2492199158867,760.4042870709538,767.2839506172841,806.8606701940035,751.2711979378647
1624461469.609375,799.8317731651066,759.6730430063765,767.3884140550808,805.4429521096188,754.5021028354363
1624461469.6171875,796.4143264143265,758.941798941799,767.4928774928776,804.0252340252341,757.7330077330079
1624461469.625,792.9968796635465,758.2105548772216,767.5973409306744,802.6075159408493,760.9639126305794
1624461469.6328125,789.5794329127663,757.4793108126443,767.7018043684711,801.1897978564646,764.1948175281509
1624461469.640625,786.1619861619862,756.7480667480669,767.8062678062679,799.7720797720798,767.4257224257225
1624461469.6484375,782.7445394112061,756.0168226834894,767.9107312440647,798.3543616876951,770.6566273232941
1624461469.65625,779.327092660426,755.285578618912,768.0151946818614,796.9366436033104,773.8875322208656
1624461469.6640625,775.909645909646,754.5543345543347,768.1196581196582,795.5189255189256,777.1184371184372
1624461469.671875,776.957264957265,755.3064713064714,768.3345543345544,792.7521367521368,779.5897435897436
1624461469.6796875,778.004884004884,756.0586080586081,768.5494505494506,789.9853479853481,782.0610500610501
1624461469.6875,779.0525030525031,756.8107448107448,768.7643467643468,787.2185592185592,784.5323565323566
1624461469.6953125,780.1001221001221,757.5628815628816,768.979242979243,784.4517704517705,787.0036630036631
1624461469.703125,781.1477411477412,758.3150183150183,769.1941391941392,781.6849816849817,789.4749694749695
1624461469.7109375,797.8021978021978,757.9120879120879,757.5091575091575,785.3113553113553,753.8827838827839
1624461469.71875,792.3122710622711,758.5164835164835,758.4661172161173,791.5064102564103,781.7857142857142
1624461469.7265625,786.8223443223444,759.1208791208792,759.4230769230769,797.7014652014652,809.6886446886447
1624461469.734375,781.3324175824176,759.7252747252747,760.3800366300366,803.8965201465202,837.5915750915751
1624461469.7421875,775.8424908424909,760.3296703296703,761.3369963369963,810.0915750915751,865.4945054945055
1624461469.7500002,783.0952380952381,754.2857142857142,773.6263736263736,808.0769230769231,833.0586080586081
1624461469.7578125,784.9587912087912,754.235347985348,772.0650183150183,804.9038461538462,829.7344322344322
1624461469.765625,786.8223443223444,754.1849816849817,770.503663003663,801.7307692307693,826.4102564102565
1624461469.7734375,788.6858974358975,754.1346153846154,768.9423076923077,798.5576923076924,823.0860805860807
1624461469.78125,790.5494505494506,754.0842490842491,767.3809523809524,795.3846153846155,819.7619047619048
1624461469.7890625,789.3406593406594,745.8241758241759,771.8131868131868,803.4432234432235,865.0915750915751
1624461469.796875,796.7948717948718,746.9322344322345,770.6547619047619,798.9102564102565,856.1263736263736
1624461469.8046875,804.2490842490843,748.0402930402931,769.496336996337,794.3772893772893,847.1611721611722
1624461469.8125,811.7032967032967,749.1483516483516,768.3379120879121,789.8443223443223,838.1959706959708
1624461469.8203125,819.1575091575091,750.2564102564103,767.1794871794872,785.3113553113553,829.2307692307693
1624461469.828125,773.6263736263736,759.1208791208792,754.4871794871794,777.6556776556777,996.043956043956
1624461469.8359375,774.3717948717948,757.6300366300367,754.1849816849817,781.2619047619048,941.9102564102564
1624461469.84375,775.1172161172161,756.1391941391942,753.8827838827839,784.8681318681319,887.7765567765567
1624461469.8515625,775.8626373626373,754.6483516483518,753.5805860805862,788.474358974359,833.6428571428571
1624461469.859375,776.6080586080586,753.1575091575093,753.2783882783883,792.080586080586,779.5091575091575
1624461469.8671875,777.3534798534798,751.6666666666667,752.9761904761906,795.6868131868132,725.3754578754579
1624461469.875,782.1080586080586,753.6813186813188,754.9102564102565,794.014652014652,763.532967032967
1624461469.8828125,786.8626373626374,755.6959706959708,756.8443223443224,792.3424908424909,801.6904761904761
1624461469.890625,791.6172161172161,757.7106227106228,758.7783882783883,790.6703296703297,839.8479853479853
1624461469.8984373,796.3717948717949,759.7252747252749,760.7124542124543,788.9981684981685,878.0054945054945
1624461469.90625,801.1263736263737,761.7399267399269,762.6465201465202,787.3260073260074,916.1630036630036
1624461469.9140625,800.2197802197803,760.866910866911,762.6577126577126,787.4155474155474,935.5148555148556
1624461469.921875,799.3131868131869,759.9938949938951,762.6689051689052,787.5050875050875,954.8667073667074
1624461469.9296875,798.4065934065935,759.1208791208792,762.6800976800977,787.5946275946276,974.2185592185592
1624461469.9375,797.5000000000001,758.2478632478633,762.6912901912902,787.6841676841677,993.570411070411
1624461469.9453125,796.5934065934066,757.3748473748475,762.7024827024827,787.7737077737078,1012.9222629222628
1624461469.9531252,795.6868131868132,756.5018315018316,762.7136752136753,787.8632478632479,1032.2741147741149
1624461469.9609375,794.7802197802198,755.6288156288157,762.7248677248677,787.952787952788,1051.6259666259664
1624461469.96875,793.8736263736264,754.7557997557998,762.7360602360603,788.0423280423281,1070.9778184778183
1624461469.9765625,792.967032967033,753.8827838827839,762.7472527472528,788.1318681318681,1090.32967032967
1624461469.984375,821.3736263736264,765.5677655677655,762.1428571428571,801.0256410256411,855.2197802197802
1624461469.9921875,815.782967032967,764.7619047619047,762.797619047619,806.868131868132,795.2335164835165
1624461470.0,810.1923076923077,763.9560439560439,763.452380952381,812.7106227106228,735.2472527472528
1624461470.0078125,804.6016483516485,763.1501831501831,764.1071428571429,818.5531135531136,675.260989010989
1624461470.015625,799.0109890109891,762.3443223443223,764.7619047619048,824.3956043956044,615.2747252747253
1624461470.0234375,799.6825396825398,754.8229548229548,758.0463980463982,808.2783882783883,742.869352869353
1624461470.03125,804.9542124542126,751.9688644688645,760.934065934066,805.8608058608058,748.1410256410257
1624461470.0390625,810.2258852258853,749.114774114774,763.8217338217339,803.4432234432235,753.4126984126985
1624461470.0468748,815.497557997558,746.2606837606837,766.7094017094018,801.0256410256411,758.6843711843712
1624461470.0546875,820.7692307692308,743.4065934065934,769.5970695970697,798.6080586080586,763.956043956044
1624461470.0625,807.2039072039073,745.4212454212455,773.7606837606837,795.921855921856,718.4249084249085
1624461470.0703125,807.0763125763126,746.912087912088,773.0286935286935,797.1037851037852,722.3333333333334
1624461470.078125,806.948717948718,748.4029304029305,772.2967032967033,798.2857142857143,726.2417582417582
1624461470.0859375,806.8211233211233,749.893772893773,771.564713064713,799.4676434676435,730.1501831501832
1624461470.09375,806.6935286935287,751.3846153846154,770.8327228327229,800.6495726495726,734.0586080586081
1624461470.1015627,806.565934065934,752.8754578754579,770.1007326007326,801.8315018315018,737.967032967033
1624461470.109375,803.8998778998779,753.8290598290598,772.6056166056167,801.4285714285713,725.2478632478633
1624461470.1171875,801.2338217338217,754.7826617826618,775.1105006105006,801.025641025641,712.5286935286936
1624461470.125,798.5677655677656,755.7362637362638,777.6153846153846,800.6227106227105,699.8095238095239
1624461470.1328125,795.9017094017095,756.6898656898658,780.1202686202686,800.2197802197802,687.0903540903541
1624461470.140625,793.2356532356533,757.6434676434677,782.6251526251526,799.8168498168498,674.3711843711844
1624461470.1484375,797.1951159951161,758.0034188034189,784.4517704517705,799.8168498168498,652.6398046398047
1624461470.15625,801.1545787545789,758.36336996337,786.2783882783883,799.8168498168499,630.9084249084249
1624461470.1640625,805.1140415140416,758.723321123321,788.1050061050062,799.8168498168499,609.1770451770451
1624461470.171875,809.0735042735043,759.0832722832722,789.931623931624,799.81684981685,587.4456654456654
1624461470.1796875,813.0329670329671,759.4432234432234,791.7582417582419,799.81684981685,565.7142857142857
1624461470.1875,816.0985958485959,758.1101953601953,792.1947496947498,805.1808608058609,591.5186202686202
1624461470.1953125,819.1642246642248,756.7771672771672,792.6312576312578,810.5448717948718,617.3229548229548
1624461470.203125,822.2298534798535,755.4441391941391,793.0677655677656,815.9088827838829,643.1272893772893
1624461470.2109375,825.2954822954823,754.1111111111111,793.5042735042736,821.2728937728938,668.9316239316239
1624461470.21875,828.3611111111111,752.7780830280831,793.9407814407815,826.6369047619047,694.7359584859585
1624461470.2265625,831.4267399267399,751.445054945055,794.3772893772893,832.0009157509157,720.540293040293
1624461470.234375,834.4923687423687,750.1120268620268,794.8137973137973,837.3649267399267,746.3446275946276
1624461470.2421875,837.5579975579975,748.7789987789988,795.2503052503052,842.7289377289376,772.1489621489621
1624461470.2499998,835.6734584859585,750.0591422466423,794.1464438339439,837.087912087912,773.1394993894994
1624461470.2578125,833.7889194139194,751.3392857142858,793.0425824175824,831.4468864468863,774.1300366300367
1624461470.265625,831.9043803418804,752.6194291819293,791.938721001221,825.8058608058607,775.1205738705739
1624461470.2734375,830.0198412698412,753.8995726495727,790.8348595848595,820.164835164835,776.1111111111111
1624461470.28125,828.1353021978022,755.1797161172161,789.7309981684981,814.5238095238095,777.1016483516484
1624461470.2890625,826.2507631257631,756.4598595848596,788.6271367521367,808.8827838827839,778.0921855921856
1624461470.296875,824.3662240537241,757.7400030525031,787.5232753357752,803.2417582417582,779.0827228327229
1624461470.3046875,822.481684981685,759.0201465201466,786.4194139194138,797.6007326007326,780.0732600732601
1624461470.3125,819.8194662480378,757.9408686551544,784.4191522762951,800.9680795395082,766.3736263736264
1624461470.3203125,817.1572475143904,756.8615907901623,782.4188906331763,804.3354264782836,752.6739926739928
1624461470.328125,814.4950287807432,755.7823129251701,780.4186289900575,807.7027734170591,738.974358974359
1624461470.3359375,811.8328100470958,754.703035060178,778.4183673469388,811.0701203558347,725.2747252747254
1624461470.34375,809.1705913134485,753.6237571951858,776.4181057038201,814.4374672946102,711.5750915750916
1624461470.3515625,806.5083725798012,752.5444793301937,774.4178440607012,817.8048142333856,697.8754578754579
1624461470.359375,803.8461538461539,751.4652014652015,772.4175824175825,821.1721611721612,684.1758241758242
1624461470.3671875,822.1794871794872,735.5494505494505,772.014652014652,828.6263736263736,821.3736263736264
1624461470.375,820.4814233385662,736.4416535845107,772.8205128205128,828.3673469387755,811.2715855572999
1624461470.3828125,818.7833594976453,737.3338566195708,773.6263736263736,828.1083202511774,801.1695447409734
1624461470.390625,817.0852956567243,738.2260596546311,774.4322344322344,827.8492935635793,791.0675039246469
1624461470.3984373,815.3872318158033,739.1182626896913,775.2380952380953,827.5902668759811,780.9654631083203
1624461470.40625,813.6891679748823,740.0104657247515,776.0439560439561,827.331240188383,770.8634222919937
1624461470.4140625,811.9911041339614,740.9026687598116,776.8498168498169,827.0722135007849,760.7613814756672
1624461470.421875,810.2930402930403,741.7948717948718,777.6556776556777,826.8131868131868,750.6593406593407
1624461470.4296875,810.3736263736264,749.6117216117216,769.032967032967,798.4468864468865,712.2197802197802
1624461470.4375,808.6762820512821,749.851800976801,769.2545787545787,798.4922161172162,721.5912698412699
1624461470.4453125,806.9789377289377,750.0918803418804,769.4761904761905,798.5375457875459,730.9627594627594
1624461470.4531252,805.2815934065934,750.3319597069597,769.6978021978022,798.5828754578755,740.3342490842491
1624461470.4609375,803.584249084249,750.572039072039,769.919413919414,798.6282051282052,749.7057387057387
1624461470.46875,801.8869047619047,750.8121184371184,770.1410256410256,798.6735347985349,759.0772283272283
1624461470.4765625,800.1895604395604,751.0521978021977,770.3626373626373,798.7188644688645,768.448717948718
1624461470.484375,798.492216117216,751.2922771672771,770.5842490842491,798.7641941391942,777.8202075702076
1624461470.4921875,796.7948717948717,751.5323565323565,770.8058608058608,798.8095238095239,787.1916971916972
1624461470.5,797.6115253793824,751.6678658642944,770.6763474620617,797.5899398220827,784.1361416361417
1624461470.5078125,798.4281789638932,751.8033751962323,770.5468341182627,796.3703558346416,781.0805860805862
1624461470.515625,799.2448325484039,751.9388845281702,770.4173207744636,795.1507718472004,778.0250305250306
1624461470.5234375,800.0614861329148,752.0743938601081,770.2878074306645,793.9311878597593,774.969474969475
1624461470.53125,800.8781397174255,752.2099031920461,770.1582940868655,792.7116038723182,771.9139194139194
1624461470.5390625,801.6947933019362,752.345412523984,770.0287807430664,791.492019884877,768.8583638583639
1624461470.5468748,802.511446886447,752.4809218559219,769.8992673992674,790.2724358974359,765.8028083028083
1624461470.5546875,803.3281004709577,752.6164311878598,769.7697540554683,789.0528519099947,762.7472527472528
1624461470.5625,765.5677655677656,751.8681318681319,784.1025641025641,772.014652014652,771.2087912087912
1624461470.5703125,761.5096807953951,751.8969126111983,783.526949241235,765.7692307692308,774.1732077446363
1624461470.578125,757.4515960230246,751.9256933542648,782.9513343799058,759.5238095238095,777.1376242804814
1624461470.5859375,753.3935112506541,751.9544740973313,782.3757195185767,753.2783882783883,780.1020408163265
1624461470.59375,749.3354264782836,751.9832548403976,781.8001046572475,747.032967032967,783.0664573521717
1624461470.6015627,745.277341705913,752.0120355834641,781.2244897959184,740.7875457875458,786.0308738880168
1624461470.609375,741.2192569335426,752.0408163265306,780.6488749345892,734.5421245421245,788.9952904238619
1624461470.6171875,737.1611721611721,752.0695970695971,780.0732600732601,728.2967032967033,791.959706959707
1624461470.625,766.910866910867,741.7948717948717,757.7777777777778,762.7472527472528,793.7728937728938
1624461470.6328125,768.5321821036107,741.7085295656724,755.8110936682366,764.7043432757719,782.6059654631083
1624461470.640625,770.1534972963545,741.622187336473,753.8444095586954,766.661433804291,771.4390371533229
1624461470.6484375,771.7748124890983,741.5358451072736,751.8777254491541,768.6185243328101,760.2721088435375
1624461470.65625,773.396127681842,741.4495028780742,749.9110413396128,770.5756148613292,749.105180533752
1624461470.6640625,775.0174428745858,741.3631606488749,747.9443572300715,772.5327053898483,737.9382522239665
1624461470.671875,776.6387580673296,741.2768184196755,745.9776731205303,774.4897959183675,726.7713239141812
1624461470.6796875,778.2600732600733,741.1904761904761,744.0109890109891,776.4468864468865,715.6043956043957
1624461470.6875,801.0256410256411,742.1978021978024,758.5836385836386,791.6239316239316,842.5274725274726
1624461470.6953125,800.4500261643119,741.0465724751441,758.0272108843537,790.2904238618524,829.2307692307693
1624461470.703125,799.8744113029828,739.8953427524857,757.470783185069,788.9569160997733,815.934065934066
1624461470.7109375,799.2987964416536,738.7441130298274,756.9143554857841,787.6234083376941,802.6373626373627
1624461470.71875,798.7231815803245,737.5928833071691,756.3579277864992,786.2899005756149,789.3406593406594
1624461470.7265625,798.1475667189953,736.4416535845108,755.8015000872143,784.9563928135357,776.0439560439561
1624461470.734375,797.5719518576662,735.2904238618524,755.2450723879296,783.6228850514565,762.7472527472528
1624461470.7421875,796.996336996337,734.1391941391942,754.6886446886447,782.2893772893773,749.4505494505495
1624461470.7500002,787.7289377289378,753.8827838827839,771.2087912087912,823.992673992674,1114.102564102564
1624461470.7578125,788.7650444793303,753.4222919937206,771.5973312401884,821.7046049188906,1071.1473050758764
1624461470.765625,789.8011512297227,752.9618001046572,771.9858712715856,819.4165358451073,1028.1920460491888
1624461470.7734375,790.8372579801152,752.5013082155939,772.3744113029827,817.1284667713239,985.2367870225012
1624461470.78125,791.8733647305077,752.0408163265306,772.76295133438,814.8403976975405,942.2815279958136
1624461470.7890625,792.9094714809002,751.5803244374673,773.1514913657771,812.5523286237571,899.3262689691262
1624461470.796875,793.9455782312925,751.1198325484039,773.5400313971743,810.2642595499739,856.3710099424386
1624461470.8046875,794.981684981685,750.6593406593406,773.9285714285714,807.9761904761905,813.415750915751
1624461470.8125,798.003663003663,748.4432234432235,779.0659340659341,784.9084249084249,992.4175824175824
1624461470.8203125,798.8958660387232,748.6446886446887,778.9795918367348,787.0094191522762,1030.2354788069074
1624461470.828125,799.7880690737833,748.8461538461539,778.8932496075354,789.1104133961277,1068.0533751962323
1624461470.8359375,800.6802721088435,749.0476190476192,778.8069073783361,791.211407639979,1105.8712715855572
1624461470.84375,801.5724751439037,749.2490842490843,778.7205651491366,793.3124018838305,1143.689167974882
1624461470.8515625,802.4646781789639,749.4505494505495,778.6342229199373,795.4133961276818,1181.507064364207
1624461470.859375,803.356881214024,749.6520146520147,778.5478806907379,797.5143903715333,1219.324960753532
1624461470.8671875,804.2490842490843,749.8534798534799,778.4615384615386,799.6153846153846,1257.1428571428569
1624461470.875,805.2564102564103,750.4578754578755,783.4981684981685,794.981684981685,965.4212454212452
1624461470.8828125,799.3995290423862,750.4578754578755,781.2244897959184,793.9455782312925,940.612244897959
1624461470.890625,793.5426478283622,750.4578754578755,778.9508110936682,792.9094714809002,915.8032443746728
1624461470.8984373,787.6857666143381,750.4578754578755,776.6771323914181,791.8733647305077,890.9942438513866
1624461470.90625,781.828885400314,750.4578754578754,774.4034536891679,790.8372579801152,866.1852433281003
1624461470.9140625,775.97200418629,750.4578754578754,772.1297749869178,789.8011512297227,841.3762428048142
1624461470.921875,770.1151229722659,750.4578754578754,769.8560962846676,788.7650444793303,816.567242281528
1624461470.9296875,764.2582417582419,750.4578754578754,767.5824175824175,787.7289377289378,791.7582417582418
1624461470.9375,756.1492673992675,756.3507326007325,768.8541666666666,776.4846611721613,795.8756868131868
1624461470.9453125,748.0402930402931,762.2435897435896,770.1259157509157,765.2403846153848,799.9931318681319
1624461470.9531252,739.9313186813188,768.1364468864468,771.3976648351647,753.9961080586081,804.1105769230769
1624461470.9609375,731.8223443223444,774.029304029304,772.6694139194138,742.7518315018316,808.2280219780221
1624461470.96875,723.7133699633699,779.922161172161,773.941163003663,731.5075549450551,812.3454670329671
1624461470.9765625,715.6043956043956,785.8150183150183,775.212912087912,720.2632783882784,816.4629120879122
1624461470.984375,707.4954212454212,791.7078754578754,776.484661172161,709.0190018315019,820.5803571428572
1624461470.9921875,699.3864468864468,797.6007326007325,777.7564102564102,697.7747252747254,824.6978021978023
1624461471.0,687.6385073260072,801.7811355311354,779.4226953601952,689.1159188034189,826.3724816849817
1624461471.0078125,675.8905677655678,805.9615384615383,781.0889804639804,680.4571123321124,828.0471611721613
1624461471.015625,664.1426282051282,810.1419413919413,782.7552655677655,671.798305860806,829.7218406593407
1624461471.0234375,652.3946886446886,814.3223443223442,784.4215506715507,663.1394993894994,831.3965201465203
1624461471.03125,640.6467490842491,818.5027472527472,786.0878357753357,654.480692918193,833.0711996336997
1624461471.0390625,628.8988095238095,822.6831501831501,787.7541208791208,645.8218864468865,834.7458791208792
1624461471.0468748,617.15086996337,826.863553113553,789.420405982906,637.16307997558,836.4205586080587
1624461471.0546875,605.4029304029305,831.043956043956,791.0866910866911,628.5042735042736,838.0952380952382
1624461471.0625,625.188492063492,823.9003357753357,787.4771062271062,645.7043650793651,818.1501831501832
1624461471.0703125,644.9740537240538,816.7567155067154,783.8675213675214,662.9044566544567,798.2051282051283
1624461471.078125,664.7596153846155,809.6130952380952,780.2579365079365,680.1045482295483,778.2600732600733
1624461471.0859375,684.5451770451771,802.469474969475,776.6483516483516,697.3046398046398,758.3150183150184
1624461471.09375,704.3307387057387,795.3258547008547,773.0387667887668,714.5047313797313,738.3699633699634
1624461471.1015627,724.1163003663004,788.1822344322345,769.4291819291819,731.7048229548229,718.4249084249085
1624461471.109375,743.9018620268621,781.0386141636142,765.8195970695971,748.9049145299145,698.4798534798535
1624461471.1171875,763.6874236874237,773.894993894994,762.2100122100122,766.105006105006,678.5347985347986
1624461471.125,779.7278911564625,770.8058608058609,761.250654107797,779.2098377812663,697.0695970695971
1624461471.1328125,795.7683586255015,767.7167277167277,760.2912960055817,792.3146694575266,715.6043956043957
1624461471.140625,811.8088260945403,764.6275946275947,759.3319379033665,805.4195011337869,734.1391941391942
1624461471.1484375,827.8492935635793,761.5384615384615,758.3725798011512,818.5243328100471,752.6739926739928
1624461471.15625,843.8897610326181,758.4493284493285,757.413221698936,831.6291644863073,771.2087912087912
1624461471.1640625,859.9302285016571,755.3601953601953,756.4538635967207,844.7339961625677,789.7435897435898
1624461471.171875,875.9706959706959,752.2710622710623,755.4945054945055,857.8388278388279,808.2783882783883
1624461471.1875,888.5958485958487,746.841095412524,762.6513169370313,894.4479330193616,816.7783010640154
1624461471.1953125,891.3492063492065,742.4184545613117,763.5627071341357,896.4050235478808,807.1463457177744
1624461471.203125,894.1025641025642,737.9958137100995,764.4740973312403,898.3621140763998,797.5143903715333
1624461471.2109375,896.855921855922,733.5731728588872,765.3854875283447,900.3192046049189,787.8824350252922
1624461471.21875,899.6092796092797,729.150532007675,766.2968777254492,902.276295133438,778.2504796790512
1624461471.2265625,902.3626373626377,724.7278911564626,767.2082679225537,904.2333856619572,768.6185243328101
1624461471.234375,905.1159951159952,720.3052503052504,768.1196581196582,906.1904761904764,758.9865689865691
1624461471.2421875,876.105006105006,720.4395604395604,761.9413919413919,893.9682539682541,764.2246642246643
1624461471.2499998,873.8121402407116,721.7634746206174,761.193092621664,890.1308215593931,781.6274201988489
1624461471.2578125,871.5192743764172,723.0873888016745,760.4447933019361,886.2933891505321,799.0301761730334
1624461471.265625,869.2264085121228,724.4113029827315,759.6964939822083,882.4559567416711,816.432932147218
1624461471.2734375,866.9335426478283,725.7352171637887,758.9481946624803,878.6185243328101,833.8356881214025
1624461471.28125,864.6406767835339,727.0591313448457,758.1998953427525,874.7810919239491,851.2384440955872
1624461471.2890625,862.3478109192395,728.3830455259027,757.4515960230245,870.9436595150881,868.6412000697717
1624461471.296875,860.054945054945,729.7069597069598,756.7032967032967,867.1062271062272,886.0439560439563
1624461471.3046875,846.1538461538462,746.6300366300367,770.0,856.4285714285714,794.5787545787546
1624461471.3125,845.9811616954474,746.3422291993721,770.4604918890633,855.4644165358451,802.0617477760335
1624461471.3203125,845.8084772370487,746.0544217687076,770.9209837781267,854.5002616431188,809.5447409733124
1624461471.328125,845.6357927786499,745.766614338043,771.38147566719,853.5361067503925,817.0277341705913
1624461471.3359375,845.4631083202513,745.4788069073784,771.8419675562533,852.5719518576661,824.5107273678703
1624461471.34375,845.2904238618526,745.1909994767138,772.3024594453166,851.6077969649398,831.9937205651493
1624461471.3515625,845.1177394034538,744.9031920460493,772.76295133438,850.6436420722135,839.4767137624282
1624461471.359375,844.9450549450551,744.6153846153848,773.2234432234433,849.6794871794872,846.9597069597071
1624461471.3671875,826.8131868131868,763.5531135531136,776.6483516483518,842.3260073260074,1003.2967032967034
1624461471.375,827.9931972789116,764.9345892203036,776.6771323914182,837.893772893773,956.7870225013085
1624461471.3828125,829.1732077446363,766.3160648874934,776.7059131344846,833.4615384615385,910.2773417059132
1624461471.390625,830.3532182103611,767.6975405546834,776.7346938775511,829.0293040293041,863.7676609105181
1624461471.3984373,831.5332286760859,769.0790162218733,776.7634746206176,824.5970695970697,817.257980115123
1624461471.40625,832.7132391418106,770.4604918890633,776.792255363684,820.1648351648353,770.748299319728
1624461471.4140625,833.8932496075354,771.8419675562532,776.8210361067504,815.7326007326008,724.2386185243329
1624461471.421875,835.0732600732601,773.2234432234432,776.8498168498169,811.3003663003664,677.7289377289378
1624461471.4296875,808.6813186813187,748.6446886446887,766.7765567765568,794.5787545787546,625.3479853479854
1624461471.4375,809.703035060178,750.6449502878074,767.107535321821,797.0970695970695,644.4440083725799
1624461471.4453125,810.7247514390372,752.6452119309263,767.4385138670854,799.6153846153846,663.5400313971743
1624461471.4531252,811.7464678178965,754.645473574045,767.7694924123496,802.1336996336996,682.6360544217688
1624461471.4609375,812.7681841967557,756.6457352171639,768.1004709576139,804.6520146520146,701.7320774463632
1624461471.46875,813.789900575615,758.6459968602826,768.4314495028781,807.1703296703296,720.8281004709577
1624461471.4765625,814.8116169544742,760.6462585034014,768.7624280481424,809.6886446886447,739.9241234955521
1624461471.484375,815.8333333333335,762.6465201465202,769.0934065934066,812.2069597069597,759.0201465201466
1624461471.4921875,813.8816391941393,761.2824328449328,766.957036019536,810.5910409035408,780.2369505494506
1624461471.5,811.9299450549452,759.9183455433456,764.8206654456654,808.975122100122,801.4537545787546
1624461471.5078125,809.978250915751,758.5542582417582,762.6842948717949,807.3592032967033,822.6705586080586
1624461471.515625,808.0265567765568,757.1901709401709,760.5479242979243,805.7432844932845,843.8873626373627
1624461471.5234375,806.0748626373628,755.8260836385836,758.4115537240536,804.1273656898657,865.1041666666666
1624461471.53125,804.1231684981686,754.4619963369962,756.2751831501831,802.511446886447,886.3209706959707
1624461471.5390625,802.1714743589745,753.097909035409,754.1388125763126,800.8955280830281,907.5377747252746
1624461471.5468748,800.2197802197803,751.7338217338216,752.002442002442,799.2796092796093,928.7545787545788
1624461471.5546875,799.5750915750916,750.3101343101342,750.6862026862027,800.3742368742369,912.1941391941392
1624461471.5625,798.930402930403,748.8864468864468,749.3699633699633,801.4688644688645,895.6336996336996
1624461471.5703125,798.2857142857143,747.4627594627594,748.0537240537241,802.5634920634922,879.07326007326
1624461471.578125,797.6410256410257,746.039072039072,746.7374847374847,803.6581196581197,862.5128205128206
1624461471.5859375,796.996336996337,744.6153846153846,745.4212454212454,804.7527472527473,845.952380952381
1624461471.59375,798.2655677655678,746.257326007326,748.0705128205128,806.2813644688646,844.2046703296703
1624461471.6015627,799.5347985347985,747.8992673992675,750.7197802197802,807.8099816849817,842.4569597069598
1624461471.609375,800.8040293040293,749.5412087912089,753.3690476190476,809.338598901099,840.7092490842491
1624461471.6171875,802.07326007326,751.1831501831502,756.018315018315,810.8672161172162,838.9615384615386
1624461471.625,803.3424908424907,752.8250915750917,758.6675824175824,812.3958333333334,837.2138278388279
1624461471.6328125,804.6117216117216,754.4670329670331,761.3168498168498,813.9244505494506,835.4661172161173
1624461471.640625,805.8809523809523,756.1089743589746,763.9661172161171,815.4530677655678,833.7184065934067
1624461471.6484375,807.150183150183,757.750915750916,766.6153846153845,816.981684981685,831.970695970696
1624461471.65625,808.7014652014651,758.0329670329672,766.7664835164835,816.5384615384615,816.7600732600733
1624461471.6640625,810.2527472527472,758.3150183150185,766.9175824175824,816.0952380952381,801.5494505494506
1624461471.671875,811.8040293040292,758.5970695970698,767.0686813186812,815.6520146520146,786.3388278388279
1624461471.6796875,813.3553113553113,758.879120879121,767.2197802197802,815.2087912087911,771.1282051282052
1624461471.6875,814.9065934065934,759.1611721611722,767.3708791208792,814.7655677655678,755.9175824175825
1624461471.6953125,816.4578754578754,759.4432234432235,767.521978021978,814.3223443223443,740.7069597069598
1624461471.703125,818.0091575091575,759.7252747252747,767.6730769230769,813.8791208791208,725.496336996337
1624461471.7109375,819.5604395604396,760.007326007326,767.8241758241759,813.4358974358973,710.2857142857143
1624461471.71875,838.4981684981685,757.9120879120879,758.3150183150184,815.1282051282052,649.1208791208792
1624461471.7265625,834.9389499389499,756.8711843711844,758.415750915751,815.6654456654458,675.0763125763126
1624461471.734375,831.3797313797314,755.8302808302808,758.5164835164836,816.2026862026863,701.031746031746
1624461471.7421875,827.8205128205128,754.7893772893773,758.6172161172161,816.7399267399268,726.9871794871796
1624461471.7500002,824.2612942612943,753.7484737484738,758.7179487179487,817.2771672771673,752.942612942613
1624461471.7578125,820.7020757020757,752.7075702075701,758.8186813186813,817.8144078144079,778.8980463980464
1624461471.765625,817.1428571428572,751.6666666666666,758.919413919414,818.3516483516485,804.8534798534798
1624461471.7734375,813.5836385836386,750.6257631257631,759.0201465201465,818.8888888888889,830.8089133089134
1624461471.78125,810.0244200244201,749.5848595848595,759.1208791208791,819.4261294261295,856.7643467643468
1624461471.7890625,806.4652014652015,748.543956043956,759.2216117216117,819.96336996337,882.7197802197802
1624461471.796875,806.948717948718,747.113553113553,757.4688644688645,813.1538461538462,869.4029304029305
1624461471.8046875,807.4322344322345,745.6831501831501,755.7161172161173,806.3443223443224,856.0860805860806
1624461471.8125,807.9157509157509,744.2527472527472,753.9633699633699,799.5347985347986,842.7692307692308
1624461471.8203125,808.3992673992674,742.8223443223443,752.2106227106227,792.7252747252749,829.452380952381
1624461471.828125,808.8827838827839,741.3919413919414,750.4578754578755,785.915750915751,816.1355311355312
1624461471.8359375,814.3223443223444,754.4871794871794,751.868131868132,788.5347985347985,693.4432234432235
1624461471.84375,810.1923076923077,756.5521978021977,753.0769230769231,790.5494505494505,702.5091575091576
1624461471.8515625,806.0622710622711,758.6172161172161,754.2857142857143,792.5641025641025,711.5750915750916
1624461471.859375,801.9322344322345,760.6822344322345,755.4945054945056,794.5787545787546,720.6410256410256
1624461471.8671875,797.8021978021978,762.7472527472528,756.7032967032967,796.5934065934066,729.7069597069598
1624461471.875,766.7765567765568,775.0366300366301,767.1794871794873,790.1465201465202,855.4212454212454
1624461471.8828125,765.1648351648353,774.4098494098495,766.955636955637,784.5054945054945,845.1465201465202
1624461471.890625,763.5531135531136,773.7830687830688,766.7317867317869,778.8644688644689,834.8717948717949
1624461471.8984373,761.941391941392,773.1562881562882,766.5079365079366,773.2234432234433,824.5970695970697
1624461471.90625,760.3296703296703,772.5295075295076,766.2840862840864,767.5824175824176,814.3223443223444
1624461471.9140625,758.7179487179487,771.9027269027268,766.0602360602362,761.9413919413919,804.047619047619
1624461471.921875,757.106227106227,771.2759462759462,765.836385836386,756.3003663003662,793.7728937728938
1624461471.9296875,755.4945054945055,770.6491656491656,765.6125356125357,750.6593406593406,783.4981684981685
1624461471.9375,753.8827838827838,770.0223850223849,765.3886853886855,745.018315018315,773.2234432234433
1624461471.9453125,752.2710622710622,769.3956043956043,765.1648351648353,739.3772893772893,762.948717948718
1624461471.9531252,758.1135531135532,765.3663003663004,761.941391941392,784.7069597069598,819.7619047619048
1624461471.9609375,764.3589743589744,766.1855921855922,762.1294261294262,784.8009768009769,832.7228327228328
1624461471.96875,770.6043956043957,767.004884004884,762.3174603174604,784.894993894994,845.6837606837607
1624461471.9765625,776.8498168498169,767.8241758241759,762.5054945054945,784.989010989011,858.6446886446887
1624461471.984375,783.0952380952382,768.6434676434677,762.6935286935287,785.0830280830281,871.6056166056167
1624461471.9921875,789.3406593406594,769.4627594627595,762.8815628815629,785.1770451770452,884.5665445665446
1624461472.0,790.5942205942206,770.2835436168771,763.1352598019265,785.371048704382,900.3554470221138
1624461472.0078125,791.8477818477819,771.1043277709945,763.3889567222901,785.5650522317189,916.1443494776828
1624461472.015625,793.1013431013431,771.925111925112,763.6426536426536,785.7590557590557,931.933251933252
1624461472.0234375,794.3549043549044,772.7458960792295,763.8963505630172,785.9530592863927,947.7221543888212
1624461472.03125,795.6084656084656,773.5666802333469,764.1500474833808,786.1470628137295,963.5110568443904
1624461472.0390625,796.8620268620269,774.3874643874644,764.4037444037444,786.3410663410664,979.2999592999596
1624461472.0468748,798.1155881155881,775.208248541582,764.6574413241079,786.5350698684032,995.0888617555288
1624461472.0546875,799.3691493691495,776.0290326956994,764.9111382444715,786.7290733957401,1010.877764211098
1624461472.0625,800.6227106227107,776.8498168498169,765.1648351648352,786.9230769230769,1026.666666666667
1624461472.0703125,789.4749694749695,780.6105006105007,773.4920634920636,789.4749694749695,789.4749694749695
1624461472.078125,790.4420024420025,777.843711843712,775.6007326007327,790.965811965812,786.023199023199
1624461472.0859375,791.4090354090355,775.0769230769232,777.7094017094018,792.4566544566545,782.5714285714286
1624461472.09375,792.3760683760684,772.3101343101343,779.8180708180709,793.9474969474969,779.1196581196582
1624461472.1015627,793.3431013431014,769.5433455433456,781.92673992674,795.4383394383394,775.6678876678877
1624461472.109375,794.3101343101343,766.7765567765568,784.0354090354091,796.9291819291819,772.2161172161173
1624461472.125,801.0256410256411,771.4505494505495,780.0329670329671,802.5970695970697,788.7362637362637
1624461472.1328125,804.3833943833944,773.7875457875458,778.031746031746,805.4310134310134,796.996336996337
1624461472.140625,807.7411477411478,776.1245421245421,776.030525030525,808.2649572649573,805.2564102564103
1624461472.1484375,811.0989010989011,778.4615384615385,774.0293040293041,811.0989010989011,813.5164835164835
1624461472.15625,800.2197802197802,763.1501831501831,775.4395604395604,803.4432234432235,772.2161172161173
1624461472.1640625,799.0685504971219,764.5028780743066,775.9288330716902,803.9037153322868,767.1219256933543
1624461472.171875,797.9173207744636,765.8555729984301,776.41810570382,804.3642072213502,762.0277341705913
1624461472.1796875,796.7660910518053,767.2082679225537,776.9073783359497,804.8246991104135,756.9335426478284
1624461472.1875,795.6148613291471,768.5609628466772,777.3966509680796,805.2851909994768,751.8393511250655
1624461472.1953125,794.4636316064888,769.9136577708007,777.8859236002094,805.74568288854,746.7451596023026
1624461472.203125,793.3124018838305,771.2663526949242,778.3751962323391,806.2061747776035,741.6509680795396
1624461472.2109375,792.1611721611722,772.6190476190477,778.8644688644689,806.6666666666667,736.5567765567766
1624461472.21875,803.9468864468864,781.2820512820513,778.2600732600733,812.0054945054945,726.4835164835165
1624461472.2265625,808.0139652014652,779.2925824175824,776.8875915750916,814.1334706959707,747.4736721611722
1624461472.234375,812.0810439560439,777.3031135531136,775.5151098901099,816.261446886447,768.4638278388279
1624461472.2421875,816.1481227106227,775.3136446886447,774.1426282051283,818.3894230769231,789.4539835164835
1624461472.2499998,820.2152014652015,773.3241758241759,772.7701465201466,820.5173992673992,810.4441391941392
1624461472.2578125,824.2822802197802,771.334706959707,771.3976648351648,822.6453754578755,831.4342948717949
1624461472.265625,828.349358974359,769.3452380952381,770.0251831501832,824.7733516483516,852.4244505494505
1624461472.2734375,832.4164377289377,767.3557692307693,768.6527014652015,826.9013278388279,873.4146062271062
1624461472.28125,836.4835164835165,765.3663003663004,767.2802197802198,829.0293040293041,894.4047619047619
1624461472.2890625,834.5839874411303,765.6828885400314,766.4024071166929,828.5400313971743,872.6033490319205
1624461472.296875,832.6844583987441,765.9994767137624,765.524594453166,828.0507587650445,850.801936159079
1624461472.3046875,830.7849293563579,766.3160648874934,764.646781789639,827.5614861329148,829.0005232862376
1624461472.3125,828.8854003139718,766.6326530612246,763.768969126112,827.072213500785,807.1991104133962
1624461472.3203125,826.9858712715856,766.9492412349556,762.8911564625851,826.5829408686552,785.3976975405548
1624461472.328125,825.0863422291994,767.2658294086866,762.0133437990581,826.0936682365254,763.5962846677132
1624461472.3359375,823.1868131868132,767.5824175824176,761.1355311355312,825.6043956043957,741.7948717948718
1624461472.34375,804.8534798534799,769.3956043956044,759.9267399267399,832.2527472527472,713.7912087912089
1624461472.3515625,805.2851909994768,768.0141287284144,761.8550497121926,829.8927263212977,723.3751962323391
1624461472.359375,805.7169021454737,766.6326530612246,763.7833594976452,827.5327053898483,732.9591836734695
1624461472.3671875,806.1486132914705,765.2511773940346,765.7116692830979,825.1726844583987,742.5431711145998
1624461472.375,806.5803244374673,763.8697017268446,767.6399790685505,822.8126635269492,752.12715855573
1624461472.3828125,807.0120355834641,762.4882260596546,769.5682888540032,820.4526425954997,761.7111459968603
1624461472.390625,807.443746729461,761.1067503924647,771.4965986394558,818.0926216640503,771.2951334379907
1624461472.3984373,807.8754578754579,759.7252747252747,773.4249084249085,815.7326007326008,780.8791208791209
1624461472.40625,762.1428571428572,760.5311355311355,772.7197802197802,774.2307692307693,902.8663003663004
1624461472.4140625,760.4723748473749,761.5804334554334,772.5476953601953,770.8646214896215,890.3376831501832
1624461472.421875,758.8018925518926,762.6297313797314,772.3756105006105,767.4984737484738,877.809065934066
1624461472.4296875,757.1314102564103,763.6790293040293,772.2035256410256,764.132326007326,865.2804487179487
1624461472.4375,755.4609279609281,764.7283272283273,772.0314407814408,760.7661782661783,852.7518315018316
1624461472.4453125,753.7904456654458,765.7776251526252,771.8593559218559,757.4000305250306,840.2232142857144
1624461472.4531252,752.1199633699634,766.8269230769231,771.6872710622711,754.0338827838829,827.6945970695972
1624461472.4609375,750.4494810744811,767.8762210012211,771.5151862026862,750.6677350427351,815.1659798534799
1624461472.46875,748.7789987789988,768.925518925519,771.3431013431014,747.3015873015873,802.6373626373628
1624461472.4765625,756.0125588697017,770.057561486133,772.2448979591837,750.8895866038723,792.2187336473053
1624461472.484375,763.2461189604047,771.1896040467469,773.146694575266,754.4775859061574,781.8001046572476
1624461472.4921875,770.4796790511076,772.3216466073609,774.0484911913484,758.0655852084424,771.3814756671901
1624461472.5,777.7132391418106,773.453689167975,774.9502878074306,761.6535845107275,760.9628466771325
1624461472.5078125,784.9467992325135,774.5857317285889,775.852084423513,765.2415838130124,750.5442176870749
1624461472.515625,792.1803593232165,775.7177742892029,776.7538810395953,768.8295831152975,740.1255886970173
1624461472.5234375,799.4139194139194,776.8498168498169,777.6556776556777,772.4175824175825,729.7069597069598
1624461472.53125,802.3687423687425,772.954822954823,775.909645909646,786.2515262515262,909.8168498168498
1624461472.5390625,798.9246467817898,770.9497645211932,774.6624803767661,788.5923600209314,895.1386708529565
1624461472.5468748,795.480551194837,768.9447060875633,773.4153148438863,790.9331937903366,880.4604918890633
1624461472.5546875,792.0364556078842,766.9396476539334,772.1681493110065,793.2740275597419,865.78231292517
1624461472.5625,788.5923600209316,764.9345892203036,770.9209837781267,795.6148613291471,851.1041339612768
1624461472.5703125,785.1482644339789,762.9295307866737,769.6738182452468,797.9556950985523,836.4259549973835
1624461472.578125,781.704168847026,760.9244723530438,768.4266527123671,800.2965288679575,821.7477760334903
1624461472.5859375,778.2600732600733,758.919413919414,767.1794871794872,802.6373626373627,807.0695970695971
1624461472.59375,803.4432234432235,766.7765567765568,773.4249084249084,790.3479853479854,776.8498168498169
1624461472.6015627,799.9981684981685,768.1062271062272,773.0421245421245,790.1666666666667,773.0421245421246
1624461472.609375,796.5531135531136,769.4358974358975,772.6593406593406,789.9853479853481,769.2344322344322
1624461472.6171875,793.1080586080586,770.7655677655678,772.2765567765567,789.8040293040293,765.42673992674
1624461472.625,789.6630036630037,772.0952380952381,771.8937728937728,789.6227106227107,761.6190476190476
1624461472.6328125,786.2179487179487,773.4249084249084,771.510989010989,789.441391941392,757.8113553113553
1624461472.640625,786.7619047619048,771.3968253968254,768.4957264957264,787.4065934065935,776.0439560439561
1624461472.6484375,787.3058608058608,769.3687423687423,765.4804639804639,785.3717948717949,794.2765567765568
1624461472.65625,787.8498168498169,767.3406593406594,762.4652014652015,783.3369963369964,812.5091575091575
1624461472.6640625,788.3937728937728,765.3125763125763,759.449938949939,781.3021978021978,830.7417582417582
1624461472.671875,788.9377289377289,763.2844932844934,756.4346764346765,779.2673992673994,848.974358974359
1624461472.6796875,788.1419413919414,763.4322344322345,756.7939560439561,780.1941391941393,844.4615384615385
1624461472.6875,787.3461538461538,763.5799755799757,757.1532356532357,781.1208791208792,839.948717948718
1624461472.6953125,786.5503663003662,763.7277167277168,757.5125152625153,782.0476190476192,835.4358974358975
1624461472.703125,785.7545787545787,763.875457875458,757.8717948717949,782.974358974359,830.923076923077
1624461472.7109375,784.9587912087911,764.0231990231991,758.2310744810745,783.901098901099,826.4102564102565
1624461472.71875,784.1630036630037,764.1709401709402,758.5903540903541,784.827838827839,821.8974358974359
1624461472.7265625,783.3672161172161,764.3186813186813,758.9496336996338,785.7545787545788,817.3846153846155
1624461472.734375,782.5714285714286,764.4664224664225,759.3089133089134,786.6813186813188,812.8717948717949
1624461472.7421875,781.775641025641,764.6141636141637,759.668192918193,787.6080586080586,808.3589743589745
1624461472.7500002,780.9798534798534,764.7619047619048,760.0274725274726,788.5347985347986,803.8461538461539
1624461472.7578125,780.2881562881563,764.1978021978023,760.4102564102565,788.910866910867,803.1746031746032
1624461472.765625,779.5964590964591,763.6336996336996,760.7930402930403,789.2869352869353,802.5030525030525
1624461472.7734375,778.9047619047619,763.0695970695971,761.1758241758242,789.6630036630037,801.8315018315018
1624461472.78125,778.2130647130647,762.5054945054944,761.5586080586081,790.039072039072,801.159951159951
1624461472.7890625,777.5213675213676,761.9413919413919,761.941391941392,790.4151404151404,800.4884004884003
1624461472.796875,783.9951159951161,762.5054945054944,760.5714285714287,785.8485958485959,774.5665445665444
1624461472.8046875,790.4688644688645,763.0695970695971,759.2014652014652,781.2820512820513,748.6446886446886
1624461472.8125,796.942612942613,763.6336996336996,757.8315018315019,776.7155067155068,722.7228327228327
1624461472.8203125,803.4163614163614,764.1978021978023,756.4615384615385,772.1489621489621,696.8009768009769
1624461472.828125,809.8901098901099,764.7619047619048,755.0915750915751,767.5824175824176,670.8791208791209
1624461472.8359375,790.4151404151404,780.4761904761905,768.1196581196582,793.1013431013431,861.4652014652014
1624461472.84375,792.3760683760684,783.4847374847375,770.9938949938951,794.3101343101343,831.2991452991453
1624461472.8515625,794.3369963369963,786.4932844932845,773.868131868132,795.5189255189256,801.1330891330891
1624461472.859375,796.2979242979244,789.5018315018316,776.7423687423689,796.7277167277167,770.967032967033
1624461472.8671875,798.2588522588524,792.5103785103786,779.6166056166057,797.936507936508,740.8009768009767
1624461472.875,800.2197802197803,795.5189255189256,782.4908424908426,799.1452991452992,710.6349206349206
1624461472.8828125,803.5036630036631,794.2429792429793,784.3040293040294,800.0854700854701,745.072039072039
1624461472.890625,806.7875457875458,792.967032967033,786.1172161172162,801.0256410256411,779.5091575091575
1624461472.8984373,810.0714285714287,791.6910866910868,787.930402930403,801.965811965812,813.9462759462759
1624461472.90625,813.3553113553114,790.4151404151404,789.7435897435898,802.905982905983,848.3833943833944
1624461472.9140625,816.6391941391942,789.1391941391942,791.5567765567766,803.8461538461539,882.8205128205128
1624461472.921875,817.2323972323973,787.952787952788,791.0866910866912,802.6373626373627,866.9719169719169
1624461472.9296875,817.8256003256004,786.7663817663818,790.6166056166057,801.4285714285714,851.1233211233211
1624461472.9375,818.4188034188035,785.5799755799756,790.1465201465202,800.2197802197803,835.2747252747253
1624461472.9453125,819.0120065120066,784.3935693935694,789.6764346764347,799.0109890109891,819.4261294261295
1624461472.9531252,819.6052096052096,783.2071632071633,789.2063492063493,797.8021978021978,803.5775335775336
1624461472.9609375,820.1984126984127,782.0207570207571,788.7362637362638,796.5934065934066,787.7289377289378
1624461472.96875,820.7916157916158,780.8343508343509,788.2661782661783,795.3846153846155,771.8803418803419
1624461472.9765625,821.3848188848189,779.6479446479447,787.7960927960928,794.1758241758242,756.031746031746
1624461472.984375,821.978021978022,778.4615384615385,787.3260073260074,792.967032967033,740.1831501831502
1624461472.9921875,796.9157509157509,783.5384615384617,779.0256410256411,815.1282051282052,782.8131868131868
1624461473.0,800.6388278388279,784.1079365079366,777.301098901099,812.3614163614164,790.1357753357753
1624461473.0078125,804.3619047619047,784.6774114774116,775.5765567765568,809.5946275946277,797.4583638583639
1624461473.015625,808.0849816849817,785.2468864468866,773.8520146520148,806.827838827839,804.7809523809524
1624461473.0234375,811.8080586080586,785.8163614163616,772.1274725274726,804.0610500610502,812.103540903541
1624461473.03125,815.5311355311355,786.3858363858366,770.4029304029305,801.2942612942614,819.4261294261295
1624461473.0390625,812.3412698412699,784.5222832722834,769.5970695970697,800.5051892551894,814.3223443223444
1624461473.0468748,809.1514041514042,782.6587301587304,768.7912087912089,799.7161172161173,809.2185592185592
1624461473.0546875,805.9615384615386,780.7951770451772,767.9853479853481,798.9270451770452,804.1147741147741
1624461473.0625,802.7716727716729,778.931623931624,767.1794871794873,798.1379731379732,799.0109890109891
1624461473.0703125,799.5818070818071,777.0680708180709,766.3736263736264,797.3489010989011,793.9072039072039
1624461473.078125,796.3919413919415,775.2045177045177,765.5677655677656,796.5598290598291,788.8034188034188
1624461473.0859375,793.2020757020758,773.3409645909646,764.7619047619048,795.770757020757,783.6996336996336
1624461473.09375,790.0122100122102,771.4774114774115,763.956043956044,794.9816849816849,778.5958485958486
1624461473.1015627,790.6250000000001,771.22557997558,764.4429181929182,795.0404456654455,781.0050366300366
1624461473.109375,791.2377899877902,770.9737484737485,764.9297924297925,795.0992063492063,783.4142246642247
1624461473.1171875,791.8505799755801,770.721916971917,765.4166666666667,795.157967032967,785.8234126984127
1624461473.125,792.46336996337,770.4700854700855,765.9035409035409,795.2167277167276,788.2326007326008
1624461473.1328125,793.07615995116,770.218253968254,766.3904151404151,795.2754884004883,790.6417887667887
1624461473.140625,793.6889499389499,769.9664224664225,766.8772893772893,795.334249084249,793.0509768009767
1624461473.1484375,794.30173992674,769.714590964591,767.3641636141637,795.3930097680097,795.4601648351648
1624461473.15625,794.9145299145299,769.4627594627595,767.8510378510379,795.4517704517704,797.8693528693528
1624461473.1640625,794.6207264957266,768.6233211233211,768.4344474969475,795.2922771672771,796.2870115995115
1624461473.171875,794.3269230769231,767.7838827838829,769.0178571428571,795.1327838827838,794.7046703296703
1624461473.1796875,794.0331196581196,766.9444444444446,769.6012667887668,794.9732905982905,793.1223290598291
1624461473.1875,793.7393162393163,766.1050061050062,770.1846764346765,794.8137973137973,791.5399877899878
1624461473.1953125,793.4455128205129,765.2655677655678,770.7680860805862,794.6543040293041,789.9576465201465
1624461473.203125,793.1517094017095,764.4261294261295,771.3514957264958,794.4948107448108,788.3753052503052
1624461473.2109375,792.857905982906,763.5866910866912,771.9349053724054,794.3353174603175,786.792963980464
1624461473.21875,792.5641025641027,762.7472527472528,772.5183150183151,794.1758241758242,785.2106227106227
1624461473.2265625,791.9764957264958,761.7567155067155,771.3640873015873,794.0918803418804,797.4958028083029
1624461473.234375,791.3888888888889,760.7661782661784,770.2098595848597,794.0079365079365,809.7809829059829
1624461473.2421875,790.8012820512821,759.7756410256411,769.055631868132,793.9239926739926,822.0661630036631
1624461473.2499998,790.2136752136753,758.785103785104,767.9014041514042,793.8400488400489,834.3513431013432
1624461473.2578125,789.6260683760685,757.7945665445667,766.7471764346765,793.756105006105,846.6365231990233
1624461473.265625,789.0384615384617,756.8040293040294,765.5929487179487,793.6721611721612,858.9217032967034
1624461473.2734375,788.4508547008547,755.8134920634923,764.4387210012211,793.5882173382173,871.2068833943835
1624461473.28125,787.8632478632479,754.822954822955,763.2844932844934,793.5042735042734,883.4920634920636
1624461473.2890625,789.3694400837259,756.645735217164,763.8984824699111,792.8231292517006,868.9769754055469
1624461473.296875,790.8756323042038,758.4685156113729,764.5124716553289,792.1419849991278,854.4618873190303
1624461473.3046875,792.3818245246817,760.2912960055819,765.1264608407466,791.4608407465549,839.9467992325136
1624461473.3125,793.8880167451596,762.1140763997907,765.7404500261644,790.7796964939822,825.4317111459969
1624461473.3203125,795.3942089656375,763.9368567939997,766.3544392115821,790.0985522414094,810.9166230594802
1624461473.328125,796.9004011861155,765.7596371882087,766.9684283969999,789.4174079888365,796.4015349729636
1624461473.3359375,798.4065934065934,767.5824175824176,767.5824175824176,788.7362637362637,781.886446886447
1624461473.34375,788.2326007326008,776.0439560439561,784.908424908425,782.6923076923077,877.0787545787547
1624461473.3515625,775.9288330716903,782.2318158032444,786.9806384092099,773.6839351125066,854.0109890109891
1624461473.359375,763.6250654107797,788.4196755625327,789.0528519099948,764.6755625327054,830.9432234432236
1624461473.3671875,751.3212977498692,794.607535321821,791.1250654107797,755.6671899529042,807.875457875458
1624461473.375,739.0175300889587,800.7953950811094,793.1972789115647,746.6588173731031,784.8076923076924
1624461473.3828125,726.7137624280482,806.9832548403978,795.2694924123496,737.650444793302,761.7399267399268
1624461473.390625,714.4099947671377,813.171114599686,797.3417059131345,728.6420722135008,738.6721611721613
1624461473.3984373,702.1062271062272,819.3589743589744,799.4139194139194,719.6336996336996,715.6043956043957
1624461473.40625,664.8351648351648,866.9047619047619,817.7472527472528,644.0842490842491,882.014652014652
1624461473.4140625,655.6828885400314,867.7969649398221,819.4453165881738,637.6949241234955,860.803244374673
1624461473.421875,646.530612244898,868.6891679748823,821.1433804290948,631.305599162742,839.5918367346939
1624461473.4296875,637.3783359497645,869.5813710099425,822.8414442700158,624.9162742019885,818.3804290947148
1624461473.4375,628.2260596546311,870.4735740450027,824.5395081109367,618.526949241235,797.1690214547357
1624461473.4453125,619.0737833594976,871.3657770800629,826.2375719518577,612.1376242804814,775.9576138147567
1624461473.4531252,609.9215070643642,872.257980115123,827.9356357927787,605.748299319728,754.7462061747775
1624461473.4609375,600.7692307692307,873.1501831501832,829.6336996336997,599.3589743589744,733.5347985347985
1624461473.46875,604.496336996337,872.7472527472528,817.4450549450551,605.2014652014651,829.5329670329671
1624461473.4765625,609.5089830804117,869.5429966858538,813.8138845281703,610.3628117913831,821.4503750218037
1624461473.484375,614.5216291644864,866.3387406244549,810.1827141112856,615.5241583813012,813.3677830106402
1624461473.4921875,619.534275248561,863.1344845630559,806.5515436944008,620.6855049712192,805.2851909994768
1624461473.5,624.5469213326356,859.9302285016571,802.9203732775162,625.8468515611373,797.2025989883132
1624461473.5078125,629.5595674167103,856.7259724402581,799.2892028606315,631.0081981510554,789.1200069771497
1624461473.515625,634.572213500785,853.5217163788592,795.6580324437467,636.1695447409734,781.0374149659863
1624461473.5234375,639.5848595848596,850.3174603174602,792.026862026862,641.3308913308914,772.9548229548228
1624461473.53125,830.2380952380953,774.2307692307693,764.8626373626373,805.4578754578755,738.0677655677656
1624461473.5390625,835.9654631083203,769.8273155416013,762.4306645735217,812.8257456828886,765.9994767137624
1624461473.5468748,841.6928309785453,765.4238618524333,759.9986917844061,820.1936159079016,793.9311878597593
1624461473.5546875,847.4201988487703,761.0204081632653,757.5667189952904,827.5614861329148,821.8628990057562
1624461473.5625,853.1475667189953,756.6169544740974,755.1347462061748,834.9293563579278,849.7946101517531
1624461473.5703125,858.8749345892203,752.2135007849294,752.7027734170591,842.2972265829409,877.7263212977499
1624461473.578125,864.6023024594454,747.8100470957614,750.2708006279436,849.6650968079539,905.6580324437468
1624461473.5859375,870.3296703296703,743.4065934065934,747.8388278388279,857.032967032967,933.5897435897436
1624461473.59375,886.0439560439561,727.5915750915751,763.8553113553114,888.8644688644689,900.0457875457874
1624461473.609375,885.8760683760684,731.7803724053724,763.7461843711844,887.5213675213676,882.0734126984127
1624461473.6171875,885.7921245421246,733.8747710622711,763.6916208791209,886.8498168498169,873.0872252747253
1624461473.625,885.7081807081807,735.9691697191697,763.6370573870574,886.1782661782663,864.1010378510379
1624461473.6328125,885.6242368742369,738.0635683760685,763.5824938949938,885.5067155067156,855.1148504273505
1624461473.640625,885.5402930402931,740.1579670329671,763.5279304029303,884.835164835165,846.1286630036631
1624461473.6484375,885.4563492063493,742.2523656898658,763.4733669108668,884.1636141636143,837.1424755799757
1624461473.65625,885.3724053724054,744.3467643467644,763.4188034188033,883.4920634920636,828.1562881562883
1624461473.6640625,880.5708180708181,746.4554334554335,764.3119658119658,877.8174603174605,824.3015873015875
1624461473.671875,875.7692307692308,748.5641025641027,765.2051282051282,872.1428571428572,820.4468864468865
1624461473.6796875,870.9676434676435,750.6727716727717,766.0982905982906,866.4682539682541,816.5921855921857
1624461473.6875,866.1660561660563,752.7814407814408,766.991452991453,860.7936507936508,812.7374847374848
1624461473.6953125,861.3644688644689,754.8901098901099,767.8846153846155,855.1190476190477,808.882783882784
1624461473.703125,859.6967846967848,754.8229548229548,768.7464387464388,852.9365079365081,786.9902319902321
1624461473.7109375,858.0291005291006,754.7557997557998,769.6082621082621,850.7539682539683,765.0976800976802
1624461473.71875,856.3614163614164,754.6886446886447,770.4700854700856,848.5714285714287,743.2051282051283
1624461473.7265625,854.6937321937322,754.6214896214896,771.3319088319089,846.388888888889,721.3125763125764
1624461473.734375,853.0260480260481,754.5543345543346,772.1937321937322,844.2063492063493,699.4200244200244
1624461473.7421875,851.3583638583639,754.4871794871794,773.0555555555555,842.0238095238096,677.5274725274726
1624461473.7500002,849.6906796906798,754.4200244200243,773.917378917379,839.84126984127,655.6349206349207
1624461473.7578125,848.0229955229955,754.3528693528693,774.7792022792023,837.6587301587302,633.7423687423687
1624461473.765625,846.3553113553114,754.2857142857142,775.6410256410256,835.4761904761906,611.8498168498169
1624461473.7734375,834.4688644688645,760.5311355311355,766.5750915750916,823.3882783882784,767.985347985348
1624461473.78125,834.4113029827315,762.574568288854,768.2155939298797,825.1582940868656,766.8772893772893
1624461473.7890625,834.3537414965987,764.6180010465725,769.8560962846677,826.9283097854527,765.7692307692308
1624461473.796875,834.2961800104657,766.661433804291,771.4965986394558,828.6983254840399,764.6611721611722
1624461473.8046875,834.2386185243329,768.7048665620094,773.137100994244,830.4683411826269,763.5531135531136
1624461473.8125,834.1810570381999,770.748299319728,774.777603349032,832.238356881214,762.445054945055
1624461473.8203125,834.1234955520671,772.7917320774465,776.4181057038201,834.0083725798012,761.3369963369964
1624461473.828125,834.0659340659341,774.835164835165,778.0586080586081,835.7783882783883,760.2289377289378
1624461473.8359375,834.4688644688645,790.1465201465202,784.1025641025642,835.6776556776557,764.5604395604396
1624461473.84375,834.7998430141287,790.9092098377813,784.908424908425,833.6630036630037,759.1064887493459
1624461473.8515625,835.130821559393,791.6718995290424,785.7142857142858,831.6483516483516,753.6525379382523
1624461473.859375,835.4618001046572,792.4345892203036,786.5201465201466,829.6336996336996,748.1985871271586
1624461473.8671875,835.7927786499215,793.1972789115646,787.3260073260075,827.6190476190476,742.744636316065
1624461473.875,836.1237571951857,793.9599686028257,788.1318681318683,825.6043956043956,737.2906855049713
1624461473.8828125,836.45473574045,794.7226582940868,788.937728937729,823.5897435897435,731.8367346938777
1624461473.890625,836.7857142857142,795.485347985348,789.7435897435898,821.5750915750915,726.382783882784
1624461473.8984373,833.5748626373626,794.6769688644689,789.441391941392,821.2628205128204,733.1343864468865
1624461473.90625,830.3640109890109,793.8685897435897,789.1391941391942,820.9505494505494,739.8859890109891
1624461473.9140625,827.1531593406593,793.0602106227107,788.8369963369964,820.6382783882783,746.6375915750916
1624461473.921875,823.9423076923076,792.2518315018315,788.5347985347986,820.3260073260074,753.3891941391942
1624461473.9296875,820.731456043956,791.4434523809524,788.2326007326008,820.0137362637363,760.1407967032967
1624461473.9375,817.5206043956043,790.6350732600733,787.930402930403,819.7014652014652,766.8923992673992
1624461473.9453125,814.3097527472527,789.8266941391942,787.6282051282052,819.3891941391942,773.6440018315018
1624461473.9531252,811.098901098901,789.0183150183151,787.3260073260074,819.0769230769231,780.3956043956043
1624461473.9609375,786.1172161172161,786.1172161172161,785.3113553113553,800.6227106227107,604.3956043956044
1624461473.96875,789.25431711146,785.296964939822,786.2323390894819,801.4285714285714,632.2121925693355
1624461473.9765625,792.3914181057038,784.4767137624281,787.1533228676086,802.2344322344322,660.0287807430665
1624461473.984375,795.5285190999476,783.656462585034,788.0743066457352,803.040293040293,687.8453689167975
1624461473.9921875,798.6656200941916,782.83621140764,788.9952904238619,803.8461538461539,715.6619570905286
1624461474.0,801.8027210884354,782.0159602302459,789.9162742019885,804.6520146520147,743.4785452642597
1624461474.0078125,804.9398220826793,781.195709052852,790.8372579801152,805.4578754578755,771.2951334379907
1624461474.015625,808.0769230769231,780.3754578754579,791.7582417582418,806.2637362637363,799.1117216117217
1624461474.0234375,805.382326007326,779.2296245421245,791.1034798534798,806.8513431013431,820.6391178266178
1624461474.03125,802.6877289377289,778.0837912087912,790.448717948718,807.4389499389499,842.1665140415141
1624461474.0390625,799.9931318681319,776.9379578754579,789.7939560439561,808.0265567765568,863.6939102564103
1624461474.0468748,797.2985347985348,775.7921245421246,789.1391941391942,808.6141636141637,885.2213064713064
1624461474.0546875,794.6039377289378,774.6462912087912,788.4844322344322,809.2017704517705,906.7487026862026
1624461474.0625,791.9093406593407,773.5004578754579,787.8296703296703,809.7893772893774,928.2760989010987
1624461474.0703125,789.2147435897436,772.3546245421246,787.1749084249085,810.3769841269842,949.803495115995
1624461474.078125,786.5201465201466,771.2087912087912,786.5201465201466,810.964590964591,971.3308913308912
1624461474.0859375,790.1465201465202,774.5934065934066,785.4322344322345,807.0427350427351,921.5958485958485
1624461474.09375,793.7728937728938,777.978021978022,784.3443223443223,803.1208791208792,871.8608058608058
1624461474.1015627,797.3992673992675,781.3626373626374,783.2564102564103,799.1990231990231,822.1257631257631
1624461474.109375,801.0256410256411,784.7472527472528,782.1684981684981,795.2771672771672,772.3907203907204
1624461474.1171875,804.6520146520147,788.1318681318681,781.080586080586,791.3553113553113,722.6556776556778
1624461474.125,806.7044413919415,789.202152014652,780.3754578754579,792.3626373626373,735.599816849817
1624461474.1328125,808.7568681318683,790.2724358974359,779.6703296703297,793.3699633699633,748.5439560439562
1624461474.140625,810.8092948717949,791.3427197802198,778.9652014652015,794.3772893772893,761.4880952380954
1624461474.1484375,812.8617216117217,792.4130036630037,778.2600732600733,795.3846153846154,774.4322344322345
1624461474.15625,814.9141483516485,793.4832875457876,777.554945054945,796.3919413919414,787.3763736263737
1624461474.1640625,816.9665750915751,794.5535714285714,776.8498168498169,797.3992673992674,800.3205128205129
1624461474.171875,819.0190018315019,795.6238553113553,776.1446886446887,798.4065934065934,813.2646520146521
1624461474.1796875,821.0714285714287,796.6941391941392,775.4395604395605,799.4139194139194,826.2087912087914
1624461474.1875,817.68969126112,796.8524332810048,775.5259026687598,801.9466248037677,801.140763997907
1624461474.1953125,814.3079539508111,797.0107273678702,775.6122448979593,804.4793301936159,776.0727367870226
1624461474.203125,810.9262166405024,797.1690214547358,775.6985871271586,807.0120355834641,751.0047095761382
1624461474.2109375,807.5444793301937,797.3273155416013,775.784929356358,809.5447409733124,725.9366823652539
1624461474.21875,804.162742019885,797.4856096284668,775.8712715855573,812.0774463631607,700.8686551543695
1624461474.2265625,800.7810047095761,797.6439037153323,775.9576138147568,814.6101517530088,675.8006279434851
1624461474.234375,797.3992673992674,797.8021978021978,776.0439560439561,817.1428571428571,650.7326007326008
1624461474.2421875,798.003663003663,796.1904761904761,780.4761904761905,821.7765567765568,816.941391941392
1624461474.2499998,799.3563579277865,794.3772893772893,779.1522762951334,819.3014128728415,838.2679225536368
1624461474.2578125,800.70905285191,792.5641025641025,777.8283621140764,816.8262689691262,859.5944531658818
1624461474.265625,802.0617477760335,790.7509157509157,776.5044479330194,814.3511250654109,880.9209837781266
1624461474.2734375,803.4144427001569,788.9377289377289,775.1805337519623,811.8759811616954,902.2475143903716
1624461474.28125,804.7671376242804,787.1245421245421,773.8566195709053,809.4008372579801,923.5740450026163
1624461474.2890625,806.1198325484039,785.3113553113553,772.5327053898483,806.9256933542648,944.9005756148612
1624461474.296875,807.4725274725274,783.4981684981685,771.2087912087912,804.4505494505495,966.227106227106
1624461474.3046875,779.2673992673994,772.5518925518927,767.7167277167277,806.8009768009769,714.2612942612944
1624461474.3125,783.584510727368,774.461015175301,769.2517006802722,809.4583987441131,710.769230769231
1624461474.3203125,787.9016221873366,776.3701377987094,770.7866736438165,812.1158206872493,707.2771672771675
1624461474.328125,792.2187336473052,778.2792604221177,772.3216466073609,814.7732426303855,703.785103785104
1624461474.3359375,796.5358451072736,780.188383045526,773.8566195709053,817.4306645735218,700.2930402930403
1624461474.34375,800.8529565672422,782.0975056689343,775.3915925344497,820.088086516658,696.8009768009769
1624461474.3515625,805.1700680272108,784.0066282923427,776.926565497994,822.7455084597942,693.3089133089134
1624461474.359375,809.4871794871794,785.915750915751,778.4615384615385,825.4029304029305,689.8168498168499
1624461474.3671875,804.8534798534799,787.42673992674,782.7930402930403,814.9267399267399,813.0128205128206
1624461474.375,802.3939255189256,785.6681166056167,782.2851800976802,812.2489316239315,801.944826007326
1624461474.3828125,799.9343711843712,783.9094932844934,781.77731990232,809.5711233211233,790.8768315018315
1624461474.390625,797.4748168498169,782.15086996337,781.2694597069598,806.893315018315,779.808836996337
1624461474.3984373,795.0152625152625,780.3922466422467,780.7615995115996,804.2155067155068,768.7408424908425
1624461474.40625,792.5557081807083,778.6336233211234,780.2537393162393,801.5376984126984,757.672847985348
1624461474.4140625,790.0961538461539,776.8750000000001,779.7458791208791,798.8598901098901,746.6048534798535
1624461474.421875,787.6365995115996,775.1163766788768,779.2380189255189,796.1820818070819,735.536858974359
1624461474.4296875,785.1770451770452,773.3577533577535,778.7301587301587,793.5042735042736,724.4688644688645
1624461474.4375,789.4174079888367,775.3915925344498,780.2651316937031,793.7537066108495,732.680969823827
1624461474.4453125,793.657770800628,777.4254317111461,781.8001046572475,794.0031397174255,740.8930751787894
1624461474.4531252,797.8981336124194,779.4592708878424,783.3350776207919,794.2525728240014,749.105180533752
1624461474.4609375,802.1384964242108,781.4931100645387,784.8700505843362,794.5020059305774,757.3172858887145
1624461474.46875,806.3788592360022,783.526949241235,786.4050235478807,794.7514390371533,765.5293912436771
1624461474.4765625,810.6192220477935,785.5607884179312,787.9399965114251,795.0008721437293,773.7414965986395
1624461474.484375,814.859584859585,787.5946275946276,789.4749694749695,795.2503052503052,781.9536019536021
1624461474.4921875,795.7875457875458,777.7899877899878,785.7142857142857,797.130647130647,771.2087912087912
1624461474.5,796.046572475144,779.4688644688645,785.7718472004186,794.7802197802197,780.2459445316589
1624461474.5078125,796.305599162742,781.1477411477412,785.8294086865515,792.4297924297924,789.2830978545264
1624461474.515625,796.5646258503402,782.8266178266178,785.8869701726844,790.0793650793651,798.3202511773941
1624461474.5234375,796.8236525379383,784.5054945054945,785.9445316588174,787.7289377289377,807.3574045002616
1624461474.53125,797.0826792255365,786.1843711843712,786.0020931449503,785.3785103785103,816.3945578231293
1624461474.5390625,797.3417059131345,787.8632478632479,786.0596546310832,783.0280830280831,825.4317111459968
1624461474.5468748,797.6007326007327,789.5421245421246,786.1172161172161,780.6776556776557,834.4688644688645
1624461474.5546875,791.6575091575091,796.3919413919414,784.2032967032967,791.6575091575091,897.7289377289378
1624461474.5625,787.2396650968079,795.5572998430141,783.9010989010989,793.8592360020931,869.4662480376767
1624461474.5703125,782.8218210361067,794.7226582940868,783.5989010989011,796.0609628466772,841.2035583464155
1624461474.578125,778.4039769754055,793.8880167451596,783.2967032967033,798.2626896912611,812.9408686551544
1624461474.5859375,773.9861329147044,793.0533751962324,782.9945054945055,800.4644165358451,784.6781789638933
1624461474.59375,769.5682888540032,792.2187336473052,782.6923076923076,802.666143380429,756.4154892726322
1624461474.6015627,765.150444793302,791.3840920983779,782.3901098901099,804.8678702250131,728.152799581371
1624461474.609375,760.7326007326008,790.5494505494506,782.0879120879121,807.0695970695971,699.8901098901099
1624461474.6171875,803.3089133089134,793.1013431013431,788.5347985347985,802.3687423687425,851.5262515262515
1624461474.625,805.1892551892553,795.7875457875458,791.0866910866911,802.1960579103437,861.7530088958661
1624461474.6328125,807.0695970695971,798.4737484737485,793.6385836385836,802.023373451945,871.9797662654805
1624461474.640625,808.949938949939,801.1599511599512,796.1904761904761,801.8506889935462,882.2065236350951
1624461474.6484375,810.8302808302808,803.8461538461538,798.7423687423687,801.6780045351475,892.4332810047097
1624461474.65625,812.7106227106227,806.5323565323565,801.2942612942613,801.5053200767487,902.6600383743242
1624461474.6640625,814.5909645909645,809.2185592185592,803.8461538461538,801.33263561835,912.8867957439388
1624461474.671875,816.4713064713064,811.9047619047619,806.3980463980464,801.1599511599512,923.1135531135532
1624461474.6796875,814.8679792429792,809.7516025641025,806.8471459096459,801.4831349206349,913.3928571428572
1624461474.6875,813.264652014652,807.5984432234433,807.2962454212454,801.8063186813188,903.6721611721612
1624461474.6953125,811.6613247863248,805.4452838827839,807.745344932845,802.1295024420025,893.9514652014652
1624461474.703125,810.0579975579976,803.2921245421246,808.1944444444445,802.4526862026862,884.2307692307693
1624461474.7109375,808.4546703296704,801.1389652014652,808.6435439560439,802.77586996337,874.5100732600733
1624461474.71875,806.8513431013432,798.9858058608058,809.0926434676435,803.0990537240538,864.7893772893773
1624461474.7265625,805.248015873016,796.8326465201466,809.541742979243,803.4222374847376,855.0686813186812
1624461474.734375,803.6446886446888,794.6794871794872,809.9908424908425,803.7454212454213,845.3479853479853
1624461474.7421875,798.3931623931625,795.7875457875458,809.4603174603175,798.6349206349207,831.1916971916971
1624461474.7500002,793.1416361416362,796.8956043956044,808.9297924297924,793.52442002442,817.035409035409
1624461474.7578125,787.8901098901099,798.003663003663,808.3992673992675,788.4139194139194,802.8791208791209
1624461474.765625,782.6385836385837,799.1117216117216,807.8687423687425,783.3034188034187,788.7228327228328
1624461474.7734375,777.3870573870573,800.2197802197802,807.3382173382174,778.1929181929181,774.5665445665446
1624461474.78125,769.563492063492,805.8440170940171,807.2542735042736,768.2203907203907,783.2295482295483
1624461474.7890625,761.7399267399267,811.468253968254,807.1703296703297,758.2478632478632,791.892551892552
1624461474.796875,753.9163614163614,817.0924908424909,807.0863858363858,748.2753357753356,800.5555555555557
1624461474.8046875,746.0927960927961,822.7167277167277,807.002442002442,738.3028083028082,809.2185592185592
1624461474.8125,738.2692307692308,828.3409645909646,806.9184981684982,728.3302808302808,817.8815628815629
1624461474.8203125,730.4456654456656,833.9652014652015,806.8345543345544,718.3577533577533,826.5445665445666
1624461474.828125,722.6221001221002,839.5894383394384,806.7506105006105,708.3852258852257,835.2075702075703
1624461474.8359375,714.7985347985349,845.2136752136753,806.6666666666666,698.4126984126983,843.8705738705739
1624461474.84375,705.077838827839,847.3257020757021,808.1373626373626,689.1587301587301,823.3547008547009
1624461474.8515625,695.3571428571429,849.4377289377289,809.6080586080586,679.9047619047619,802.8388278388279
1624461474.859375,685.636446886447,851.5497557997559,811.0787545787546,670.6507936507936,782.3229548229549
1624461474.8671875,675.915750915751,853.6617826617827,812.5494505494505,661.3968253968254,761.8070818070819
1624461474.875,666.1950549450551,855.7738095238095,814.0201465201465,652.1428571428572,741.2912087912088
1624461474.8828125,656.4743589743591,857.8858363858365,815.4908424908424,642.8888888888889,720.7753357753357
1624461474.890625,646.7536630036631,859.9978632478633,816.9615384615385,633.6349206349207,700.2594627594627
1624461474.8984373,637.0329670329671,862.1098901098901,818.4322344322344,624.3809523809525,679.7435897435897
1624461474.90625,664.684065934066,851.9560439560439,814.8965201465201,652.8454670329671,698.4672619047619
1624461474.9140625,692.335164835165,841.8021978021978,811.3608058608058,681.3099816849817,717.190934065934
1624461474.921875,719.9862637362638,831.6483516483516,807.8250915750916,709.7744963369964,735.9146062271062
1624461474.9296875,747.6373626373627,821.4945054945056,804.2893772893773,738.239010989011,754.6382783882784
1624461474.9375,775.2884615384615,811.3406593406594,800.753663003663,766.7035256410256,773.3619505494505
1624461474.9453125,802.9395604395604,801.1868131868132,797.2179487179487,795.1680402930403,792.0856227106227
1624461474.9531252,830.5906593406594,791.0329670329671,793.6822344322345,823.632554945055,810.8092948717949
1624461474.9609375,858.2417582417582,780.8791208791209,790.1465201465202,852.0970695970695,829.532967032967
1624461474.96875,861.9832548403978,778.806907378336,788.8226059654631,855.7953950811093,825.5756148613291
1624461474.9765625,865.7247514390372,776.7346938775511,787.4986917844061,859.4937205651491,821.6182626896913
1624461474.984375,869.4662480376767,774.6624803767661,786.1747776033491,863.1920460491889,817.6609105180534
1624461474.9921875,873.2077446363161,772.5902668759812,784.850863422292,866.8903715332286,813.7035583464155
1624461475.0,876.9492412349556,770.5180533751962,783.526949241235,870.5886970172684,809.7462061747776
1624461475.0078125,880.690737833595,768.4458398744114,782.203035060178,874.2870225013082,805.7888540031398
1624461475.015625,884.4322344322345,766.3736263736264,780.8791208791209,877.985347985348,801.8315018315019
1624461475.0234375,898.7765567765567,764.0366300366301,790.6300366300367,895.5531135531135,887.0109890109891
1624461475.03125,897.806166056166,763.8418803418804,790.5528083028083,893.1724664224663,878.1263736263737
1624461475.0390625,896.8357753357753,763.6471306471307,790.4755799755801,890.7918192918193,869.2417582417584
1624461475.0468748,895.8653846153846,763.452380952381,790.3983516483518,888.4111721611721,860.3571428571429
1624461475.0546875,894.894993894994,763.2576312576313,790.3211233211234,886.030525030525,851.4725274725275
1624461475.0625,893.9246031746032,763.0628815628816,790.2438949938951,883.6498778998779,842.5879120879122
1624461475.0703125,892.9542124542126,762.8681318681319,790.1666666666667,881.2692307692307,833.7032967032967
1624461475.078125,891.9838217338219,762.6733821733822,790.0894383394385,878.8885836385837,824.8186813186813
1624461475.0859375,891.0134310134312,762.4786324786324,790.0122100122102,876.5079365079365,815.934065934066
1624461475.09375,885.8712715855575,761.9989534275248,788.1318681318683,873.3804290947148,817.6033490319205
1624461475.1015627,880.7291121576837,761.5192743764172,786.2515262515263,870.2529216814931,819.272632129775
1624461475.109375,875.58695272981,761.0395953253096,784.3711843711844,867.1254142682715,820.9419152276296
1624461475.1171875,870.4447933019362,760.559916274202,782.4908424908426,863.9979068550497,822.611198325484
1624461475.125,865.3026338740625,760.0802372230944,780.6105006105007,860.870399441828,824.2804814233385
1624461475.1328125,860.1604744461888,759.6005581719868,778.7301587301588,857.7428920286063,825.9497645211931
1624461475.140625,855.0183150183151,759.1208791208792,776.8498168498169,854.6153846153846,827.6190476190476
1624461475.1484375,855.4212454212453,762.0757020757022,774.4322344322345,846.959706959707,770.9401709401709
1624461475.15625,854.0397697540553,764.9921507064365,773.7990580847725,844.5421245421245,782.1166928309785
1624461475.1640625,852.6582940868655,767.9085993371709,773.1658817373103,842.1245421245421,793.2932147217862
1624461475.171875,851.2768184196755,770.8250479679052,772.5327053898483,839.7069597069597,804.4697366125938
1624461475.1796875,849.8953427524856,773.7414965986395,771.8995290423862,837.2893772893773,815.6462585034013
1624461475.1875,848.5138670852956,776.6579452293738,771.2663526949242,834.8717948717948,826.822780394209
1624461475.1953125,847.1323914181057,779.5743938601082,770.633176347462,832.4542124542124,837.9993022850166
1624461475.203125,845.7509157509157,782.4908424908425,770.0,830.03663003663,849.1758241758242
1624461475.2109375,836.1813186813187,780.4761904761905,784.8076923076924,824.6978021978023,773.2234432234433
1624461475.21875,835.3610675039246,781.9727891156463,786.3762428048143,825.3453689167976,774.2019884877028
1624461475.2265625,834.5408163265306,783.469387755102,787.9447933019362,825.9929356357928,775.1805337519623
1624461475.234375,833.7205651491365,784.9659863945578,789.5133437990581,826.6405023547882,776.1590790162219
1624461475.2421875,832.9003139717425,786.4625850340136,791.08189429618,827.2880690737834,777.1376242804815
1624461475.2499998,832.0800627943485,787.9591836734694,792.650444793302,827.9356357927787,778.1161695447411
1624461475.2578125,831.2598116169545,789.4557823129252,794.2189952904239,828.583202511774,779.0947148090006
1624461475.265625,830.4395604395604,790.952380952381,795.7875457875458,829.2307692307693,780.0732600732601
1624461475.2734375,817.3443223443223,779.2673992673992,785.7142857142858,830.0366300366301,1014.3772893772896
1624461475.28125,813.228676085819,778.6342229199372,785.7718472004187,828.6551543694401,996.7346938775512
1624461475.2890625,809.1130298273156,778.0010465724752,785.8294086865516,827.2736787022502,979.0920983778128
1624461475.296875,804.9973835688122,777.3678702250131,785.8869701726845,825.8922030350602,961.4495028780744
1624461475.3046875,800.8817373103087,776.734693877551,785.9445316588174,824.5107273678702,943.806907378336
1624461475.3125,796.7660910518053,776.1015175300889,786.0020931449503,823.1292517006802,926.1643118785976
1624461475.3203125,792.650444793302,775.4683411826269,786.0596546310832,821.7477760334904,908.5217163788592
1624461475.328125,788.5347985347986,774.8351648351648,786.1172161172161,820.3663003663004,890.8791208791209
1624461475.3359375,803.1746031746032,772.954822954823,793.1013431013431,793.2356532356533,699.3528693528693
1624461475.34375,801.4285714285716,773.453689167975,793.3124018838305,794.1374498517357,721.1494854351997
1624461475.3515625,799.6825396825398,773.9525553811269,793.5234606663179,795.039246467818,742.9461015175301
1624461475.359375,797.9365079365081,774.4514215942788,793.7345194488053,795.9410430839004,764.7427175998605
1624461475.3671875,796.1904761904763,774.9502878074306,793.9455782312925,796.8428396999826,786.5393336821908
1624461475.375,794.4444444444446,775.4491540205826,794.1566370137799,797.744636316065,808.3359497645212
1624461475.3828125,792.6984126984128,775.9480202337345,794.3676957962673,798.6464329321473,830.1325658468515
1624461475.390625,790.9523809523811,776.4468864468864,794.5787545787547,799.5482295482296,851.9291819291819
1624461475.3984373,790.4285714285716,778.5622710622711,792.6245421245422,799.8638583638584,853.0103785103785
1624461475.40625,789.9047619047619,780.6776556776557,790.6703296703297,800.1794871794872,854.0915750915751
1624461475.4140625,789.3809523809524,782.7930402930402,788.7161172161173,800.4951159951161,855.1727716727717
1624461475.421875,788.8571428571428,784.9084249084249,786.7619047619047,800.8107448107448,856.2539682539683
1624461475.4296875,788.3333333333333,787.0238095238095,784.8076923076923,801.1263736263736,857.3351648351648
1624461475.4375,788.8235653235653,786.9465811965812,784.7640415140415,800.6596459096459,838.1254578754579
1624461475.4453125,789.3137973137973,786.8693528693528,784.7203907203907,800.1929181929182,818.9157509157509
1624461475.4531252,789.8040293040293,786.7921245421245,784.6767399267399,799.7261904761905,799.7060439560439
1624461475.4609375,790.2942612942613,786.7148962148962,784.6330891330891,799.2594627594627,780.4963369963369
1624461475.46875,790.7844932844932,786.6376678876679,784.5894383394384,798.7927350427351,761.28663003663
1624461475.4765625,791.2747252747253,786.5604395604396,784.5457875457876,798.3260073260074,742.0769230769231
1624461475.484375,791.7649572649573,786.4832112332113,784.5021367521367,797.8592796092796,722.8672161172161
1624461475.4921875,792.2551892551893,786.4059829059829,784.458485958486,797.3925518925519,703.6575091575091
1624461475.5,792.7454212454213,786.3287545787546,784.4148351648353,796.9258241758242,684.4478021978022
1624461475.5078125,793.2356532356533,786.2515262515262,784.3711843711844,796.4590964590965,665.2380952380952
1624461475.515625,793.5426478283622,785.1770451770451,784.2944357230072,794.7514390371533,688.8958660387232
1624461475.5234375,793.849642421071,784.1025641025641,784.21768707483,793.0437816152102,712.553636839351
1624461475.53125,794.1566370137799,783.028083028083,784.1409384266527,791.336124193267,736.211407639979
1624461475.5390625,794.4636316064888,781.953601953602,784.0641897784756,789.6284667713239,759.869178440607
1624461475.5468748,794.7706261991976,780.8791208791208,783.9874411302983,787.9208093493808,783.526949241235
1624461475.5546875,795.0776207919065,779.8046398046398,783.9106924821211,786.2131519274376,807.1847200418629
1624461475.5625,795.3846153846154,778.7301587301587,783.8339438339439,784.5054945054944,830.8424908424909
1624461475.5703125,800.0854700854701,785.4456654456654,784.9084249084249,794.5787545787547,798.8766788766789
1624461475.578125,800.392464678179,782.9897087039944,783.718820861678,794.2141984999129,810.5424733996163
1624461475.5859375,800.6994592708878,780.5337519623233,782.5292168149311,793.849642421071,822.2082679225537
1624461475.59375,801.0064538635967,778.0777952206523,781.3396127681842,793.4850863422292,833.8740624454911
1624461475.6015627,801.3134484563055,775.6218384789813,780.1500087214373,793.1205302633874,845.5398569684284
1624461475.609375,801.6204430490144,773.1658817373103,778.9604046746904,792.7559741845456,857.2056514913658
1624461475.6171875,801.9274376417233,770.7099249956392,777.7708006279436,792.3914181057038,868.8714460143032
1624461475.625,802.2344322344321,768.2539682539682,776.5811965811967,792.026862026862,880.5372405372406
1624461475.6328125,804.3296703296702,772.4175824175824,777.6825396825398,793.7997557997558,865.6019536019536
1624461475.640625,806.4249084249084,776.5811965811965,778.7838827838829,795.5726495726495,850.6666666666667
1624461475.6484375,808.5201465201465,780.7448107448107,779.8852258852259,797.3455433455434,835.7313797313798
1624461475.65625,810.6153846153846,784.9084249084249,780.986568986569,799.1184371184372,820.7960927960929
1624461475.6640625,812.7106227106227,789.072039072039,782.0879120879121,800.891330891331,805.860805860806
1624461475.671875,813.0538597205264,789.5346628679962,782.744539411206,800.7122507122508,806.0398860398861
1624461475.6796875,813.3970967304301,789.9972866639533,783.4011667345001,800.5331705331706,806.2189662189663
1624461475.6875,813.7403337403338,790.4599104599105,784.057794057794,800.3540903540904,806.3980463980465
1624461475.6953125,814.0835707502374,790.9225342558676,784.7144213810881,800.1750101750102,806.5771265771267
1624461475.703125,814.4268077601412,791.3851580518248,785.371048704382,799.99592999593,806.7562067562068
1624461475.7109375,814.7700447700448,791.8477818477819,786.0276760276761,799.8168498168499,806.935286935287
1624461475.71875,815.1132817799485,792.310405643739,786.68430335097,799.6377696377697,807.1143671143672
1624461475.7265625,815.4565187898522,792.7730294396962,787.3409306742641,799.4586894586895,807.2934472934473
1624461475.734375,815.7997557997559,793.2356532356533,787.997557997558,799.2796092796093,807.4725274725275
1624461475.7421875,811.2332112332113,791.7716727716728,787.3595848595849,797.5335775335775,815.6318681318681
1624461475.7500002,806.6666666666667,790.3076923076924,786.7216117216118,795.7875457875458,823.7912087912089
1624461475.7578125,802.1001221001221,788.8437118437118,786.0836385836386,794.041514041514,831.9505494505495
1624461475.765625,797.5335775335776,787.3797313797314,785.4456654456656,792.2954822954823,840.1098901098902
1624461475.7734375,792.967032967033,785.9157509157509,784.8076923076924,790.5494505494505,848.2692307692308
1624461475.78125,796.4322344322344,785.5262515262515,784.1831501831502,791.1941391941392,831.3797313797314
1624461475.7890625,799.8974358974359,785.1367521367521,783.5586080586081,791.8388278388279,814.490231990232
1624461475.796875,803.3626373626373,784.7472527472528,782.934065934066,792.4835164835165,797.6007326007326
1624461475.8046875,806.8278388278388,784.3577533577534,782.3095238095239,793.1282051282052,780.7112332112332
1624461475.8125,810.2930402930402,783.968253968254,781.6849816849817,793.7728937728939,763.8217338217338
1624461475.8203125,806.4939822082679,784.5630559916274,779.440083725798,795.3270538984826,787.1533228676086
1624461475.828125,802.6949241234955,785.1578580150009,777.1951857666144,796.8812140240713,810.4849119134833
1624461475.8359375,798.8958660387232,785.7526600383743,774.9502878074306,798.43537414966,833.8165009593581
1624461475.84375,795.0968079539508,786.3474620617478,772.705389848247,799.9895342752486,857.1480900052329
1624461475.8515625,791.2977498691785,786.9422640851212,770.4604918890633,801.5436944008374,880.4796790511077
1624461475.859375,787.4986917844061,787.5370661084947,768.2155939298797,803.097854526426,903.8112680969824
1624461475.8671875,783.6996336996338,788.1318681318681,765.9706959706959,804.6520146520147,927.1428571428572
1624461475.875,797.8827838827839,784.9084249084249,785.0695970695971,804.7326007326008,894.5054945054942
1624461475.8828125,801.5552066980639,785.4552590266876,784.3846153846154,802.3610675039247,875.2223966509678
1624461475.890625,805.2276295133438,786.0020931449502,783.6996336996338,799.9895342752486,855.9392987964414
1624461475.8984373,808.9000523286238,786.5489272632129,783.014652014652,797.6180010465725,836.656200941915
1624461475.90625,812.5724751439037,787.0957613814757,782.3296703296704,795.2464678178964,817.3731030873887
1624461475.9140625,816.2448979591837,787.6425954997384,781.6446886446887,792.8749345892203,798.0900052328623
1624461475.921875,819.9173207744636,788.189429618001,780.9597069597071,790.5034013605442,778.806907378336
1624461475.9296875,823.5897435897436,788.7362637362637,780.2747252747254,788.1318681318681,759.5238095238095
1624461475.9375,817.1428571428571,807.8754578754579,800.4212454212454,813.3150183150183,879.1941391941392
1624461475.9453125,816.375370661085,805.6113727542299,799.7784754927612,812.9792429792429,855.0375021803593
1624461475.9531252,815.6078841793127,803.3472876330019,799.1357055642769,812.6434676434676,830.8808651665795
1624461475.9609375,814.8403976975405,801.083202511774,798.4929356357927,812.3076923076923,806.7242281527996
1624461475.96875,814.0729112157684,798.819117390546,797.8501657073085,811.9719169719169,782.5675911390198
1624461475.9765625,813.3054247339962,796.5550322693181,797.2073957788243,811.6361416361416,758.4109541252399
1624461475.984375,812.537938252224,794.29094714809,796.56462585034,811.3003663003662,734.2543171114601
1624461475.9921875,811.7704517704518,792.0268620268621,795.9218559218558,810.9645909645909,710.0976800976802
1624461476.0,811.6745159602303,791.4416535845108,795.4421768707482,808.8252223966509,726.45473574045
1624461476.0078125,811.5785801500087,790.8564451421595,794.9624978196406,806.685853828711,742.81179138322
1624461476.015625,811.4826443397873,790.2712366998082,794.482818768533,804.546485260771,759.1688470259899
1624461476.0234375,811.3867085295657,789.6860282574569,794.0031397174254,802.4071166928309,775.5259026687598
1624461476.03125,811.2907727193442,789.1008198151056,793.5234606663178,800.2677481248909,791.8829583115297
1624461476.0390625,811.1948369091226,788.5156113727543,793.0437816152102,798.1283795569509,808.2400139542997
1624461476.0468748,811.0989010989011,787.930402930403,792.5641025641025,795.9890109890109,824.5970695970695
1624461476.0546875,822.5824175824175,807.6739926739926,806.2637362637363,817.5457875457876,854.8168498168499
1624461476.0625,821.8341182626897,806.2781266352695,806.8249607535322,818.3948194662481,872.3731030873888
1624461476.0703125,821.0858189429617,804.8822605965463,807.3861852433281,819.2438513867086,889.9293563579279
1624461476.078125,820.3375196232339,803.4863945578231,807.947409733124,820.0928833071691,907.4856096284668
1624461476.0859375,819.589220303506,802.0905285191,808.50863422292,820.9419152276296,925.0418628990058
1624461476.09375,818.8409209837781,800.6946624803768,809.0698587127159,821.7909471480901,942.5981161695448
1624461476.1015627,818.0926216640502,799.2987964416536,809.6310832025118,822.6399790685506,960.1543694400838
1624461476.109375,817.3443223443223,797.9029304029305,810.1923076923077,823.4890109890111,977.7106227106228
1624461476.1171875,818.2940868655154,796.046572475144,811.3003663003664,824.4819466248039,955.4631083202512
1624461476.125,819.2438513867086,794.1902145473574,812.408424908425,825.4748822605967,933.2155939298796
1624461476.1328125,820.1936159079016,792.333856619571,813.5164835164836,826.4678178963894,910.9680795395082
1624461476.140625,821.1433804290947,790.4774986917844,814.6245421245421,827.4607535321821,888.7205651491365
1624461476.1484375,822.0931449502878,788.6211407639979,815.7326007326008,828.4536891679749,866.473050758765
1624461476.15625,823.0429094714809,786.7647828362113,816.8406593406594,829.4466248037677,844.2255363683935
1624461476.1640625,823.992673992674,784.9084249084249,817.948717948718,830.4395604395604,821.978021978022
1624461476.5859375,813.7851037851038,787.5946275946276,788.9377289377289,801.965811965812,830.3052503052504
1624461476.59375,813.5164835164835,786.9398656898657,788.6187423687423,801.4621489621491,830.6410256410257
1624461476.6015627,813.2478632478633,786.2851037851037,788.2997557997558,800.958485958486,830.9768009768011
1624461476.609375,812.979242979243,785.6303418803418,787.9807692307692,800.4548229548229,831.3125763125764
1624461476.6171875,812.7106227106227,784.9755799755799,787.6617826617826,799.95115995116,831.6483516483518
1624461476.625,812.4420024420024,784.3208180708181,787.3427960927961,799.447496947497,831.984126984127
1624461476.6328125,812.1733821733822,783.6660561660561,787.0238095238095,798.943833943834,832.3199023199023
1624461476.640625,811.9047619047619,783.0112942612942,786.7048229548229,798.4401709401709,832.6556776556777
1624461476.6484375,811.6361416361416,782.3565323565323,786.3858363858363,797.936507936508,832.991452991453
1624461476.65625,809.6214896214896,780.9942438513866,785.042735042735,797.5527646956218,822.6879469736613
1624461476.6640625,807.6068376068376,779.631955346241,783.6996336996336,797.1690214547358,812.3844409558695
1624461476.671875,805.5921855921856,778.2696668410954,782.3565323565323,796.7852782138497,802.0809349380778
1624461476.6796875,803.5775335775336,776.9073783359497,781.0134310134309,796.4015349729635,791.7774289202861
1624461476.6875,801.5628815628816,775.545089830804,779.6703296703296,796.0177917320774,781.4739229024943
1624461476.6953125,799.5482295482296,774.1828013256585,778.3272283272282,795.6340484911914,771.1704168847026
1624461476.703125,797.5335775335776,772.8205128205128,776.9841269841269,795.2503052503052,760.8669108669109
1624461476.7109375,799.9559567416711,775.0726059654631,778.3775946275945,797.4184545613117,759.0944967730682
1624461476.71875,802.3783359497646,777.3246991104133,779.7710622710622,799.5866038723182,757.3220826792256
1624461476.7265625,804.8007151578581,779.5767922553637,781.1645299145298,801.7547531833246,755.5496685853828
1624461476.734375,807.2230943659516,781.828885400314,782.5579975579974,803.9229024943311,753.7772544915401
1624461476.7421875,809.6454735740451,784.0809785452642,783.9514652014651,806.0910518053374,752.0048403976975
1624461476.7500002,812.0678527821386,786.3330716902145,785.3449328449327,808.2592011163439,750.2324263038548
1624461476.7578125,814.4902319902321,788.5851648351647,786.7384004884004,810.4273504273503,748.4600122100122
1624461476.765625,816.9126111983256,790.837257980115,788.131868131868,812.5954997383568,746.6875981161695
1624461476.7734375,814.124990655603,791.4868804664723,787.9591836734693,815.4324586977648,775.690364057711
1624461476.78125,811.3373701128804,792.1365029528295,787.7864992150705,818.2694176571727,804.6931299992524
1624461476.7890625,808.5497495701578,792.7861254391867,787.6138147566718,821.1063766165806,833.6958959407939
1624461476.796875,805.7621290274352,793.4357479255438,787.4411302982732,823.9433355759886,862.6986618823354
1624461476.8046875,802.9745084847126,794.085370411901,787.2684458398744,826.7802945353966,891.7014278238769
1624461476.8125,800.18688794199,794.7349928982582,787.0957613814757,829.6172534948045,920.7041937654184
1624461476.8203125,797.3992673992674,795.3846153846154,786.9230769230769,832.4542124542124,949.7069597069598
1624461476.828125,778.6630036630037,809.0842490842491,801.8315018315018,805.8608058608058,980.934065934066
1624461476.8359375,779.3249607535322,808.6525379382523,802.4502878074306,801.9322344322344,959.8665620094192
1624461476.84375,779.9869178440607,808.2208267922554,803.0690737833594,798.0036630036631,938.7990580847724
1624461476.8515625,780.6488749345892,807.7891156462586,803.6878597592882,794.0750915750916,917.7315541601256
1624461476.859375,781.3108320251177,807.3574045002616,804.3066457352171,790.1465201465202,896.6640502354788
1624461476.8671875,781.9727891156463,806.9256933542648,804.925431711146,786.2179487179487,875.5965463108321
1624461476.875,782.6347462061748,806.4939822082679,805.5442176870747,782.2893772893774,854.5290423861852
1624461476.8828125,783.2967032967033,806.0622710622711,806.1630036630036,778.360805860806,833.4615384615385
1624461476.890625,782.6635269492413,801.6588173731031,804.1627420198848,778.1449502878075,830.8424908424909
1624461476.8984373,782.0303506017792,797.2553636839351,802.162480376766,777.929094714809,828.2234432234433
1624461476.90625,781.3971742543172,792.8519099947672,800.1622187336473,777.7132391418106,825.6043956043957
1624461476.9140625,780.763997906855,788.4484563055992,798.1619570905285,777.4973835688122,822.985347985348
1624461476.921875,780.130821559393,784.0450026164312,796.1616954474098,777.2815279958138,820.3663003663004
1624461476.9296875,779.497645211931,779.6415489272632,794.1614338042909,777.0656724228153,817.7472527472528
1624461476.9375,778.8644688644689,775.2380952380953,792.1611721611722,776.8498168498169,815.1282051282052
1624461476.9453125,772.2161172161173,779.8717948717949,789.945054945055,793.5714285714287,1017.3992673992676
1624461476.9531252,781.886446886447,785.0091575091576,792.1611721611722,796.643772893773,955.599816849817
1624461476.9609375,791.5567765567766,790.1465201465202,794.3772893772893,799.7161172161173,893.8003663003664
1624461476.96875,801.2271062271062,795.2838827838827,796.5934065934066,802.7884615384615,832.0009157509157
1624461476.9765625,810.8974358974359,800.4212454212454,798.8095238095239,805.8608058608058,770.2014652014652
1624461476.984375,794.1758241758242,794.981684981685,794.7802197802198,805.6593406593407,937.2161172161173
1624461476.9921875,796.1680911680912,793.2580382580383,793.9407814407815,803.6782661782662,918.032153032153
1624461477.0,798.1603581603582,791.5343915343916,793.1013431013431,801.6971916971918,898.8481888481889
1624461477.0078125,800.1526251526252,789.8107448107448,792.2619047619048,799.7161172161173,879.6642246642247
1624461477.015625,802.1448921448922,788.0870980870981,791.4224664224664,797.7350427350427,860.4802604802605
1624461477.0234375,804.1371591371591,786.3634513634514,790.5830280830281,795.7539682539683,841.2962962962963
1624461477.03125,806.1294261294261,784.6398046398047,789.7435897435897,793.7728937728938,822.1123321123322
1624461477.0390625,808.121693121693,782.9161579161579,788.9041514041514,791.7918192918193,802.928367928368
1624461477.0468748,810.11396011396,781.1925111925112,788.064713064713,789.8107448107448,783.7444037444038
1624461477.0546875,812.106227106227,779.4688644688645,787.2252747252747,787.8296703296703,764.5604395604396
1624461477.0625,813.3150183150183,780.0934065934066,785.1703296703297,789.7234432234432,778.2399267399268
1624461477.0703125,814.5238095238095,780.7179487179487,783.1153846153846,791.6172161172161,791.919413919414
1624461477.078125,815.7326007326008,781.3424908424909,781.0604395604396,793.510989010989,805.598901098901
1624461477.0859375,816.941391941392,781.967032967033,779.0054945054945,795.4047619047619,819.2783882783882
1624461477.09375,818.1501831501832,782.5915750915751,776.9505494505495,797.2985347985348,832.9578754578754
1624461477.1015627,811.0989010989011,783.4041514041514,778.5689865689866,798.9304029304029,828.6398046398047
1624461477.109375,804.0476190476192,784.2167277167277,780.1874236874237,800.5622710622711,824.3217338217338
1624461477.1171875,796.996336996337,785.0293040293041,781.8058608058608,802.1941391941392,820.0036630036631
1624461477.125,789.9450549450551,785.8418803418804,783.4242979242979,803.8260073260074,815.6855921855922
1624461477.1328125,782.893772893773,786.6544566544567,785.042735042735,805.4578754578755,811.3675213675215
1624461477.140625,775.7657421943137,788.7362637362637,785.1194836909123,794.3676957962673,799.0781440781442
1624461477.1484375,768.6377114948544,790.8180708180709,785.1962323390894,783.277516134659,786.7887667887669
1624461477.15625,761.5096807953952,792.8998778998779,785.2729809872667,772.1873364730508,774.4993894993896
1624461477.1640625,754.3816500959358,794.981684981685,785.349729635444,761.0971568114425,762.2100122100122
1624461477.171875,747.2536193964766,797.063492063492,785.4264782836212,750.0069771498343,749.9206349206349
1624461477.1796875,740.1255886970173,799.1452991452992,785.5032269317984,738.9167974882259,737.6312576312577
1624461477.1875,732.997557997558,801.2271062271062,785.5799755799757,727.8266178266177,725.3418803418804
1624461477.1953125,591.5018315018315,896.5201465201466,801.4285714285714,613.6630036630037,1231.758241758242
1624461477.203125,590.081981510553,895.7334728763301,802.6757369614513,608.7894645037502,1186.5341008198154
1624461477.2109375,588.6621315192743,894.9467992325135,803.9229024943311,603.9159253444968,1141.3099598813887
1624461477.21875,587.2422815279958,894.160125588697,805.170068027211,599.0423861852433,1096.085818942962
1624461477.2265625,585.8224315367173,893.3734519448805,806.4172335600907,594.1688470259899,1050.8616780045354
1624461477.234375,584.4025815454388,892.586778301064,807.6643990929706,589.2953078667364,1005.6375370661088
1624461477.2421875,582.9827315541602,891.8001046572474,808.9115646258504,584.421768707483,960.413396127682
1624461477.2499998,581.5628815628817,891.0134310134309,810.1587301587302,579.5482295482295,915.1892551892552
1624461477.2578125,590.1203558346416,884.029304029304,811.0989010989011,586.6091051805338,898.1318681318683
1624461477.265625,598.6778301064016,877.045177045177,812.0390720390722,593.6699808128379,881.0744810744811
1624461477.2734375,607.2353043781616,870.06105006105,812.979242979243,600.7308564451422,864.0170940170941
1624461477.28125,615.7927786499216,863.0769230769231,813.919413919414,607.7917320774463,846.959706959707
1624461477.2890625,624.3502529216815,856.0927960927961,814.8595848595849,614.8526077097506,829.90231990232
1624461477.296875,632.9077271934416,849.1086691086691,815.7997557997559,621.9134833420547,812.8449328449328
1624461477.3046875,641.4652014652015,842.1245421245421,816.7399267399268,628.974358974359,795.7875457875458
1624461477.3125,661.3095238095239,835.2747252747253,809.2857142857143,654.2078754578755,801.7307692307693
1624461477.3203125,681.1538461538462,828.4249084249084,801.8315018315019,679.441391941392,807.6739926739926
1624461477.328125,711.4407814407815,818.8888888888889,796.0024420024421,707.6263736263737,817.894993894994
1624461477.3359375,741.7277167277168,809.3528693528693,790.1733821733823,735.8113553113554,828.1159951159951
1624461477.34375,772.014652014652,799.8168498168499,784.3443223443223,763.996336996337,838.3369963369964
1624461477.3515625,802.3015873015873,790.2808302808303,778.5152625152625,792.1813186813188,848.5579975579976
1624461477.359375,832.5885225885227,780.7448107448108,772.6862026862027,820.3663003663005,858.7789987789989
1624461477.3671875,838.7365689865691,776.7625152625153,770.8092185592186,829.3113553113554,856.4352869352871
1624461477.375,844.8846153846155,772.7802197802198,768.9322344322345,838.2564102564104,854.0915750915752
1624461477.3828125,851.0326617826619,768.7979242979244,767.0552503052503,847.2014652014652,851.7478632478634
1624461477.390625,857.1807081807083,764.8156288156289,765.1782661782662,856.1465201465202,849.4041514041515
1624461477.3984373,863.3287545787546,760.8333333333334,763.3012820512821,865.0915750915751,847.0604395604397
1624461477.40625,869.476800976801,756.851037851038,761.4242979242979,874.03663003663,844.7167277167279
1624461477.4140625,875.6248473748474,752.8687423687425,759.5473137973138,882.9816849816849,842.373015873016
1624461477.4296875,880.5698587127158,748.4489795918367,758.366823652538,892.4965986394558,821.4484563055993
1624461477.4375,879.366823652538,748.0115122972267,759.0633176347462,893.0664573521716,802.8676085818944
1624461477.4453125,878.16378859236,747.5740450026165,759.7598116169545,893.6363160648875,784.2867608581896
1624461477.4531252,876.9607535321821,747.1365777080064,760.4563055991628,894.2061747776033,765.7059131344847
1624461477.4609375,875.7577184720042,746.6991104133962,761.152799581371,894.7760334903193,747.1250654107798
1624461477.46875,874.5546834118263,746.2616431187861,761.8492935635793,895.3458922030351,728.5442176870749
1624461477.4765625,873.3516483516484,745.8241758241759,762.5457875457876,895.915750915751,709.96336996337
1624461477.484375,871.7399267399268,753.6813186813188,764.1575091575091,874.3589743589744,813.3150183150183
1624461477.4921875,870.1377987092274,755.0532007674866,763.8409209837781,871.3274027559742,803.1362288505145
1624461477.5,868.5356706785278,756.4250828536543,763.5243328100471,868.295831152974,792.9574393860108
1624461477.5078125,866.9335426478284,757.7969649398221,763.2077446363161,865.2642595499738,782.778649921507
1624461477.515625,865.331414617129,759.16884702599,762.8911564625851,862.2326879469737,772.5998604570033
1624461477.5234375,863.7292865864296,760.5407291121578,762.574568288854,859.2011163439735,762.4210709924995
1624461477.53125,862.12715855573,761.9126111983255,762.257980115123,856.1695447409733,752.2422815279958
1624461477.5390625,860.5250305250306,763.2844932844934,761.941391941392,853.1379731379731,742.063492063492
1624461477.5468748,854.7295482295483,763.2576312576313,761.1355311355312,846.8858363858363,784.418192918193
1624461477.5546875,848.934065934066,763.2307692307693,760.3296703296704,840.6336996336996,826.7728937728938
1624461477.5625,843.1385836385837,763.2039072039072,759.5238095238096,834.3815628815629,869.1275946275947
1624461477.5703125,837.3431013431014,763.1770451770452,758.7179487179488,828.1294261294262,911.4822954822956
1624461477.578125,831.547619047619,763.1501831501831,757.912087912088,821.8772893772895,953.8369963369964
1624461477.5859375,831.2901912901913,764.8066748066748,759.3894993894995,821.7392484059152,936.7236467236468
1624461477.59375,831.0327635327635,766.4631664631664,760.866910866911,821.6012074345408,919.6102971102972
1624461477.6015627,830.7753357753357,768.1196581196581,762.3443223443224,821.4631664631665,902.4969474969477
1624461477.609375,830.517908017908,769.7761497761497,763.8217338217339,821.3251254917922,885.3835978835979
1624461477.6171875,830.2604802604802,771.4326414326415,765.2991452991454,821.1870845204179,868.2702482702483
1624461477.625,830.0030525030525,773.0891330891332,766.7765567765568,821.0490435490435,851.1568986568986
1624461477.6328125,829.7456247456247,774.7456247456248,768.2539682539683,820.9110025776693,834.043549043549
1624461477.640625,829.4881969881969,776.4021164021165,769.7313797313798,820.7729616062949,816.9301994301994
1624461477.6484375,829.2307692307692,778.0586080586081,771.2087912087912,820.6349206349206,799.8168498168498
1624461477.65625,827.2362637362637,779.8919413919415,775.9230769230769,820.1782661782662,823.6904761904761
1624461477.6640625,825.2417582417582,781.7252747252747,780.6373626373627,819.7216117216117,847.5641025641025
1624461477.671875,823.2472527472528,783.5586080586081,785.3516483516484,819.2649572649573,871.4377289377289
1624461477.6796875,821.2527472527473,785.3919413919414,790.0659340659341,818.8083028083028,895.3113553113553
1624461477.6875,819.2582417582419,787.2252747252747,794.7802197802198,818.3516483516484,919.1849816849816
1624461477.6953125,819.2330586080586,786.2431318681319,795.2838827838827,815.2289377289377,864.6130952380953
1624461477.703125,819.2078754578755,785.2609890109891,795.7875457875458,812.1062271062272,810.0412087912089
1624461477.7109375,819.1826923076924,784.2788461538462,796.2912087912089,808.9835164835165,755.4693223443223
1624461477.71875,819.1575091575091,783.2967032967033,796.7948717948718,805.8608058608058,700.8974358974359
1624461477.7265625,787.3260073260074,788.1318681318681,789.3406593406594,811.5018315018315,872.7472527472528
1624461477.734375,788.9665096807954,787.8152799581371,790.5206698063841,812.8113553113553,865.0052328623758
1624461477.7421875,790.6070120355835,787.4986917844061,791.7006802721089,814.1208791208791,857.2632129774987
1624461477.7500002,792.2475143903715,787.1821036106751,792.8806907378337,815.4304029304029,849.5211930926217
1624461477.7578125,793.8880167451597,786.8655154369441,794.0607012035583,816.7399267399268,841.7791732077446
1624461477.765625,795.5285190999477,786.548927263213,795.2407116692831,818.0494505494506,834.0371533228677
1624461477.7734375,797.1690214547358,786.232339089482,796.4207221350078,819.3589743589744,826.2951334379906
1624461477.78125,798.8095238095239,785.915750915751,797.6007326007326,820.6684981684982,818.5531135531136
1624461477.7890625,800.8721437292867,785.8485958485959,798.128379556951,818.3996162567591,819.713936856794
1624461477.796875,802.9347636490494,785.7814407814409,798.6560265131694,816.1307343450201,820.8747601604745
1624461477.8046875,804.9973835688122,785.7142857142858,799.1836734693878,813.861852433281,822.0355834641549
1624461477.8125,807.0600034885749,785.6471306471307,799.7113204256062,811.592970521542,823.1964067678355
1624461477.8203125,809.1226234083377,785.5799755799756,800.2389673818246,809.324088609803,824.3572300715159
1624461477.828125,811.1852433281005,785.5128205128206,800.766614338043,807.0552066980639,825.5180533751964
1624461477.8359375,813.2478632478633,785.4456654456654,801.2942612942614,804.7863247863248,826.6788766788768
1624461477.84375,811.9635225885227,785.1686507936508,801.9322344322345,804.6604090354091,823.4638278388279
1624461477.8515625,810.6791819291819,784.8916361416361,802.5702075702077,804.5344932844934,820.2487789987791
1624461477.859375,809.3948412698412,784.6146214896214,803.2081807081809,804.4085775335776,817.0337301587302
1624461477.8671875,808.1105006105006,784.3376068376068,803.8461538461539,804.2826617826618,813.8186813186815
1624461477.875,806.82615995116,784.0605921855922,804.484126984127,804.156746031746,810.6036324786326
1624461477.8828125,805.5418192918193,783.7835775335775,805.1221001221002,804.0308302808303,807.3885836385837
1624461477.890625,804.2574786324785,783.5065628815628,805.7600732600733,803.9049145299145,804.1735347985349
1624461477.8984373,802.9731379731379,783.2295482295482,806.3980463980464,803.7789987789988,800.958485958486
1624461477.90625,800.5928639261972,781.2969746303079,804.4580111246778,803.8909238909239,812.9046262379596
1624461477.9140625,798.2125898792565,779.3644010310677,802.5179758513092,804.0028490028491,824.8507665174332
1624461477.921875,795.8323158323158,777.4318274318274,800.5779405779406,804.1147741147741,836.7969067969068
1624461477.9296875,793.4520417853751,775.4992538325871,798.637905304572,804.2266992266992,848.7430470763804
1624461477.9375,791.0717677384345,773.5666802333469,796.6978700312034,804.3386243386244,860.689187355854
1624461477.9453125,788.6914936914937,771.6341066341066,794.7578347578348,804.4505494505495,872.6353276353276
1624461477.9531252,786.311219644553,769.7015330348663,792.8177994844661,804.5624745624746,884.5814679148012
1624461477.9609375,783.9309455976123,767.7689594356261,790.8777642110975,804.6743996743998,896.5276081942748
1624461477.96875,781.5506715506716,765.8363858363858,788.9377289377289,804.7863247863248,908.4737484737484
