timestamp,RAW_TP9,RAW_AF7,RAW_AF8,RAW_TP10,AUX_RIGHT
1624278936.5625,777.0177045177046,800.4884004884004,793.5042735042736,803.1074481074481,882.014652014652
1624278936.5703125,776.9953194953196,800.4995929995929,792.989417989418,802.8835978835979,855.6898656898658
1624278936.578125,776.9729344729345,800.5107855107855,792.4745624745625,802.6597476597477,829.3650793650795
1624278936.5859375,776.9505494505495,800.5219780219779,791.959706959707,802.4358974358975,803.0402930402931
1624278936.59375,782.1550671550672,799.5258445258445,790.5494505494505,802.5478225478225,777.924297924298
1624278936.6015627,787.3595848595849,798.5297110297109,789.1391941391942,802.6597476597477,752.8083028083029
1624278936.609375,792.5641025641025,797.5335775335775,787.7289377289377,802.7716727716728,727.6923076923077
1624278936.6171875,778.0586080586081,795.7875457875458,793.7728937728938,803.040293040293,660.0
1624278936.625,779.3284493284494,796.2332112332113,794.1697191697192,803.9316239316239,673.5470085470085
1624278936.6328125,780.5982905982906,796.6788766788767,794.5665445665446,804.8229548229548,687.0940170940171
1624278936.640625,781.868131868132,797.1245421245421,794.96336996337,805.7142857142857,700.6410256410256
1624278936.6484375,783.1379731379732,797.5702075702076,795.3601953601955,806.6056166056165,714.1880341880342
1624278936.65625,784.4078144078145,798.015873015873,795.7570207570209,807.4969474969474,727.7350427350427
1624278936.6640625,785.6776556776557,798.4615384615386,796.1538461538462,808.3882783882784,741.2820512820513
1624278936.671875,786.947496947497,798.907203907204,796.5506715506716,809.2796092796093,754.8290598290597
1624278936.6796875,788.2173382173382,799.3528693528694,796.947496947497,810.1709401709402,768.3760683760682
1624278936.6875,789.4871794871796,799.7985347985349,797.3443223443224,811.0622710622711,781.9230769230768
1624278936.6953125,790.7570207570208,800.2442002442003,797.7411477411479,811.953601953602,795.4700854700853
1624278936.703125,792.0268620268621,800.6898656898658,798.1379731379733,812.8449328449328,809.0170940170939
1624278936.7109375,788.9377289377289,808.6813186813187,789.3406593406594,815.934065934066,739.3772893772893
1624278936.71875,790.3882783882784,808.1172161172161,788.9780219780221,814.2014652014652,769.8791208791208
1624278936.7265625,791.8388278388278,807.5531135531136,788.6153846153846,812.4688644688645,800.3809523809524
1624278936.734375,793.2893772893773,806.9890109890109,788.2527472527473,810.7362637362638,830.8827838827839
1624278936.7421875,794.7399267399267,806.4249084249084,787.8901098901099,809.0036630036631,861.3846153846155
1624278936.7500002,796.1904761904761,805.8608058608058,787.5274725274726,807.2710622710623,891.886446886447
1624278936.7578125,784.8278388278388,803.4432234432234,788.2124542124542,797.3186813186812,931.0915750915752
1624278936.765625,784.1831501831502,803.1913919413919,787.9505494505495,798.4368131868131,896.802197802198
1624278936.7734375,783.5384615384615,802.9395604395604,787.6886446886447,799.5549450549449,862.5128205128207
1624278936.78125,782.8937728937728,802.6877289377289,787.4267399267399,800.6730769230769,828.2234432234434
1624278936.7890625,782.2490842490843,802.4358974358975,787.1648351648352,801.7912087912088,793.934065934066
1624278936.796875,781.6043956043957,802.1840659340659,786.9029304029305,802.9093406593406,759.6446886446888
1624278936.8046875,780.959706959707,801.9322344322344,786.6410256410256,804.0274725274726,725.3553113553114
1624278936.8125,780.3150183150183,801.6804029304029,786.3791208791208,805.1456043956044,691.0659340659341
1624278936.8203125,779.6703296703297,801.4285714285714,786.1172161172161,806.2637362637363,656.7765567765568
1624278936.828125,791.2401883830455,799.4714809000524,797.2841444270017,826.5829408686552,804.421768707483
1624278936.8359375,794.1347088285863,799.3711594527921,797.185467593631,825.9941690962099,819.1558645436197
1624278936.84375,797.0292292741273,799.2708380055319,797.0867907602603,825.4053973237648,833.8899603797563
1624278936.8515625,799.9237497196681,799.1705165582716,796.9881139268896,824.8166255513195,848.624056215893
1624278936.859375,802.818270165209,799.0701951110115,796.8894370935188,824.2278537788742,863.3581520520296
1624278936.8671875,805.7127906107498,798.9698736637512,796.7907602601481,823.6390820064289,878.0922478881663
1624278936.875,808.6073110562908,798.869552216491,796.6920834267775,823.0503102339837,892.8263437243029
1624278936.8828125,811.5018315018316,798.7692307692307,796.5934065934067,822.4615384615385,907.5604395604396
1624278936.890625,810.0412087912089,799.363553113553,796.2240537240539,820.5509768009767,880.436507936508
1624278936.8984373,808.5805860805862,799.9578754578755,795.8547008547009,818.6404151404151,853.3125763125763
1624278936.90625,807.1199633699634,800.5521978021978,795.4853479853481,816.7298534798535,826.1886446886447
1624278936.9140625,805.6593406593407,801.1465201465202,795.1159951159952,814.8192918192918,799.0647130647131
1624278936.921875,804.198717948718,801.7408424908426,794.7466422466423,812.9087301587301,771.9407814407815
1624278936.9296875,802.7380952380953,802.335164835165,794.3772893772895,810.9981684981685,744.8168498168499
1624278936.9375,802.3519536019537,801.9406288156289,794.6207264957266,810.6959706959707,740.703601953602
1624278936.9453125,801.965811965812,801.5460927960929,794.8641636141637,810.393772893773,736.5903540903541
1624278936.9531252,801.5796703296704,801.1515567765568,795.1076007326008,810.0915750915751,732.4771062271063
1624278936.9609375,801.1935286935287,800.7570207570209,795.3510378510379,809.7893772893773,728.3638583638584
1624278936.96875,800.8073870573871,800.3624847374848,795.594474969475,809.4871794871796,724.2506105006105
1624278936.9765625,800.4212454212454,799.9679487179487,795.8379120879122,809.1849816849817,720.1373626373627
1624278936.984375,800.0351037851038,799.5734126984128,796.0813492063493,808.8827838827839,716.0241147741149
1624278936.9921875,799.6489621489623,799.1788766788767,796.3247863247864,808.5805860805862,711.910866910867
1624278937.0,799.2628205128206,798.7843406593407,796.5682234432235,808.2783882783883,707.797619047619
1624278937.0078125,798.876678876679,798.3898046398047,796.8116605616606,807.9761904761905,703.6843711843712
1624278937.015625,798.4905372405373,797.9952686202687,797.0550976800977,807.6739926739928,699.5711233211234
1624278937.0234375,798.1043956043957,797.6007326007326,797.2985347985348,807.3717948717949,695.4578754578755
1624278937.03125,801.1599511599512,796.7277167277167,790.2808302808303,793.9072039072039,850.3174603174602
1624278937.0390625,801.9490231990233,796.7612942612942,791.0195360195361,795.703601953602,826.0241147741147
1624278937.0468748,802.7380952380953,796.7948717948718,791.7582417582418,797.5,801.7307692307692
1624278937.0546875,803.5271672771673,796.8284493284493,792.4969474969475,799.296398046398,777.4374236874237
1624278937.0625,804.3162393162394,796.8620268620268,793.2356532356532,801.0927960927961,753.1440781440781
1624278937.0703125,805.1053113553114,796.8956043956044,793.974358974359,802.8891941391942,728.8507326007325
1624278937.078125,805.8943833943835,796.9291819291819,794.7130647130648,804.6855921855922,704.557387057387
1624278937.0859375,806.6834554334555,796.9627594627595,795.4517704517705,806.4819902319903,680.2640415140415
1624278937.09375,807.4725274725275,796.996336996337,796.1904761904763,808.2783882783883,655.9706959706959
1624278937.1015627,804.6520146520146,801.2942612942612,796.8620268620269,809.2185592185592,781.1477411477412
1624278937.109375,802.6541514041513,801.3502238502238,796.3303825803827,808.8771876271876,777.5605413105413
1624278937.1171875,800.6562881562882,801.4061864061864,795.7987382987384,808.5358160358161,773.9733414733415
1624278937.125,798.6584249084249,801.462148962149,795.2670940170941,808.1944444444445,770.3861416361417
1624278937.1328125,796.6605616605616,801.5181115181115,794.7354497354498,807.8530728530728,766.7989417989418
1624278937.140625,794.6626984126984,801.5740740740741,794.2038054538056,807.5117012617013,763.211741961742
1624278937.1484375,792.6648351648352,801.6300366300367,793.6721611721613,807.1703296703297,759.6245421245421
1624278937.15625,793.3867521367522,800.958485958486,793.7561050061051,807.0528083028083,788.4508547008547
1624278937.1640625,794.1086691086691,800.2869352869353,793.8400488400489,806.935286935287,817.2771672771672
1624278937.171875,794.830586080586,799.6153846153846,793.9239926739928,806.8177655677656,846.1034798534798
1624278937.1796875,795.5525030525031,798.943833943834,794.0079365079366,806.7002442002442,874.9297924297924
1624278937.1875,796.2744200244201,798.2722832722833,794.0918803418804,806.5827228327229,903.7561050061048
1624278937.1953125,796.996336996337,797.6007326007326,794.1758241758242,806.4652014652015,932.5824175824176
1624278937.203125,798.2722832722833,797.432844932845,793.7728937728938,805.424297924298,937.2496947496948
1624278937.2109375,799.5482295482296,797.2649572649573,793.3699633699634,804.3833943833944,941.916971916972
1624278937.21875,800.8241758241759,797.0970695970695,792.967032967033,803.3424908424909,946.584249084249
1624278937.2265625,802.1001221001221,796.9291819291819,792.5641025641025,802.3015873015873,951.2515262515262
1624278937.234375,803.3760683760685,796.7612942612943,792.1611721611722,801.2606837606837,955.9188034188036
1624278937.2421875,804.6520146520147,796.5934065934066,791.7582417582418,800.2197802197802,960.5860805860806
1624278937.2499998,798.7423687423687,800.2197802197803,796.3247863247865,801.2942612942612,706.8742368742369
1624278937.2578125,795.815527065527,801.0088522588524,796.05056980057,799.6209808709808,734.3350630850631
1624278937.265625,792.8886853886854,801.7979242979244,795.7763532763533,797.9477004477004,761.7958892958893
1624278937.2734375,789.9618437118437,802.5869963369964,795.5021367521367,796.2744200244199,789.2567155067155
1624278937.28125,787.035002035002,803.3760683760684,795.2279202279202,794.6011396011395,816.7175417175417
1624278937.2890625,784.1081603581604,804.1651404151404,794.9537037037037,792.9278591778591,844.178367928368
1624278937.296875,781.1813186813187,804.9542124542124,794.6794871794871,791.2545787545787,871.6391941391942
1624278937.3046875,777.6892551892552,804.484126984127,794.2597680097679,787.4267399267399,868.919413919414
1624278937.3125,774.1971916971917,804.0140415140415,793.8400488400488,783.598901098901,866.1996336996338
1624278937.3203125,770.7051282051282,803.5439560439561,793.4203296703297,779.7710622710622,863.4798534798535
1624278937.328125,767.2130647130647,803.0738705738706,793.0006105006105,775.9432234432234,860.7600732600732
1624278937.3359375,763.7210012210012,802.6037851037852,792.5808913308913,772.1153846153845,858.040293040293
1624278937.34375,760.2289377289377,802.1336996336997,792.1611721611722,768.2875457875457,855.3205128205128
1624278937.3515625,763.5363247863247,801.3782051282052,791.741452991453,771.3095238095237,838.6660561660561
1624278937.359375,766.8437118437118,800.6227106227108,791.3217338217339,774.3315018315018,822.0115995115995
1624278937.3671875,770.151098901099,799.8672161172162,790.9020146520147,777.3534798534798,805.3571428571429
1624278937.375,773.458485958486,799.1117216117217,790.4822954822955,780.3754578754579,788.7026862026862
1624278937.3828125,776.765873015873,798.3562271062273,790.0625763125764,783.3974358974359,772.0482295482295
1624278937.390625,780.0732600732601,797.6007326007327,789.6428571428572,786.419413919414,755.3937728937728
1624278937.3984373,780.6105006105006,798.7535612535614,790.0849613349613,788.4508547008547,768.5281847781848
1624278937.40625,781.1477411477412,799.90638990639,790.5270655270656,790.4822954822955,781.6625966625967
1624278937.4140625,781.6849816849817,801.0592185592186,790.9691697191697,792.5137362637363,794.7970085470085
1624278937.421875,782.2222222222222,802.2120472120473,791.4112739112738,794.545177045177,807.9314204314205
1624278937.4296875,782.7594627594626,803.364875864876,791.8533781033781,796.5766178266177,821.0658323158325
1624278937.4375,783.2967032967032,804.5177045177046,792.2954822954822,798.6080586080585,834.2002442002444
1624278937.4453125,790.4151404151404,801.8315018315019,794.3101343101343,801.2942612942612,636.7643467643467
1624278937.4531252,791.061507936508,801.8063186813188,794.8977411477412,800.807387057387,663.0639499389498
1624278937.4609375,791.7078754578754,801.7811355311355,795.485347985348,800.3205128205128,689.363553113553
1624278937.46875,792.3542429792429,801.7559523809524,796.0729548229549,799.8336385836386,715.6631562881562
1624278937.4765625,793.0006105006105,801.7307692307693,796.6605616605617,799.3467643467643,741.9627594627593
1624278937.484375,793.646978021978,801.705586080586,797.2481684981685,798.8598901098901,768.2623626373626
1624278937.4921875,794.2933455433456,801.6804029304029,797.8357753357755,798.3730158730159,794.5619658119657
1624278937.5,794.939713064713,801.6552197802197,798.4233821733823,797.8861416361417,820.861568986569
1624278937.5078125,795.5860805860806,801.6300366300366,799.0109890109891,797.3992673992675,847.1611721611721
1624278937.515625,797.8021978021978,803.8461538461539,799.4139194139194,806.6666666666667,985.5677655677656
1624278937.5234375,797.6410256410256,802.2344322344323,800.5421245421245,807.1501831501832,928.6739926739928
1624278937.53125,797.4798534798535,800.6227106227107,801.6703296703297,807.6336996336997,871.7802197802198
1624278937.5390625,797.3186813186813,799.0109890109891,802.7985347985348,808.1172161172161,814.886446886447
1624278937.5468748,797.1575091575093,797.3992673992674,803.92673992674,808.6007326007326,757.9926739926741
1624278937.5546875,796.996336996337,795.7875457875458,805.054945054945,809.0842490842491,701.0989010989011
1624278937.5625,811.5018315018315,803.4432234432235,799.2124542124543,805.2564102564103,705.934065934066
1624278937.5703125,806.8905168905169,802.861212861213,798.7759462759464,807.416564916565,759.5685795685796
1624278937.578125,802.2792022792023,802.2792022792023,798.3394383394384,809.5767195767196,813.2030932030933
1624278937.5859375,797.6678876678877,801.6971916971918,797.9029304029305,811.7368742368742,866.8376068376069
1624278937.59375,793.056573056573,801.1151811151813,797.4664224664225,813.8970288970289,920.4721204721204
1624278937.6015627,788.4452584452584,800.5331705331706,797.0299145299145,816.0571835571836,974.106634106634
1624278937.609375,783.8339438339439,799.9511599511601,796.5934065934066,818.2173382173382,1027.741147741148
1624278937.6171875,784.3890923890924,800.1973951973953,798.5811965811965,816.8294668294668,1007.9930809930812
1624278937.625,784.944240944241,800.4436304436305,800.5689865689866,815.4415954415955,988.2450142450144
1624278937.6328125,785.4993894993895,800.6898656898657,802.5567765567766,814.0537240537241,968.4969474969477
1624278937.640625,786.054538054538,800.936100936101,804.5445665445666,812.6658526658526,948.7488807488808
1624278937.6484375,786.6096866096866,801.1823361823361,806.5323565323565,811.2779812779813,929.000814000814
1624278937.65625,787.1648351648352,801.4285714285713,808.5201465201466,809.8901098901099,909.2527472527472
1624278937.6640625,787.4379324379324,800.6227106227105,808.032153032153,810.942205942206,892.5132275132274
1624278937.671875,787.7110297110297,799.8168498168498,807.5441595441596,811.9943019943021,875.7737077737078
1624278937.6796875,787.984126984127,799.010989010989,807.0561660561661,813.046398046398,859.034188034188
1624278937.6875,788.2572242572244,798.2051282051282,806.5681725681726,814.0984940984941,842.2946682946682
1624278937.6953125,788.5303215303217,797.3992673992674,806.080179080179,815.1505901505902,825.5551485551485
1624278937.703125,788.8034188034189,796.5934065934066,805.5921855921856,816.2026862026863,808.8156288156288
1624278937.7109375,792.6536426536428,796.1233211233211,805.4354904354905,815.8557183557184,809.6662596662596
1624278937.71875,796.5038665038666,795.6532356532357,805.2787952787953,815.5087505087506,810.5168905168905
1624278937.7265625,800.3540903540904,795.1831501831502,805.1221001221002,815.1617826617828,811.3675213675214
1624278937.734375,804.2043142043143,794.7130647130647,804.965404965405,814.8148148148149,812.2181522181522
1624278937.7421875,808.054538054538,794.2429792429792,804.8087098087099,814.467846967847,813.0687830687831
1624278937.7500002,811.9047619047619,793.7728937728938,804.6520146520147,814.1208791208792,813.919413919414
1624278937.7578125,806.0622710622711,794.1758241758241,800.8241758241759,809.4871794871794,835.0732600732601
1624278937.765625,805.4578754578755,794.9010989010989,800.6227106227107,807.7948717948717,819.1575091575093
1624278937.7734375,804.8534798534798,795.6263736263736,800.4212454212454,806.1025641025641,803.2417582417582
1624278937.78125,804.2490842490843,796.3516483516484,800.2197802197803,804.4102564102564,787.3260073260074
1624278937.7890625,803.6446886446886,797.0769230769231,800.0183150183151,802.7179487179487,771.4102564102564
1624278937.796875,803.040293040293,797.8021978021978,799.8168498168499,801.025641025641,755.4945054945055
1624278937.8046875,801.2271062271062,800.8241758241759,800.018315018315,811.9047619047619,858.2417582417581
1624278937.8125,800.0686813186813,800.5555555555557,799.9007936507936,811.1660561660563,857.8052503052502
1624278937.8203125,798.9102564102565,800.2869352869353,799.7832722832723,810.4273504273505,857.3687423687423
1624278937.828125,797.7518315018315,800.018315018315,799.6657509157509,809.6886446886447,856.9322344322344
1624278937.8359375,796.5934065934066,799.7496947496948,799.5482295482295,808.949938949939,856.4957264957264
1624278937.84375,795.4349816849817,799.4810744810745,799.4307081807082,808.2112332112333,856.0592185592186
1624278937.8515625,794.2765567765568,799.2124542124542,799.3131868131868,807.4725274725275,855.6227106227107
1624278937.859375,794.0583028083029,799.3579568579569,799.0613553113553,806.6890516890518,820.6461131461132
1624278937.8671875,793.8400488400489,799.5034595034595,798.8095238095239,805.9055759055759,785.6695156695157
1624278937.875,793.6217948717949,799.6489621489621,798.5576923076924,805.1221001221002,750.6929181929182
1624278937.8828125,793.4035409035409,799.7944647944648,798.3058608058608,804.3386243386244,715.7163207163208
1624278937.890625,793.185286935287,799.9399674399674,798.0540293040293,803.5551485551485,680.7397232397233
1624278937.8984373,792.967032967033,800.0854700854701,797.8021978021978,802.7716727716728,645.7631257631258
1624278937.90625,791.3015873015873,799.973544973545,796.8351648351648,802.4403744403745,689.6109076109077
1624278937.9140625,789.6361416361417,799.8616198616199,795.868131868132,802.1090761090761,733.4586894586895
1624278937.921875,787.9706959706959,799.7496947496948,794.901098901099,801.7777777777778,777.3064713064714
1624278937.9296875,786.3052503052503,799.6377696377697,793.934065934066,801.4464794464795,821.1542531542533
1624278937.9375,784.6398046398047,799.5258445258446,792.9670329670331,801.1151811151811,865.0020350020352
1624278937.9453125,782.974358974359,799.4139194139195,792.0000000000001,800.7838827838829,908.849816849817
1624278937.9531252,785.7075702075703,798.9774114774116,793.8534798534799,802.3553113553114,868.7649572649574
1624278937.9609375,788.4407814407814,798.5409035409036,795.7069597069598,803.92673992674,828.6800976800978
1624278937.96875,791.1739926739926,798.1043956043956,797.5604395604396,805.4981684981685,788.5952380952381
1624278937.9765625,793.9072039072039,797.6678876678876,799.4139194139194,807.0695970695971,748.5103785103785
1624278937.984375,793.2804232804233,797.9812779812779,799.249762583096,807.353140686474,763.29941663275
1624278937.9921875,792.6536426536427,798.2946682946683,799.0856057522724,807.636684303351,778.0884547551215
1624278938.0,792.0268620268621,798.6080586080586,798.9214489214489,807.920227920228,792.877492877493
1624278938.0078125,791.4000814000815,798.9214489214489,798.7572920906255,808.2037715371049,807.6665309998644
1624278938.015625,790.7733007733008,799.2348392348393,798.5931352598019,808.4873151539819,822.4555691222359
1624278938.0234375,790.1465201465202,799.5482295482296,798.4289784289784,808.7708587708588,837.2446072446074
1624278938.03125,789.5197395197396,799.8616198616199,798.264821598155,809.0544023877358,852.0336453669789
1624278938.0390625,788.892958892959,800.1750101750104,798.1006647673314,809.3379460046127,866.8226834893504
1624278938.0468748,788.2661782661784,800.4884004884007,797.936507936508,809.6214896214897,881.6117216117219
1624278938.0546875,789.1671754171755,800.8297720797723,798.4345746845747,809.5991045991046,854.7832722832726
1624278938.0625,790.0681725681727,801.1711436711438,798.9326414326415,809.5767195767196,827.9548229548232
1624278938.0703125,790.9691697191698,801.5125152625154,799.4307081807083,809.5543345543346,801.1263736263738
1624278938.078125,791.8701668701669,801.853886853887,799.9287749287749,809.5319495319495,774.2979242979245
1624278938.0859375,792.7711640211642,802.1952584452586,800.4268416768417,809.5095645095645,747.4694749694751
1624278938.09375,793.6721611721613,802.5366300366302,800.9249084249085,809.4871794871794,720.6410256410257
1624278938.1015627,795.1215913715914,802.8220390720392,801.4341676841677,807.9426129426129,729.1585266585267
1624278938.109375,796.5710215710217,803.1074481074482,801.943426943427,806.3980463980464,737.6760276760277
1624278938.1171875,798.0204517704519,803.3928571428572,802.4526862026862,804.8534798534798,746.1935286935288
1624278938.125,799.4698819698821,803.6782661782662,802.9619454619454,803.3089133089132,754.7110297110298
1624278938.1328125,800.9193121693122,803.9636752136753,803.4712047212047,801.7643467643468,763.2285307285308
1624278938.140625,802.3687423687425,804.2490842490843,803.9804639804639,800.2197802197802,771.7460317460318
1624278938.1484375,800.7905982905984,803.9916564916565,802.2344322344322,800.2309727309727,786.3074888074889
1624278938.15625,799.2124542124543,803.7342287342287,800.4884004884004,800.2421652421652,800.868945868946
1624278938.1640625,797.6343101343102,803.4768009768011,798.7423687423687,800.2533577533577,815.430402930403
1624278938.171875,796.0561660561661,803.2193732193733,796.996336996337,800.2645502645502,829.99185999186
1624278938.1796875,794.4780219780221,802.9619454619456,795.2503052503052,800.2757427757427,844.5533170533171
1624278938.1875,792.899877899878,802.7045177045178,793.5042735042736,800.2869352869352,859.1147741147741
1624278938.1953125,787.3260073260074,803.040293040293,799.4139194139194,809.4871794871796,470.2197802197803
1624278938.203125,787.1749084249085,802.7380952380952,799.3131868131868,809.2353479853481,501.7490842490843
1624278938.2109375,787.0238095238095,802.4358974358975,799.2124542124542,808.9835164835165,533.2783882783883
1624278938.21875,786.8727106227107,802.1336996336996,799.1117216117216,808.731684981685,564.8076923076924
1624278938.2265625,786.7216117216117,801.8315018315018,799.0109890109891,808.4798534798535,596.3369963369964
1624278938.234375,786.5705128205128,801.5293040293041,798.9102564102565,808.2280219780221,627.8663003663004
1624278938.2421875,786.419413919414,801.2271062271062,798.8095238095239,807.9761904761906,659.3956043956044
1624278938.2499998,786.268315018315,800.9249084249085,798.7087912087912,807.724358974359,690.9249084249084
1624278938.2578125,786.1172161172161,800.6227106227107,798.6080586080586,807.4725274725275,722.4542124542124
1624278938.265625,777.6556776556777,801.8315018315019,795.1159951159951,801.0256410256411,771.3431013431014
1624278938.2734375,778.0586080586081,802.1001221001221,794.7802197802198,801.7867317867318,780.991045991046
1624278938.28125,778.4615384615385,802.3687423687425,794.4444444444445,802.5478225478226,790.6389906389907
1624278938.2890625,778.8644688644688,802.6373626373627,794.1086691086691,803.3089133089134,800.2869352869352
1624278938.296875,779.2673992673992,802.9059829059829,793.7728937728938,804.0700040700041,809.9348799348799
1624278938.3046875,779.6703296703297,803.1746031746032,793.4371184371184,804.8310948310949,819.5828245828245
1624278938.3125,780.07326007326,803.4432234432235,793.1013431013431,805.5921855921856,829.2307692307692
1624278938.3203125,779.3614163614163,803.9938949938951,794.1534391534392,805.0459910459911,838.5653235653235
1624278938.328125,778.6495726495726,804.5445665445666,795.2055352055352,804.4997964997965,847.8998778998779
1624278938.3359375,777.9377289377289,805.0952380952381,796.2576312576313,803.953601953602,857.2344322344322
1624278938.34375,777.2258852258852,805.6459096459097,797.3097273097274,803.4074074074074,866.5689865689865
1624278938.3515625,776.5140415140415,806.1965811965813,798.3618233618233,802.8612128612128,875.9035409035408
1624278938.359375,775.8021978021978,806.7472527472528,799.4139194139194,802.3150183150183,885.2380952380952
1624278938.3671875,777.0449199922884,806.7854251012146,799.5411605937921,802.2471563524194,882.9689608636977
1624278938.375,778.287642182379,806.8235974551765,799.668401773665,802.1792943898207,880.6998264893001
1624278938.3828125,779.5303643724696,806.8617698091383,799.7956429535377,802.1114324272219,878.4306921149026
1624278938.390625,780.7730865625603,806.8999421631001,799.9228841334104,802.043570464623,876.161557740505
1624278938.3984373,782.0158087526509,806.9381145170619,800.0501253132833,801.9757085020243,873.8924233661076
1624278938.40625,783.2585309427415,806.9762868710237,800.177366493156,801.9078465394255,871.62328899171
1624278938.4140625,784.5012531328321,807.0144592249856,800.3046076730287,801.8399845768266,869.3541546173125
1624278938.421875,785.7439753229227,807.0526315789474,800.4318488529016,801.7721226142279,867.085020242915
1624278938.4296875,786.9866975130133,807.0908039329092,800.5590900327743,801.704260651629,864.8158858685174
1624278938.4375,788.229419703104,807.1289762868711,800.686331212647,801.6363986890302,862.5467514941199
1624278938.4453125,789.4721418931946,807.1671486408329,800.8135723925197,801.5685367264314,860.2776171197223
1624278938.4531252,790.7148640832852,807.2053209947948,800.9408135723926,801.5006747638326,858.0084827453248
1624278938.4609375,791.9575862733758,807.2434933487566,801.0680547522653,801.4328128012338,855.7393483709272
1624278938.46875,793.2003084634664,807.2816657027184,801.195295932138,801.364950838635,853.4702139965298
1624278938.4765625,794.443030653557,807.3198380566802,801.3225371120109,801.2970888760362,851.2010796221323
1624278938.484375,795.6857528436476,807.358010410642,801.4497782918836,801.2292269134374,848.9319452477347
1624278938.4921875,796.9284750337382,807.3961827646039,801.5770194717563,801.1613649508386,846.6628108733372
1624278938.5,798.1711972238288,807.4343551185657,801.7042606516292,801.0935029882398,844.3936764989396
1624278938.5078125,799.4139194139194,807.4725274725275,801.8315018315019,801.025641025641,842.1245421245421
1624278938.515625,796.5358451072736,806.2637362637363,800.7953950811094,804.1339612768186,747.4358974358976
1624278938.5234375,796.8620268620269,801.8315018315019,804.5177045177046,810.964590964591,964.7496947496948
1624278938.53125,796.906796906797,802.950752950753,803.6670736670737,812.039072039072,868.3150183150183
1624278938.5390625,796.951566951567,804.0700040700042,802.8164428164429,813.1135531135532,771.8803418803419
1624278938.5468748,796.996336996337,805.1892551892553,801.965811965812,814.1880341880342,675.4456654456654
1624278938.5546875,781.6849816849817,805.054945054945,792.967032967033,802.6373626373627,628.974358974359
1624278938.5625,785.1770451770452,804.5848595848596,794.6906796906798,804.3386243386244,661.1192511192512
1624278938.5703125,788.6691086691087,804.114774114774,796.4143264143264,806.0398860398861,693.2641432641433
1624278938.578125,792.1611721611723,803.6446886446886,798.1379731379732,807.7411477411479,725.4090354090354
1624278938.5859375,795.6532356532358,803.1746031746031,799.8616198616199,809.4424094424095,757.5539275539276
1624278938.59375,799.1452991452993,802.7045177045176,801.5852665852666,811.1436711436712,789.6988196988198
1624278938.6015627,802.6373626373628,802.2344322344321,803.3089133089134,812.8449328449329,821.8437118437118
1624278938.609375,799.2963980463982,802.7716727716727,802.928367928368,812.9736467236468,823.8975376475377
1624278938.6171875,795.9554334554335,803.3089133089132,802.5478225478226,813.1023606023607,825.9513634513635
1624278938.625,792.614468864469,803.8461538461538,802.1672771672772,813.2310744810745,828.0051892551892
1624278938.6328125,789.2735042735044,804.3833943833944,801.7867317867318,813.3597883597884,830.059015059015
1624278938.640625,785.9325396825398,804.9206349206349,801.4061864061865,813.4885022385023,832.1128408628408
1624278938.6484375,782.5915750915751,805.4578754578755,801.0256410256411,813.6172161172161,834.1666666666666
1624278938.65625,782.9329466829467,805.927960927961,801.7643467643468,814.1376678876679,840.193833943834
1624278938.6640625,783.2743182743184,806.3980463980464,802.5030525030526,814.6581196581196,846.2210012210013
1624278938.671875,783.61568986569,806.868131868132,803.2417582417584,815.1785714285714,852.2481684981685
1624278938.6796875,783.9570614570615,807.3382173382174,803.980463980464,815.6990231990233,858.2753357753359
1624278938.6875,784.2984330484331,807.8083028083029,804.7191697191697,816.219474969475,864.3025030525032
1624278938.6953125,784.6398046398048,808.2783882783883,805.4578754578755,816.7399267399268,870.3296703296705
1624278938.703125,776.6483516483518,800.8241758241759,805.8608058608058,817.3443223443223,805.2564102564103
1624278938.7109375,776.3369963369964,801.4652014652015,805.1282051282051,818.0952380952381,831.4285714285714
1624278938.71875,776.0256410256411,802.1062271062272,804.3956043956044,818.8461538461538,857.6007326007326
1624278938.7265625,775.7142857142858,802.7472527472528,803.6630036630037,819.5970695970697,883.7728937728938
1624278938.734375,775.4029304029305,803.3882783882784,802.9304029304029,820.3479853479854,909.945054945055
1624278938.7421875,775.0915750915751,804.0293040293041,802.1978021978022,821.0989010989011,936.117216117216
1624278938.7500002,774.7802197802199,804.6703296703297,801.4652014652015,821.8498168498169,962.2893772893772
1624278938.7578125,774.4688644688646,805.3113553113553,800.7326007326008,822.6007326007326,988.4615384615385
1624278938.765625,774.1575091575093,805.952380952381,800.0,823.3516483516484,1014.6336996336996
1624278938.7734375,773.8461538461539,806.5934065934066,799.2673992673992,824.1025641025642,1040.805860805861
1624278938.78125,773.5347985347986,807.2344322344322,798.5347985347986,824.8534798534799,1066.9780219780218
1624278938.7890625,773.2234432234433,807.8754578754579,797.8021978021978,825.6043956043957,1093.150183150183
1624278938.796875,782.5714285714287,801.1062271062272,800.6227106227107,808.5201465201465,763.7142857142858
1624278938.8046875,783.2452177452178,800.7950752950753,799.7944647944648,808.6723646723647,773.2435897435898
1624278938.8125,783.919006919007,800.4839234839235,798.966218966219,808.8245828245828,782.7728937728939
1624278938.8203125,784.5927960927961,800.1727716727717,798.1379731379732,808.976800976801,792.3021978021978
1624278938.828125,785.2665852665853,799.8616198616198,797.3097273097274,809.1290191290191,801.8315018315019
1624278938.8359375,785.9403744403745,799.5504680504681,796.4814814814814,809.2812372812373,811.360805860806
1624278938.84375,786.6141636141637,799.2393162393163,795.6532356532356,809.4334554334554,820.89010989011
1624278938.8515625,787.2879527879528,798.9281644281645,794.8249898249898,809.5856735856736,830.419413919414
1624278938.859375,787.961741961742,798.6170126170126,793.9967439967439,809.7378917378917,839.948717948718
1624278938.8671875,788.6355311355311,798.3058608058608,793.1684981684981,809.8901098901099,849.4780219780221
1624278938.875,790.2304639804639,798.8666056166056,794.9346764346764,810.8302808302808,824.3855311355312
1624278938.8828125,791.8253968253969,799.4273504273505,796.7008547008546,811.7704517704518,799.2930402930403
1624278938.890625,793.4203296703297,799.9880952380952,798.467032967033,812.7106227106228,774.2005494505495
1624278938.8984373,795.0152625152625,800.54884004884,800.2332112332113,813.6507936507937,749.1080586080586
1624278938.90625,796.6101953601955,801.1095848595849,801.9993894993895,814.5909645909646,724.0155677655678
1624278938.9140625,798.2051282051283,801.6703296703297,803.7655677655678,815.5311355311356,698.9230769230769
1624278938.921875,762.3443223443223,799.4139194139194,798.6080586080586,812.7106227106227,1066.153846153846
1624278938.9296875,769.9328449328449,799.9242979242979,798.5006105006105,811.8913308913309,1029.957264957265
1624278938.9375,777.5213675213676,800.4346764346765,798.3931623931625,811.072039072039,993.7606837606836
1624278938.9453125,785.1098901098901,800.945054945055,798.2857142857143,810.2527472527472,957.5641025641024
1624278938.9531252,792.6984126984127,801.4554334554334,798.1782661782662,809.4334554334555,921.3675213675214
1624278938.9609375,800.2869352869353,801.965811965812,798.0708180708182,808.6141636141637,885.1709401709402
1624278938.96875,807.8754578754579,802.4761904761905,797.96336996337,807.7948717948718,848.974358974359
1624278938.9765625,806.3890923890924,802.1896621896622,798.3215303215304,808.2604802604803,843.2796092796093
1624278938.984375,804.902726902727,801.9031339031338,798.6796906796907,808.7260887260887,837.5848595848596
1624278938.9921875,803.4163614163615,801.6166056166056,799.037851037851,809.1916971916972,831.8901098901099
1624278939.0,801.929995929996,801.3300773300773,799.3960113960114,809.6573056573056,826.1953601953602
1624278939.0078125,800.4436304436305,801.043549043549,799.7541717541717,810.1229141229142,820.5006105006106
1624278939.015625,798.957264957265,800.7570207570207,800.1123321123321,810.5885225885226,814.8058608058609
1624278939.0234375,797.4708994708996,800.4704924704924,800.4704924704924,811.0541310541311,809.1111111111112
1624278939.03125,795.9845339845341,800.1839641839641,800.8286528286527,811.5197395197395,803.4163614163615
1624278939.0390625,794.4981684981686,799.8974358974358,801.1868131868131,811.985347985348,797.7216117216118
1624278939.0468748,796.3919413919414,802.6373626373627,797.5,805.6593406593406,817.0421245421246
1624278939.0546875,794.6257631257631,802.4090354090355,798.7322954822955,804.497557997558,838.0515873015873
1624278939.0625,792.8595848595849,802.1807081807082,799.9645909645909,803.3357753357753,859.0610500610501
1624278939.0703125,791.0934065934066,801.952380952381,801.1968864468864,802.1739926739928,880.0705128205129
1624278939.078125,789.3272283272283,801.7240537240538,802.4291819291819,801.0122100122102,901.0799755799756
1624278939.0859375,787.5610500610501,801.4957264957264,803.6614774114773,799.8504273504275,922.0894383394384
1624278939.09375,785.7948717948718,801.2673992673992,804.8937728937728,798.6886446886449,943.0989010989013
1624278939.1015627,795.5860805860807,801.0256410256411,799.4139194139195,797.8021978021978,743.6080586080586
1624278939.109375,794.1422466422467,801.2271062271063,798.876678876679,797.7686202686202,750.4410866910868
1624278939.1171875,792.6984126984128,801.4285714285714,798.3394383394384,797.7350427350427,757.2741147741148
1624278939.125,791.2545787545788,801.6300366300367,797.802197802198,797.7014652014652,764.1071428571429
1624278939.1328125,789.8107448107448,801.8315018315019,797.2649572649574,797.6678876678876,770.940170940171
1624278939.140625,788.3669108669109,802.032967032967,796.7277167277168,797.63431013431,777.773199023199
1624278939.1484375,786.9230769230769,802.2344322344322,796.1904761904763,797.6007326007325,784.6062271062272
1624278939.15625,786.6096866096866,801.8538868538868,796.5374440374441,797.656695156695,792.1387871387872
1624278939.1640625,786.2962962962963,801.4733414733415,796.884411884412,797.7126577126576,799.6713471713472
1624278939.171875,785.982905982906,801.0927960927961,797.2313797313798,797.7686202686202,807.2039072039072
1624278939.1796875,785.6695156695157,800.7122507122507,797.5783475783476,797.8245828245828,814.7364672364672
1624278939.1875,785.3561253561254,800.3317053317054,797.9253154253155,797.8805453805453,822.2690272690273
1624278939.1953125,785.0427350427351,799.95115995116,798.2722832722833,797.9365079365078,829.8015873015873
1624278939.203125,784.7293447293448,799.5706145706146,798.6192511192511,797.9924704924705,837.3341473341474
1624278939.2109375,784.4159544159545,799.1900691900693,798.966218966219,798.048433048433,844.8667073667074
1624278939.21875,784.1025641025642,798.8095238095239,799.3131868131868,798.1043956043956,852.3992673992674
1624278939.2265625,785.4456654456656,799.2124542124543,799.363553113553,798.8934676434676,828.4920634920635
1624278939.234375,786.7887667887668,799.6153846153846,799.4139194139194,799.6825396825396,804.5848595848596
1624278939.2421875,788.1318681318681,800.018315018315,799.4642857142858,800.4716117216117,780.6776556776556
1624278939.2499998,789.4749694749695,800.4212454212454,799.514652014652,801.2606837606838,756.7704517704517
1624278939.2578125,790.8180708180707,800.8241758241759,799.5650183150183,802.0497557997559,732.8632478632478
1624278939.265625,792.1611721611721,801.2271062271062,799.6153846153846,802.8388278388279,708.9560439560439
1624278939.2734375,790.952380952381,800.6227106227107,796.1904761904763,796.996336996337,886.0439560439561
1624278939.28125,793.1461131461132,802.0105820105821,797.0411070411071,801.7867317867318,833.1705331705332
1624278939.2890625,795.3398453398454,803.3984533984534,797.891737891738,806.5771265771267,780.2971102971104
1624278939.296875,797.5335775335776,804.7863247863248,798.7423687423689,811.3675213675215,727.4236874236875
1624278939.3046875,795.8979785646453,805.0310676977344,798.8707095373763,811.3466286799621,742.2097408764076
1624278939.3125,794.262379595713,805.275810609144,798.9990503323837,811.3257359924028,756.9957943291278
1624278939.3203125,792.6267806267807,805.5205535205536,799.1273911273912,811.3048433048434,771.7818477818479
1624278939.328125,790.9911816578484,805.7652964319631,799.2557319223987,811.2839506172841,786.567901234568
1624278939.3359375,789.355582688916,806.0100393433727,799.3840727174061,811.2630579297246,801.353954687288
1624278939.34375,787.7199837199837,806.2547822547822,799.5124135124136,811.2421652421652,816.1400081400081
1624278939.3515625,786.0843847510514,806.4995251661918,799.640754307421,811.2212725546059,830.9260615927283
1624278939.359375,784.4487857821191,806.7442680776013,799.7690951024284,811.2003798670465,845.7121150454484
1624278939.3671875,782.8131868131868,806.9890109890109,799.8974358974359,811.1794871794872,860.4981684981685
1624278939.375,782.6587301587301,806.8681318681319,799.3467643467643,810.460927960928,901.1538461538462
1624278939.3828125,782.5042735042736,806.7472527472527,798.7960927960928,809.7423687423687,941.809523809524
1624278939.390625,782.3498168498169,806.6263736263736,798.2454212454213,809.0238095238096,982.4652014652016
1624278939.3984373,782.1953601953602,806.5054945054945,797.6947496947497,808.3052503052504,1023.1208791208792
1624278939.40625,782.0409035409036,806.3846153846154,797.1440781440781,807.5866910866912,1063.7765567765568
1624278939.4140625,781.886446886447,806.2637362637363,796.5934065934066,806.868131868132,1104.4322344322345
1624278939.421875,781.080586080586,804.6520146520147,799.0109890109891,799.4139194139195,710.3663003663004
1624278939.4296875,783.2967032967033,804.893772893773,800.1391941391942,799.9780219780221,710.9304029304029
1624278939.4375,785.5128205128206,805.1355311355312,801.2673992673994,800.5421245421246,711.4945054945055
1624278939.4453125,787.7289377289377,805.3772893772893,802.3956043956044,801.1062271062272,712.0586080586081
1624278939.4531252,789.945054945055,805.6190476190476,803.5238095238096,801.6703296703297,712.6227106227107
1624278939.4609375,792.1611721611722,805.8608058608058,804.6520146520147,802.2344322344322,713.1868131868132
1624278939.46875,793.8736263736264,806.9688644688645,805.5586080586081,802.8388278388279,808.6813186813188
1624278939.4765625,793.8568376068376,806.3812576312577,804.4449531949532,802.7604802604803,826.7908017908019
1624278939.484375,793.8400488400489,805.7936507936508,803.3312983312984,802.6821326821328,844.900284900285
1624278939.4921875,793.8232600732601,805.2060439560439,802.2176434676435,802.6037851037852,863.0097680097681
1624278939.5,793.8064713064714,804.6184371184371,801.1039886039886,802.5254375254375,881.1192511192513
1624278939.5078125,793.7896825396826,804.0308302808303,799.9903337403338,802.4470899470899,899.2287342287344
1624278939.515625,793.7728937728939,803.4432234432235,798.8766788766789,802.3687423687423,917.3382173382176
1624278939.5234375,793.7952787952789,803.6782661782662,798.6117894451228,802.1187762854429,898.236331569665
1624278939.53125,793.8176638176639,803.9133089133089,798.3469000135667,801.8688102021435,879.1344458011126
1624278939.5390625,793.8400488400489,804.1483516483516,798.0820105820106,801.6188441188441,860.0325600325601
1624278939.5468748,793.8624338624339,804.3833943833944,797.8171211504546,801.3688780355446,840.9306742640077
1624278939.5546875,793.8848188848189,804.6184371184371,797.5522317188984,801.1189119522453,821.8287884954552
1624278939.5625,793.9072039072039,804.8534798534798,797.2873422873423,800.8689458689458,802.7269027269028
1624278939.5703125,793.9295889295889,805.0885225885226,797.0224528557862,800.6189797856464,783.6250169583503
1624278939.578125,793.9519739519739,805.3235653235653,796.7575634242302,800.369013702347,764.5231311897978
1624278939.5859375,793.9743589743589,805.558608058608,796.4926739926741,800.1190476190476,745.4212454212454
1624278939.59375,794.8361823361822,805.228428978429,797.1138583638584,799.5985958485958,754.4647944647945
1624278939.6015627,795.6980056980057,804.8982498982499,797.7350427350428,799.0781440781441,763.5083435083435
1624278939.609375,796.5598290598291,804.5680708180709,798.3562271062272,798.5576923076924,772.5518925518926
1624278939.6171875,797.4216524216524,804.2378917378918,798.9774114774115,798.0372405372406,781.5954415954417
1624278939.625,798.2834757834758,803.9077126577128,799.5985958485959,797.5167887667887,790.6389906389907
1624278939.6328125,799.1452991452992,803.5775335775337,800.2197802197802,796.996336996337,799.6825396825398
1624278939.640625,796.973951973952,804.6296296296298,800.1973951973952,797.2201872201873,819.4932844932846
1624278939.6484375,794.8026048026048,805.6817256817258,800.1750101750101,797.4440374440375,839.3040293040293
1624278939.65625,792.6312576312578,806.7338217338219,800.1526251526252,797.6678876678877,859.114774114774
1624278939.6640625,790.4599104599106,807.785917785918,800.1302401302402,797.891737891738,878.9255189255189
1624278939.671875,788.2885632885634,808.8380138380139,800.1078551078551,798.1155881155881,898.7362637362637
1624278939.6796875,786.1172161172162,809.89010989011,800.0854700854701,798.3394383394384,918.5470085470084
1624278939.6875,786.2515262515262,804.3833943833944,796.8620268620269,785.4456654456654,829.7680097680098
1624278939.6953125,786.5649165649165,803.4879934879934,798.2498982498984,793.1013431013431,822.5600325600326
1624278939.703125,786.8783068783068,802.5925925925926,799.6377696377697,800.7570207570208,815.3520553520555
1624278939.7109375,787.1916971916971,801.6971916971917,801.0256410256411,808.4126984126984,808.1440781440782
1624278939.71875,789.1839641839641,802.1448921448921,801.3390313390314,808.6365486365487,825.0671550671551
1624278939.7265625,791.1762311762311,802.5925925925926,801.6524216524217,808.8603988603988,841.990231990232
1624278939.734375,793.1684981684982,803.040293040293,801.965811965812,809.0842490842491,858.913308913309
1624278939.7421875,795.1607651607652,803.4879934879934,802.2792022792024,809.3080993080994,875.836385836386
1624278939.7500002,797.1530321530322,803.935693935694,802.5925925925927,809.5319495319495,892.7594627594628
1624278939.7578125,799.1452991452992,804.3833943833944,802.905982905983,809.7557997557998,909.6825396825398
1624278939.765625,805.2564102564103,799.4139194139194,809.8901098901099,816.941391941392,834.6703296703297
1624278939.7734375,806.1025641025641,799.4945054945055,809.7289377289377,817.1428571428572,843.6556776556777
1624278939.78125,806.948717948718,799.5750915750916,809.5677655677656,817.3443223443224,852.6410256410256
1624278939.7890625,807.7948717948718,799.6556776556777,809.4065934065934,817.5457875457876,861.6263736263737
1624278939.796875,808.6410256410257,799.7362637362638,809.2454212454213,817.7472527472528,870.6117216117217
1624278939.8046875,809.4871794871796,799.8168498168499,809.0842490842491,817.948717948718,879.5970695970697
1624278939.8125,803.4432234432235,803.7118437118437,806.5323565323565,821.037851037851,783.4310134310135
1624278939.8203125,801.4733414733415,804.5848595848596,804.94301994302,819.8066748066749,801.4957264957266
1624278939.828125,799.5034595034596,805.4578754578754,803.3536833536833,818.5754985754986,819.5604395604396
1624278939.8359375,797.5335775335775,806.3308913308913,801.7643467643468,817.3443223443223,837.6251526251526
1624278939.84375,795.5636955636955,807.2039072039072,800.1750101750102,816.1131461131462,855.6898656898658
1624278939.8515625,793.5938135938136,808.076923076923,798.5856735856736,814.88196988197,873.7545787545788
1624278939.859375,791.6239316239316,808.9499389499389,796.996336996337,813.6507936507937,891.8192918192918
1624278939.8671875,795.0936100936101,808.5246235246235,797.6902726902728,813.6507936507937,884.1188441188442
1624278939.875,798.5632885632886,808.099308099308,798.3842083842085,813.6507936507937,876.4183964183965
1624278939.8828125,802.032967032967,807.6739926739926,799.0781440781441,813.6507936507937,868.7179487179487
1624278939.890625,805.5026455026455,807.2486772486773,799.7720797720798,813.6507936507936,861.0175010175011
1624278939.8984373,808.9723239723239,806.8233618233618,800.4660154660155,813.6507936507936,853.3170533170535
1624278939.90625,812.4420024420024,806.3980463980464,801.1599511599512,813.6507936507936,845.6166056166057
1624278939.9140625,809.3976393976393,805.1668701668702,800.1973951973953,811.8152218152218,846.8813593813595
1624278939.921875,806.3532763532763,803.935693935694,799.2348392348393,809.9796499796499,848.1461131461133
1624278939.9296875,803.3089133089132,802.7045177045177,798.2722832722834,808.1440781440781,849.4108669108671
1624278939.9375,800.2645502645502,801.4733414733415,797.3097273097274,806.3085063085064,850.6756206756207
1624278939.9453125,797.2201872201872,800.2421652421654,796.3471713471714,804.4729344729345,851.9403744403745
1624278939.9531252,794.1758241758241,799.0109890109891,795.3846153846155,802.6373626373627,853.2051282051283
1624278939.9609375,797.1978021978023,800.4212454212454,800.018315018315,807.6739926739926,909.010989010989
1624278939.96875,796.2352462352463,800.8540225206892,800.2794736128069,807.4874508207841,897.0499253832587
1624278939.9765625,795.2726902726904,801.2867996201329,800.5406322072988,807.3009089675757,885.0888617555285
1624278939.984375,794.3101343101343,801.7195767195767,800.8017908017907,807.1143671143672,873.1277981277981
1624278939.9921875,793.3475783475784,802.1523538190205,801.0629493962826,806.9278252611587,861.1667345000678
1624278940.0,792.3850223850225,802.5851309184642,801.3241079907747,806.74128340795,849.2056708723376
1624278940.0078125,791.4224664224665,803.017908017908,801.5852665852666,806.5547415547416,837.2446072446073
1624278940.015625,790.4599104599105,803.4506851173518,801.8464251797585,806.3681997015331,825.2835436168771
1624278940.0234375,789.4973544973545,803.8834622167955,802.1075837742504,806.1816578483246,813.3224799891467
1624278940.03125,788.5347985347986,804.3162393162393,802.3687423687423,805.9951159951161,801.3614163614164
1624278940.0390625,790.885225885226,805.0437525437525,802.950752950753,806.7785917785918,790.1577126577128
1624278940.0468748,793.2356532356533,805.7712657712657,803.5327635327635,807.5620675620676,778.954008954009
1624278940.0546875,795.5860805860807,806.498778998779,804.114774114774,808.3455433455433,767.7503052503052
1624278940.0625,797.936507936508,807.2262922262922,804.6967846967847,809.1290191290192,756.5466015466016
1624278940.0703125,800.2869352869353,807.9538054538054,805.2787952787953,809.9124949124949,745.3428978428979
1624278940.078125,802.6373626373627,808.6813186813187,805.8608058608058,810.6959706959707,734.1391941391942
1624278940.0859375,786.5201465201466,803.7118437118437,802.6373626373626,805.860805860806,808.9499389499389
1624278940.09375,788.4228734228734,803.4656084656084,801.2942612942612,804.875864875865,818.2397232397232
1624278940.1015627,790.3256003256004,803.2193732193732,799.95115995116,803.8909238909239,827.5295075295074
1624278940.109375,792.2283272283273,802.9731379731379,798.6080586080586,802.9059829059829,836.8192918192917
1624278940.1171875,794.1310541310542,802.7269027269026,797.2649572649573,801.9210419210419,846.1090761090761
1624278940.125,796.033781033781,802.4806674806674,795.921855921856,800.9361009361008,855.3988603988604
1624278940.1328125,797.936507936508,802.2344322344321,794.5787545787547,799.9511599511599,864.6886446886447
1624278940.140625,792.1611721611722,805.8608058608058,801.4285714285714,821.978021978022,760.7326007326008
1624278940.1484375,794.1086691086691,806.5995115995115,800.5723443223443,820.1312576312577,795.6700244200244
1624278940.15625,796.0561660561661,807.3382173382173,799.7161172161173,818.2844932844932,830.6074481074481
1624278940.1640625,798.0036630036631,808.0769230769231,798.8598901098901,816.4377289377289,865.5448717948718
1624278940.171875,799.95115995116,808.8156288156288,798.003663003663,814.5909645909646,900.4822954822955
1624278940.1796875,801.898656898657,809.5543345543344,797.1474358974359,812.7442002442002,935.4197191697192
1624278940.1875,803.8461538461539,810.2930402930402,796.2912087912088,810.8974358974359,970.3571428571428
1624278940.1953125,807.0695970695972,814.3223443223443,793.4539072039072,809.9236874236874,920.7799145299144
1624278940.203125,810.2930402930403,818.3516483516484,790.6166056166056,808.949938949939,871.2026862026862
1624278940.2109375,813.5164835164835,822.3809523809523,787.7793040293041,807.9761904761905,821.6254578754579
1624278940.21875,816.7399267399268,826.4102564102564,784.9420024420024,807.002442002442,772.0482295482296
1624278940.2265625,819.96336996337,830.4395604395604,782.1047008547008,806.0286935286936,722.4710012210013
1624278940.234375,823.1868131868132,834.4688644688645,779.2673992673992,805.054945054945,672.893772893773
1624278940.2421875,816.5384615384615,814.1208791208792,786.1172161172162,802.8388278388279,698.2783882783883
1624278940.2499998,816.5552503052503,813.8354700854701,787.2252747252749,806.3141025641027,751.7338217338217
1624278940.2578125,816.572039072039,813.5500610500611,788.3333333333334,809.7893772893773,805.1892551892553
1624278940.265625,816.5888278388279,813.264652014652,789.441391941392,813.264652014652,858.6446886446888
1624278940.2734375,816.6056166056167,812.9792429792429,790.5494505494506,816.7399267399268,912.1001221001222
1624278940.28125,816.6224053724054,812.693833943834,791.6575091575091,820.2152014652014,965.5555555555557
1624278940.2890625,816.6391941391942,812.4084249084249,792.7655677655678,823.6904761904761,1019.0109890109892
1624278940.296875,815.0890313390314,812.302096052096,793.0677655677656,821.6814204314204,967.4806674806676
1624278940.3046875,813.5388685388685,812.1957671957672,793.3699633699634,819.6723646723647,915.950345950346
1624278940.3125,811.9887057387058,812.0894383394384,793.6721611721612,817.6633089133088,864.4200244200246
1624278940.3203125,810.438542938543,811.9831094831095,793.974358974359,815.6542531542531,812.889702889703
1624278940.328125,808.8883801383802,811.8767806267806,794.2765567765568,813.6451973951973,761.3593813593815
1624278940.3359375,807.3382173382174,811.7704517704518,794.5787545787547,811.6361416361416,709.8290598290599
1624278940.34375,808.3679283679285,810.8974358974359,793.9743589743591,810.3154253154253,739.1758241758242
1624278940.3515625,809.3976393976395,810.02442002442,793.3699633699634,808.994708994709,768.5225885225885
1624278940.359375,810.4273504273506,809.1514041514042,792.7655677655679,807.6739926739926,797.8693528693528
1624278940.3671875,811.4570614570615,808.2783882783883,792.1611721611723,806.3532763532764,827.2161172161171
1624278940.375,812.4867724867726,807.4053724053724,791.5567765567766,805.0325600325601,856.5628815628814
1624278940.3828125,813.5164835164836,806.5323565323565,790.9523809523811,803.7118437118438,885.9096459096457
1624278940.390625,809.4065934065934,804.2490842490843,797.8021978021977,815.3699633699633,812.871794871795
1624278940.3984373,806.3308913308913,803.980463980464,797.8693528693528,815.5982905982905,811.0317460317461
1624278940.40625,803.2551892551893,803.7118437118437,797.9365079365078,815.8266178266178,809.1916971916974
1624278940.4140625,800.1794871794872,803.4432234432235,798.003663003663,816.054945054945,807.3516483516485
1624278940.421875,797.1037851037851,803.1746031746032,798.0708180708181,816.2832722832723,805.5115995115996
1624278940.4296875,794.0280830280831,802.9059829059829,798.1379731379731,816.5115995115996,803.6715506715508
1624278940.4375,790.952380952381,802.6373626373627,798.2051282051282,816.7399267399268,801.8315018315019
1624278940.4453125,803.5439560439561,802.7380952380952,797.5,817.4450549450551,808.4798534798535
1624278940.4531252,802.7865961199295,802.8910595577262,798.1902048568716,816.6354633021301,814.4566544566545
1624278940.4609375,802.0292361959029,803.0440238773572,798.880409713743,815.8258716592051,820.4334554334555
1624278940.46875,801.2718762718763,803.1969881969882,799.5706145706146,815.0162800162801,826.4102564102565
1624278940.4765625,800.5145163478497,803.3499525166192,800.2608194274861,814.2066883733552,832.3870573870574
1624278940.484375,799.7571564238231,803.5029168362502,800.9510242843576,813.3970967304301,838.3638583638584
1624278940.4921875,798.9997964997965,803.6558811558812,801.6412291412291,812.5875050875052,844.3406593406594
1624278940.5,798.24243657577,803.8088454755122,802.3314339981007,811.7779134445802,850.3174603174604
1624278940.5078125,797.4850766517433,803.9618097951432,803.0216388549721,810.9683218016552,856.2942612942613
1624278940.515625,796.7277167277167,804.1147741147741,803.7118437118437,810.1587301587302,862.2710622710623
1624278940.5234375,797.3768823768823,803.4208384208384,803.2865282865283,810.8302808302809,839.2592592592594
1624278940.53125,798.026048026048,802.7269027269028,802.8612128612128,811.5018315018316,816.2474562474563
1624278940.5390625,798.6752136752136,802.0329670329671,802.4358974358975,812.1733821733822,793.2356532356533
1624278940.5468748,799.3243793243794,801.3390313390314,802.0105820105821,812.8449328449328,770.2238502238504
1624278940.5546875,799.973544973545,800.6450956450958,801.5852665852666,813.5164835164835,747.2120472120473
1624278940.5625,800.6227106227107,799.9511599511601,801.1599511599512,814.1880341880342,724.2002442002444
1624278940.5703125,799.7496947496948,799.1005291005292,803.6446886446887,815.8221408221408,758.785103785104
1624278940.578125,798.8766788766789,798.2498982498984,806.1294261294262,817.4562474562475,793.3699633699636
1624278940.5859375,798.003663003663,797.3992673992675,808.6141636141635,819.0903540903541,827.9548229548232
1624278940.59375,797.1306471306472,796.5486365486365,811.098901098901,820.7244607244608,862.5396825396826
1624278940.6015627,796.2576312576313,795.6980056980057,813.5836385836385,822.3585673585675,897.1245421245422
1624278940.609375,795.3846153846154,794.8473748473748,816.068376068376,823.9926739926741,931.7094017094018
1624278940.6171875,807.4725274725275,802.6373626373627,810.6959706959707,821.1721611721612,821.5750915750916
1624278940.625,805.0325600325601,803.0850630850631,809.0842490842491,819.5828245828246,837.5132275132275
1624278940.6328125,802.5925925925926,803.5327635327635,807.4725274725275,817.9934879934881,853.4513634513636
1624278940.640625,800.1526251526252,803.980463980464,805.8608058608058,816.4041514041514,869.3894993894995
1624278940.6484375,797.7126577126578,804.4281644281645,804.2490842490843,814.8148148148149,885.3276353276354
1624278940.65625,795.2726902726903,804.8758648758649,802.6373626373627,813.2254782254784,901.2657712657716
1624278940.6640625,792.8327228327229,805.3235653235653,801.0256410256411,811.6361416361418,917.2039072039074
1624278940.671875,791.2433862433863,804.9598087098086,800.9752747252749,810.9254171754174,905.8491045991047
1624278940.6796875,789.6540496540497,804.5960520960521,800.9249084249085,810.2146927146929,894.4943019943022
1624278940.6875,788.064713064713,804.2322954822955,800.8745421245421,809.5039682539684,883.1394993894995
1624278940.6953125,786.4753764753765,803.8685388685388,800.8241758241759,808.7932437932438,871.7846967846968
1624278940.703125,784.88603988604,803.5047822547822,800.7738095238096,808.0825193325194,860.4298941798943
1624278940.7109375,783.2967032967033,803.1410256410256,800.7234432234433,807.3717948717949,849.0750915750916
1624278940.71875,786.7663817663818,803.7734025234025,799.9007936507937,806.4036426536427,829.9414936914937
1624278940.7265625,790.2360602360602,804.4057794057794,799.0781440781441,805.4354904354905,810.8078958078959
1624278940.734375,793.7057387057387,805.0381562881563,798.2554945054945,804.4673382173382,791.6742979242979
1624278940.7421875,797.1754171754172,805.6705331705332,797.432844932845,803.499185999186,772.5407000407
1624278940.7500002,800.6450956450957,806.3029100529101,796.6101953601953,802.5310337810338,753.4071021571021
1624278940.7578125,804.1147741147741,806.935286935287,795.7875457875458,801.5628815628816,734.2735042735043
1624278940.765625,814.7252747252747,807.4725274725275,796.5934065934066,813.1135531135532,998.4615384615385
1624278940.7734375,808.96336996337,806.7069597069598,797.5604395604396,812.1868131868132,964.897435897436
1624278940.78125,803.2014652014652,805.941391941392,798.5274725274726,811.2600732600733,931.3333333333334
1624278940.7890625,797.4395604395605,805.1758241758242,799.4945054945055,810.3333333333334,897.7692307692307
1624278940.796875,791.6776556776557,804.4102564102565,800.4615384615385,809.4065934065935,864.2051282051282
1624278940.8046875,785.915750915751,803.6446886446887,801.4285714285714,808.4798534798535,830.6410256410256
1624278940.8125,782.2222222222223,803.8461538461539,793.1013431013431,801.4285714285714,901.2210012210012
1624278940.8203125,784.3040293040294,803.7118437118438,793.5042735042736,802.7492877492878,872.098087098087
1624278940.828125,786.3858363858365,803.5775335775336,793.9072039072039,804.0700040700041,842.9751729751729
1624278940.8359375,788.4676434676435,803.4432234432235,794.3101343101343,805.3907203907204,813.8522588522587
1624278940.84375,790.5494505494506,803.3089133089134,794.7130647130648,806.7114367114367,784.7293447293447
1624278940.8515625,792.6312576312578,803.1746031746031,795.1159951159951,808.032153032153,755.6064306064305
1624278940.859375,794.7130647130648,803.040293040293,795.5189255189256,809.3528693528693,726.4835164835164
1624278940.8671875,794.0862840862842,804.6967846967847,797.3992673992674,807.2934472934473,728.1400081400081
1624278940.875,793.4595034595035,806.3532763532763,799.2796092796093,805.2340252340252,729.7964997964998
1624278940.8828125,792.8327228327229,808.009768009768,801.1599511599511,803.1746031746032,731.4529914529916
1624278940.890625,795.1831501831502,801.2271062271062,804.2490842490843,807.8754578754579,869.1208791208792
1624278940.8984373,793.8512413512414,802.0441595441596,804.0923890923891,806.9129019129019,872.42266992267
1624278940.90625,792.5193325193326,802.8612128612128,803.935693935694,805.950345950346,875.7244607244608
1624278940.9140625,791.1874236874237,803.6782661782661,803.7789987789988,804.9877899877899,879.0262515262516
1624278940.921875,789.8555148555148,804.4953194953194,803.6223036223035,804.025234025234,882.3280423280424
1624278940.9296875,788.523606023606,805.3123728123728,803.4656084656084,803.0626780626781,885.6298331298332
1624278940.9375,787.1916971916971,806.1294261294261,803.3089133089132,802.1001221001221,888.931623931624
1624278940.9453125,786.7216117216117,804.6072446072445,802.1672771672771,800.6674806674807,871.2586487586489
1624278940.9531252,786.2515262515262,803.0850630850631,801.025641025641,799.2348392348392,853.5856735856737
1624278940.9609375,785.7814407814408,801.5628815628816,799.8840048840049,797.8021978021978,835.9126984126985
1624278940.96875,785.3113553113553,800.0407000407,798.7423687423687,796.3695563695564,818.2397232397233
1624278940.9765625,784.8412698412699,798.5185185185186,797.6007326007326,794.936914936915,800.5667480667481
1624278940.984375,784.3711843711844,796.996336996337,796.4590964590965,793.5042735042736,782.893772893773
1624278940.9921875,787.7289377289378,796.5934065934066,798.6080586080586,803.4432234432235,610.8424908424909
1624278941.0,789.7435897435898,797.936507936508,798.5856735856736,802.8835978835979,664.2307692307693
1624278941.0078125,791.7582417582418,799.2796092796093,798.5632885632886,802.3239723239724,717.6190476190477
1624278941.015625,793.7728937728938,800.6227106227107,798.5409035409036,801.7643467643468,771.0073260073261
1624278941.0234375,795.7875457875458,801.965811965812,798.5185185185186,801.2047212047212,824.3956043956046
1624278941.03125,797.8021978021977,803.3089133089134,798.4961334961336,800.6450956450957,877.783882783883
1624278941.0390625,799.8168498168498,804.6520146520147,798.4737484737485,800.0854700854701,931.1721611721614
1624278941.0468748,798.2722832722832,804.4617419617421,798.8020621353955,799.6079229412563,915.9279609279612
1624278941.0546875,796.7277167277166,804.2714692714693,799.1303757970425,799.1303757970425,900.6837606837609
1624278941.0625,795.1831501831501,804.0811965811967,799.4586894586895,798.6528286528287,885.4395604395606
1624278941.0703125,793.6385836385836,803.890923890924,799.7870031203365,798.175281508615,870.1953601953603
1624278941.078125,792.094017094017,803.7006512006512,800.1153167819834,797.6977343644011,854.9511599511601
1624278941.0859375,790.5494505494504,803.5103785103786,800.4436304436305,797.2201872201873,839.7069597069598
1624278941.09375,789.0048840048839,803.3201058201059,800.7719441052775,796.7426400759736,824.4627594627595
1624278941.1015627,787.4603174603174,803.1298331298332,801.1002577669244,796.2650929317597,809.2185592185592
1624278941.109375,785.9157509157508,802.9395604395605,801.4285714285714,795.7875457875459,793.974358974359
1624278941.1171875,782.6923076923076,807.4725274725274,803.4432234432235,786.7216117216117,883.6263736263737
1624278941.125,782.9777167277167,807.0360195360195,802.973137973138,787.2924297924297,866.2164224664225
1624278941.1328125,783.2631257631257,806.5995115995115,802.5030525030525,787.8632478632478,848.8064713064714
1624278941.140625,783.5485347985348,806.1630036630036,802.032967032967,788.434065934066,831.3965201465203
1624278941.1484375,783.8339438339439,805.7264957264957,801.5628815628816,789.004884004884,813.9865689865691
1624278941.15625,784.1193528693528,805.2899877899878,801.092796092796,789.5757020757021,796.5766178266178
1624278941.1640625,784.4047619047619,804.8534798534798,800.6227106227105,790.1465201465202,779.1666666666667
1624278941.171875,784.9184981684982,805.0750915750916,800.5555555555555,791.2210012210012,782.4337606837607
1624278941.1796875,785.4322344322344,805.2967032967033,800.4884004884004,792.2954822954823,785.7008547008547
1624278941.1875,785.9459706959707,805.518315018315,800.4212454212454,793.3699633699634,788.9679487179487
1624278941.1953125,786.459706959707,805.7399267399268,800.3540903540904,794.4444444444445,792.2350427350427
1624278941.203125,786.9734432234432,805.9615384615386,800.2869352869353,795.5189255189255,795.5021367521367
1624278941.2109375,787.4871794871794,806.1831501831502,800.2197802197803,796.5934065934066,798.7692307692307
1624278941.21875,791.1874236874237,807.0695970695971,800.9920634920636,799.010989010989,826.3095238095237
1624278941.2265625,794.8876678876678,807.956043956044,801.7643467643469,801.4285714285714,853.8498168498168
1624278941.234375,798.5879120879121,808.8424908424909,802.5366300366302,803.8461538461538,881.3901098901098
1624278941.2421875,802.2881562881563,809.7289377289377,803.3089133089134,806.2637362637362,908.9304029304028
1624278941.2499998,805.9884004884004,810.6153846153846,804.0811965811967,808.6813186813187,936.4706959706958
1624278941.2578125,809.6886446886447,811.5018315018315,804.8534798534799,811.098901098901,964.0109890109889
1624278941.265625,793.3699633699634,801.4285714285714,796.996336996337,791.5567765567766,774.4322344322345
1624278941.2734375,793.0207570207571,801.8046398046398,797.3052503052504,793.3095238095239,771.8534798534799
1624278941.28125,792.6715506715507,802.1807081807082,797.6141636141637,795.0622710622712,769.2747252747254
1624278941.2890625,792.3223443223444,802.5567765567766,797.9230769230769,796.8150183150184,766.6959706959708
1624278941.296875,791.973137973138,802.932844932845,798.2319902319903,798.5677655677656,764.1172161172161
1624278941.3046875,791.6239316239316,803.3089133089134,798.5409035409036,800.3205128205129,761.5384615384615
1624278941.3125,791.2747252747253,803.6849816849817,798.8498168498169,802.0732600732601,758.959706959707
1624278941.3203125,791.7582417582418,803.7789987789988,798.5744810744811,801.9993894993895,781.5842490842491
1624278941.328125,792.2417582417582,803.8730158730159,798.2991452991454,801.925518925519,804.2087912087912
1624278941.3359375,792.7252747252747,803.967032967033,798.0238095238096,801.8516483516484,826.8333333333335
1624278941.34375,793.2087912087912,804.0610500610501,797.7484737484738,801.7777777777777,849.4578754578756
1624278941.3515625,793.6923076923077,804.1550671550672,797.473137973138,801.7039072039072,872.0824175824177
1624278941.359375,794.1758241758242,804.2490842490843,797.1978021978023,801.6300366300366,894.7069597069599
1624278941.3671875,785.7142857142858,801.025641025641,808.2783882783883,798.6080586080586,1043.186813186813
1624278941.375,787.0842490842491,802.7985347985348,806.6666666666667,799.4139194139194,952.8498168498166
1624278941.3828125,788.4542124542124,804.5714285714286,805.054945054945,800.2197802197802,862.5128205128203
1624278941.390625,789.8241758241759,806.3443223443223,803.4432234432235,801.0256410256411,772.1758241758241
1624278941.3984373,791.1941391941392,808.1172161172161,801.8315018315018,801.8315018315019,681.8388278388278
1624278941.40625,792.5641025641025,809.8901098901099,800.2197802197802,802.6373626373627,591.5018315018315
1624278941.4140625,773.8278388278388,808.1776556776557,803.8461538461539,792.3626373626373,776.6483516483516
1624278941.421875,753.5582010582011,810.1195563695563,804.875864875865,770.6827431827431,776.3461538461538
1624278941.4296875,733.2885632885633,812.0614570614571,805.905575905576,749.002849002849,776.0439560439561
1624278941.4375,713.0189255189255,814.0033577533577,806.935286935287,727.3229548229548,775.7417582417582
1624278941.4453125,692.7492877492878,815.9452584452583,807.964997964998,705.6430606430606,775.4395604395604
1624278941.4531252,672.47964997965,817.8871591371591,808.9947089947091,683.9631664631664,775.1373626373627
1624278941.4609375,652.2100122100122,819.8290598290597,810.0244200244201,662.2832722832723,774.8351648351648
1624278941.46875,657.3361823361823,818.7769637769637,808.1888481888483,667.051282051282,777.0736670736671
1624278941.4765625,662.4623524623524,817.7248677248676,806.3532763532764,671.8192918192918,779.3121693121693
1624278941.484375,667.5885225885226,816.6727716727717,804.5177045177045,676.5873015873017,781.5506715506716
1624278941.4921875,672.7146927146927,815.6206756206757,802.6821326821326,681.3553113553114,783.7891737891739
1624278941.5,677.8408628408628,814.5685795685796,800.8465608465608,686.1233211233211,786.0276760276761
1624278941.5078125,682.9670329670329,813.5164835164836,799.010989010989,690.891330891331,788.2661782661784
1624278941.515625,801.8315018315019,804.2490842490843,792.967032967033,794.1758241758242,749.4505494505495
1624278941.5234375,810.1139601139602,804.4729344729345,791.4448514448515,803.5327635327635,740.0712250712252
1624278941.53125,818.3964183964184,804.6967846967847,789.9226699226699,812.8897028897029,730.6919006919007
1624278941.5390625,826.6788766788767,804.9206349206349,788.4004884004885,822.2466422466423,721.3125763125763
1624278941.5468748,834.961334961335,805.1444851444852,786.878306878307,831.6035816035816,711.933251933252
1624278941.5546875,843.2437932437932,805.3683353683354,785.3561253561254,840.9605209605209,702.5539275539277
1624278941.5625,851.5262515262515,805.5921855921856,783.8339438339439,850.3174603174602,693.1746031746032
1624278941.5703125,851.3919413919414,804.1371591371592,785.0091575091575,850.7987382987383,718.894993894994
1624278941.578125,851.2576312576313,802.6821326821328,786.1843711843712,851.2800162800163,744.6153846153848
1624278941.5859375,851.1233211233211,801.2271062271063,787.3595848595849,851.7612942612943,770.3357753357755
1624278941.59375,850.989010989011,799.7720797720798,788.5347985347985,852.2425722425722,796.0561660561661
1624278941.6015627,850.8547008547009,798.3170533170534,789.7100122100122,852.7238502238503,821.776556776557
1624278941.609375,850.7203907203908,796.8620268620269,790.8852258852259,853.2051282051283,847.4969474969477
1624278941.625,851.1680911680912,797.7910052910054,793.1125356125356,850.8882783882784,840.6919006919009
1624278941.6328125,851.3919413919415,798.2554945054945,794.2261904761905,849.7298534798535,837.2893772893774
1624278941.640625,851.6157916157916,798.7199837199838,795.3398453398453,848.5714285714287,833.886853886854
1624278941.6484375,851.8396418396419,799.184472934473,796.4535002035002,847.4130036630038,830.4843304843306
1624278941.65625,852.063492063492,799.6489621489623,797.567155067155,846.2545787545789,827.0818070818073
1624278941.6640625,852.2873422873423,800.1134513634514,798.6808099308099,845.0961538461539,823.6792836792838
1624278941.671875,852.5111925111926,800.5779405779406,799.7944647944648,843.937728937729,820.2767602767603
1624278941.6796875,852.7350427350427,801.0424297924299,800.9081196581196,842.7793040293042,816.874236874237
1624278941.6875,852.958892958893,801.506919006919,802.0217745217745,841.6208791208792,813.4717134717135
1624278941.6953125,853.1827431827431,801.9714082214083,803.1354293854293,840.4624542124543,810.0691900691902
1624278941.703125,853.4065934065934,802.4358974358975,804.2490842490843,839.3040293040294,806.6666666666667
1624278941.7109375,828.6263736263736,806.2637362637363,799.8168498168498,822.2802197802198,843.7362637362638
1624278941.71875,826.9866707366707,806.017501017501,799.8336385836385,821.2980769230769,840.9885022385023
1624278941.7265625,825.3469678469678,805.7712657712658,799.8504273504273,820.3159340659341,838.2407407407408
1624278941.734375,823.707264957265,805.5250305250306,799.8672161172161,819.3337912087912,835.4929792429793
1624278941.7421875,822.0675620675621,805.2787952787953,799.8840048840049,818.3516483516484,832.7452177452178
1624278941.7500002,820.4278591778592,805.03256003256,799.9007936507936,817.3695054945056,829.9974562474563
1624278941.7578125,818.7881562881564,804.7863247863248,799.9175824175825,816.3873626373627,827.2496947496948
1624278941.765625,817.1484533984535,804.5400895400896,799.9343711843712,815.4052197802198,824.5019332519332
1624278941.7734375,815.5087505087506,804.2938542938543,799.95115995116,814.423076923077,821.7541717541717
1624278941.78125,813.8690476190477,804.047619047619,799.9679487179487,813.4409340659341,819.0064102564102
1624278941.7890625,812.2293447293448,803.8013838013838,799.9847374847375,812.4587912087912,816.2586487586487
1624278941.796875,810.589641839642,803.5551485551487,800.0015262515263,811.4766483516485,813.5108872608872
1624278941.8046875,808.9499389499391,803.3089133089134,800.0183150183151,810.4945054945056,810.7631257631257
1624278941.8125,800.6227106227107,803.4432234432235,797.8021978021978,819.5604395604396,1016.996336996337
1624278941.8203125,802.0833333333334,803.9972527472528,798.6836080586081,818.8804945054945,977.3580586080586
1624278941.828125,803.5439560439561,804.5512820512821,799.5650183150184,818.2005494505495,937.7197802197802
1624278941.8359375,805.0045787545788,805.1053113553114,800.4464285714287,817.5206043956044,898.0815018315019
1624278941.84375,806.4652014652015,805.6593406593406,801.3278388278388,816.8406593406594,858.4432234432235
1624278941.8515625,807.9258241758242,806.2133699633699,802.2092490842491,816.1607142857143,818.804945054945
1624278941.859375,809.386446886447,806.7673992673992,803.0906593406594,815.4807692307693,779.1666666666667
1624278941.8671875,810.8470695970697,807.3214285714286,803.9720695970697,814.8008241758242,739.5283882783883
1624278941.875,812.3076923076924,807.8754578754579,804.8534798534799,814.1208791208792,699.8901098901099
1624278941.8828125,811.5018315018315,799.8168498168499,805.4578754578755,805.8608058608058,762.7472527472528
1624278941.890625,807.5531135531136,799.8168498168499,804.3296703296704,805.8608058608058,758.0732600732601
1624278941.8984373,803.6043956043956,799.8168498168499,803.2014652014652,805.8608058608058,753.3992673992674
1624278941.90625,799.6556776556777,799.8168498168499,802.0732600732601,805.8608058608058,748.7252747252747
1624278941.9140625,795.7069597069597,799.8168498168499,800.945054945055,805.8608058608058,744.051282051282
1624278941.921875,791.7582417582418,799.8168498168499,799.8168498168499,805.8608058608058,739.3772893772893
1624278941.9296875,798.7087912087911,801.025641025641,800.2197802197802,813.3150183150184,782.5915750915751
1624278941.9375,799.4530932030932,800.6674806674806,800.4212454212454,813.0128205128206,782.306166056166
1624278941.9453125,800.1973951973952,800.3093203093202,800.6227106227107,812.7106227106227,782.0207570207571
1624278941.9531252,800.9416971916971,799.95115995116,800.8241758241759,812.4084249084249,781.735347985348
1624278941.9609375,801.6859991859992,799.5929995929996,801.025641025641,812.1062271062272,781.4499389499389
1624278941.96875,802.4303011803013,799.2348392348392,801.2271062271062,811.8040293040293,781.1645299145299
1624278941.9765625,803.1746031746032,798.8766788766789,801.4285714285714,811.5018315018315,780.8791208791208
1624278941.984375,802.5814000814001,799.5370370370371,802.0665445665446,811.4514652014652,798.289072039072
1624278941.9921875,801.988196988197,800.1973951973952,802.7045177045177,811.4010989010989,815.6990231990231
1624278942.0,801.394993894994,800.8577533577534,803.3424908424909,811.3507326007326,833.1089743589744
1624278942.0078125,800.8017908017908,801.5181115181116,803.980463980464,811.3003663003664,850.5189255189256
1624278942.015625,800.2085877085877,802.1784696784697,804.6184371184371,811.25,867.9288766788767
1624278942.0234375,799.6153846153846,802.8388278388279,805.2564102564103,811.1996336996338,885.3388278388279
1624278942.03125,799.3803418803419,803.0000000000001,804.5109890109891,810.4978632478633,878.6333943833945
1624278942.0390625,799.1452991452992,803.1611721611722,803.7655677655678,809.7960927960928,871.927960927961
1624278942.0468748,798.9102564102565,803.3223443223444,803.0201465201466,809.0943223443224,865.2225274725275
1624278942.0546875,798.6752136752137,803.4835164835166,802.2747252747253,808.392551892552,858.517094017094
1624278942.0625,798.440170940171,803.6446886446888,801.5293040293041,807.6907814407815,851.8116605616606
1624278942.0703125,798.2051282051283,803.8058608058609,800.7838827838829,806.989010989011,845.1062271062272
1624278942.078125,797.9700854700856,803.9670329670331,800.0384615384615,806.2872405372406,838.4007936507936
1624278942.0859375,797.7350427350428,804.1282051282053,799.2930402930403,805.5854700854702,831.6953601953602
1624278942.09375,797.5000000000001,804.2893772893774,798.547619047619,804.8836996336997,824.9899267399267
1624278942.1015627,797.2649572649574,804.4505494505496,797.8021978021978,804.1819291819293,818.2844932844932
1624278942.109375,798.2946682946684,804.6855921855923,800.0854700854701,804.4617419617421,795.7315832315832
1624278942.1171875,799.3243793243794,804.920634920635,802.3687423687423,804.7415547415548,773.1786731786732
1624278942.125,800.3540903540904,805.1556776556777,804.6520146520147,805.0213675213676,750.6257631257631
1624278942.1328125,801.3838013838015,805.3907203907204,806.935286935287,805.3011803011804,728.072853072853
1624278942.140625,802.4135124135124,805.6257631257631,809.2185592185592,805.580993080993,705.5199430199431
1624278942.1484375,803.4432234432235,805.8608058608058,811.5018315018315,805.8608058608058,682.967032967033
1624278942.15625,802.6373626373627,806.6666666666667,806.4652014652015,811.3003663003662,854.4139194139195
1624278942.1640625,802.0665445665446,806.5155677655679,805.7432844932846,809.7390109890109,832.2527472527473
1624278942.171875,801.4957264957266,806.3644688644689,805.0213675213676,808.1776556776557,810.0915750915751
1624278942.1796875,800.9249084249084,806.21336996337,804.2994505494506,806.6163003663004,787.930402930403
1624278942.1875,800.3540903540903,806.0622710622712,803.5775335775337,805.054945054945,765.7692307692308
1624278942.1953125,799.7832722832723,805.9111721611722,802.8556166056167,803.4935897435898,743.6080586080586
1624278942.203125,799.2124542124542,805.7600732600733,802.1336996336997,801.9322344322345,721.4468864468864
1624278942.2109375,798.0596255596255,805.0381562881564,802.1952584452586,801.4453601953603,763.1389906389907
1624278942.21875,796.9067969067969,804.3162393162394,802.2568172568174,800.9584859584861,804.8310948310949
1624278942.2265625,795.7539682539682,803.5943223443224,802.3183760683762,800.4716117216119,846.5231990231991
1624278942.234375,794.6011396011395,802.8724053724055,802.3799348799349,799.9847374847376,888.2153032153034
1624278942.2421875,793.4483109483109,802.1504884004885,802.4414936914937,799.4978632478634,929.9074074074076
1624278942.2499998,792.2954822954822,801.4285714285716,802.5030525030526,799.0109890109892,971.599511599512
1624278942.2578125,791.7358567358567,801.6300366300368,803.3312983312984,798.5409035409037,931.0154660154662
1624278942.265625,791.1762311762311,801.8315018315019,804.1595441595442,798.0708180708182,890.4314204314206
1624278942.2734375,790.6166056166055,802.0329670329671,804.98778998779,797.6007326007327,849.847374847375
1624278942.28125,790.05698005698,802.2344322344323,805.8160358160359,797.1306471306473,809.2633292633293
1624278942.2890625,789.4973544973545,802.4358974358975,806.6442816442817,796.6605616605617,768.6792836792837
1624278942.296875,788.9377289377289,802.6373626373627,807.4725274725275,796.1904761904763,728.0952380952381
1624278942.3046875,794.1758241758241,809.0842490842491,806.2637362637363,795.1831501831502,893.2967032967035
1624278942.3125,794.5563695563695,808.3231583231584,805.6145706145707,796.7836792836794,879.4403744403746
1624278942.3203125,794.936914936915,807.5620675620676,804.965404965405,798.3842083842085,865.5840455840457
1624278942.328125,795.3174603174604,806.8009768009769,804.3162393162393,799.9847374847375,851.7277167277168
1624278942.3359375,795.6980056980058,806.0398860398861,803.6670736670736,801.5852665852666,837.8713878713879
1624278942.34375,796.0785510785512,805.2787952787953,803.017908017908,803.1857956857957,824.015059015059
1624278942.3515625,796.4590964590966,804.5177045177046,802.3687423687423,804.7863247863248,810.1587301587301
1624278942.359375,796.7501017501019,804.875864875865,801.6748066748066,802.7045177045177,795.5189255189255
1624278942.3671875,797.0411070411071,805.2340252340252,800.980870980871,800.6227106227107,780.8791208791208
1624278942.375,797.3321123321125,805.5921855921856,800.2869352869353,798.5409035409035,766.2393162393162
1624278942.3828125,797.6231176231178,805.950345950346,799.5929995929996,796.4590964590964,751.5995115995116
1624278942.390625,797.914122914123,806.3085063085063,798.899063899064,794.3772893772893,736.959706959707
1624278942.3984373,798.2051282051283,806.6666666666666,798.2051282051283,792.2954822954822,722.3199023199023
1624278942.40625,795.9554334554335,806.4316239316239,797.8357753357755,792.6088726088725,770.458892958893
1624278942.4140625,793.7057387057388,806.1965811965812,797.4664224664225,792.9222629222629,818.5978835978835
1624278942.421875,791.4560439560439,805.9615384615386,797.0970695970695,793.2356532356532,866.7368742368742
1624278942.4296875,789.2063492063492,805.7264957264958,796.7277167277167,793.5490435490435,914.8758648758647
1624278942.4375,786.9566544566544,805.4914529914531,796.3583638583639,793.8624338624339,963.0148555148556
1624278942.4453125,784.7069597069597,805.2564102564104,795.9890109890109,794.1758241758242,1011.153846153846
1624278942.4531252,794.5787545787546,805.4578754578755,796.8351648351647,800.5421245421246,816.981684981685
1624278942.4609375,795.1070411070411,805.5742775742776,797.0411070411069,800.8376068376069,819.3634513634514
1624278942.46875,795.6353276353276,805.6906796906798,797.2470492470492,801.1330891330892,821.7452177452178
1624278942.4765625,796.1636141636142,805.8070818070819,797.4529914529913,801.4285714285714,824.1269841269841
1624278942.484375,796.6919006919007,805.923483923484,797.6589336589336,801.7240537240538,826.5087505087505
1624278942.4921875,797.2201872201872,806.0398860398861,797.8648758648758,802.0195360195361,828.8905168905169
1624278942.5,797.7484737484738,806.1562881562883,798.0708180708181,802.3150183150184,831.2722832722833
1624278942.5078125,798.2767602767603,806.2726902726904,798.2767602767602,802.6105006105006,833.6540496540496
1624278942.515625,798.8050468050468,806.3890923890925,798.4827024827025,802.9059829059829,836.035816035816
1624278942.5234375,799.3333333333334,806.5054945054947,798.6886446886447,803.2014652014652,838.4175824175824
1624278942.53125,797.6231176231177,805.7488807488809,798.3618233618233,802.0105820105821,812.2629222629222
1624278942.5390625,795.9129019129019,804.9922669922671,798.035002035002,800.8196988196988,786.1082621082621
1624278942.5468748,794.2026862026862,804.2356532356533,797.7081807081806,799.6288156288157,759.953601953602
1624278942.5546875,792.4924704924705,803.4790394790396,797.3813593813594,798.4379324379325,733.7989417989418
1624278942.5625,790.7822547822548,802.7224257224258,797.054538054538,797.2470492470493,707.6442816442817
1624278942.5703125,789.072039072039,801.965811965812,796.7277167277167,796.0561660561661,681.4896214896215
1624278942.578125,790.7733007733008,802.2642789309457,797.2798806132139,797.3395740062407,694.8012481345814
1624278942.5859375,792.4745624745625,802.5627458960793,797.8320444987112,798.6229819563154,708.1128747795415
1624278942.59375,794.1758241758241,802.861212861213,798.3842083842084,799.9063899063899,721.4245014245014
1624278942.6015627,795.8770858770858,803.1596798263465,798.9363722697055,801.1897978564646,734.7361280694614
1624278942.609375,797.5783475783476,803.4581467914802,799.4885361552028,802.4732058065391,748.0477547144213
1624278942.6171875,799.2796092796093,803.7566137566138,800.0407000407,803.7566137566138,761.3593813593814
1624278942.625,800.9808709808709,804.0550807217475,800.5928639261972,805.0400217066883,774.6710080043413
1624278942.6328125,802.6821326821326,804.353547686881,801.1450278116945,806.323429656763,787.9826346493012
1624278942.640625,804.3833943833944,804.6520146520147,801.6971916971917,807.6068376068375,801.2942612942612
1624278942.6484375,793.1684981684982,803.4432234432235,801.2271062271062,798.6080586080586,870.7326007326006
1624278942.65625,792.9814233385662,803.3376940519798,800.9728763300192,797.81179138322,856.8698761555904
1624278942.6640625,792.7943485086342,803.2321646607361,800.7186464329321,797.0155241583814,843.0071515785801
1624278942.671875,792.6072736787023,803.1266352694925,800.4644165358452,796.2192569335427,829.1444270015699
1624278942.6796875,792.4201988487703,803.0211058782488,800.2101866387582,795.422989708704,815.2817024245596
1624278942.6875,792.2331240188382,802.9155764870051,799.9559567416711,794.6267224838654,801.4189778475493
1624278942.6953125,792.0460491889063,802.8100470957614,799.7017268445841,793.8304552590267,787.5562532705391
1624278942.703125,791.902145473574,803.4847956276528,799.7257107971394,794.517995232281,788.8849642421071
1624278942.7109375,791.7582417582418,804.1595441595442,799.7496947496949,795.2055352055353,790.2136752136753
1624278942.71875,791.6143380429095,804.8342926914356,799.7736787022502,795.8930751787894,791.5423861852433
1624278942.7265625,791.4704343275772,805.509041223327,799.7976626548055,796.5806151520437,792.8710971568115
1624278942.734375,791.3265306122448,806.1837897552183,799.821646607361,797.268155125298,794.1998081283796
1624278942.7421875,791.1826268969126,806.8585382871097,799.8456305599163,797.9556950985523,795.5285190999477
1624278942.7500002,791.0387231815803,807.5332868190011,799.8696145124717,798.6432350718064,796.8572300715158
1624278942.7578125,790.894819466248,808.2080353508925,799.8935984650271,799.3307750450607,798.185941043084
1624278942.765625,790.7509157509157,808.8827838827839,799.9175824175825,800.018315018315,799.514652014652
1624278942.7734375,792.0604395604396,808.2448107448107,799.4978632478633,799.9847374847375,784.4551282051282
1624278942.78125,793.3699633699633,807.6068376068376,799.0781440781441,799.95115995116,769.3956043956044
1624278942.7890625,794.6794871794872,806.9688644688645,798.6584249084249,799.9175824175825,754.3360805860806
1624278942.796875,795.989010989011,806.3308913308913,798.2387057387058,799.8840048840049,739.2765567765567
1624278942.8046875,797.2985347985348,805.6929181929182,797.8189865689866,799.8504273504274,724.217032967033
1624278942.8125,798.6080586080586,805.054945054945,797.3992673992674,799.8168498168499,709.1575091575091
1624278942.8203125,790.9523809523811,801.4285714285714,800.0854700854701,800.3540903540903,748.6446886446887
1624278942.828125,789.3406593406594,801.6524216524217,800.1078551078551,801.2494912494913,761.7846967846968
1624278942.8359375,787.7289377289378,801.8762718762719,800.1302401302402,802.1448921448921,774.924704924705
1624278942.84375,786.1172161172162,802.1001221001221,800.1526251526252,803.040293040293,788.0647130647133
1624278942.8515625,784.5054945054945,802.3239723239724,800.1750101750101,803.935693935694,801.2047212047214
1624278942.859375,782.8937728937728,802.5478225478225,800.1973951973952,804.8310948310948,814.3447293447296
1624278942.8671875,781.2820512820513,802.7716727716728,800.2197802197802,805.7264957264957,827.4847374847377
1624278942.875,779.9389499389499,797.7574277574278,802.7716727716728,805.0997150997151,782.2669922669925
1624278942.8828125,778.5958485958487,792.7431827431828,805.3235653235653,804.4729344729345,737.0492470492471
1624278942.890625,777.2527472527473,787.7289377289378,807.8754578754579,803.8461538461539,691.8315018315019
1624278942.8984373,771.8131868131868,781.2820512820513,814.92673992674,802.2344322344322,801.6300366300366
1624278942.90625,775.7417582417582,782.0879120879121,814.579772079772,804.6072446072446,801.9546194546194
1624278942.9140625,779.6703296703297,782.8937728937728,814.2328042328043,806.980056980057,802.2792022792023
1624278942.921875,783.598901098901,783.6996336996338,813.8858363858365,809.3528693528694,802.6037851037852
1624278942.9296875,787.5274725274725,784.5054945054945,813.5388685388685,811.7256817256817,802.928367928368
1624278942.9375,791.4560439560439,785.3113553113553,813.1919006919006,814.0984940984941,803.2529507529508
1624278942.9453125,795.3846153846154,786.1172161172161,812.8449328449328,816.4713064713065,803.5775335775337
1624278942.9531252,796.3844797178131,787.296160629494,813.0687830687831,816.4116130782799,796.1606294939629
1624278942.9609375,797.3843440510107,788.4751051417718,813.2926332926332,816.351919685253,788.7437254103921
1624278942.96875,798.3842083842084,789.6540496540497,813.5164835164835,816.2922262922264,781.3268213268213
1624278942.9765625,799.3840727174061,790.8329941663275,813.7403337403337,816.2325328991997,773.9099172432506
1624278942.984375,800.3839370506037,792.0119386786054,813.9641839641839,816.1728395061729,766.4930131596798
1624278942.9921875,801.3838013838014,793.1908831908831,814.1880341880341,816.1131461131462,759.076109076109
1624278943.0,802.3836657169991,794.369827703161,814.4118844118843,816.0534527201195,751.6592049925382
1624278943.0078125,803.3835300501967,795.5487722154388,814.6357346357345,815.9937593270927,744.2423009089674
1624278943.015625,804.3833943833944,796.7277167277167,814.8595848595847,815.934065934066,736.8253968253966
1624278943.0234375,800.8241758241759,798.003663003663,811.3255494505494,811.8795787545788,736.2293956043954
1624278943.03125,797.2649572649573,799.2796092796093,807.791514041514,807.8250915750916,735.6333943833943
1624278943.0390625,793.7057387057387,800.5555555555555,804.2574786324786,803.7706043956044,735.0373931623932
1624278943.0468748,790.1465201465202,801.8315018315018,800.7234432234433,799.7161172161173,734.441391941392
1624278943.0546875,789.8331298331299,801.9210419210419,801.0704110704111,800.8913308913309,766.7765567765567
1624278943.0625,789.5197395197396,802.010582010582,801.417378917379,802.0665445665446,799.1117216117216
1624278943.0703125,789.2063492063493,802.1001221001221,801.7643467643468,803.2417582417582,831.4468864468863
1624278943.078125,788.892958892959,802.1896621896622,802.1113146113147,804.416971916972,863.782051282051
1624278943.0859375,788.5795685795686,802.2792022792023,802.4582824582825,805.5921855921856,896.1172161172158
1624278943.09375,788.2661782661783,802.3687423687423,802.8052503052504,806.7673992673994,928.4523809523806
1624278943.1015627,787.952787952788,802.4582824582825,803.1522181522182,807.942612942613,960.7875457875454
1624278943.109375,787.6393976393977,802.5478225478225,803.4991859991861,809.1178266178267,993.1227106227102
1624278943.1171875,787.3260073260074,802.6373626373627,803.8461538461539,810.2930402930403,1025.457875457875
1624278943.125,779.1330891330894,803.6446886446887,798.4065934065934,801.6971916971917,822.3137973137974
1624278943.1328125,781.2037037037039,804.0644078144079,798.6752136752136,803.4656084656085,826.925111925112
1624278943.140625,783.2743182743185,804.484126984127,798.943833943834,805.2340252340252,831.5364265364266
1624278943.1484375,785.344932844933,804.9038461538462,799.2124542124542,807.002442002442,836.1477411477413
1624278943.15625,787.4155474155475,805.3235653235654,799.4810744810744,808.7708587708588,840.7590557590559
1624278943.1640625,789.4861619861621,805.7432844932845,799.7496947496948,810.5392755392756,845.3703703703704
1624278943.171875,791.5567765567766,806.1630036630037,800.018315018315,812.3076923076924,849.981684981685
1624278943.1796875,793.2692307692308,806.5827228327229,800.5219780219779,811.971916971917,862.506105006105
1624278943.1875,794.981684981685,807.002442002442,801.025641025641,811.6361416361417,875.030525030525
1624278943.1953125,796.6941391941393,807.4221611721612,801.5293040293041,811.3003663003664,887.5549450549452
1624278943.203125,798.4065934065935,807.8418803418804,802.032967032967,810.964590964591,900.0793650793652
1624278943.2109375,800.1190476190477,808.2615995115995,802.53663003663,810.6288156288157,912.6037851037852
1624278943.21875,801.8315018315019,808.6813186813187,803.040293040293,810.2930402930403,925.1282051282052
1624278943.2265625,796.996336996337,803.4432234432234,800.4884004884005,802.2344322344323,828.1562881562883
1624278943.234375,796.7948717948718,803.7118437118436,801.1823361823363,804.3162393162394,838.9906389906391
1624278943.2421875,796.5934065934066,803.9804639804639,801.876271876272,806.3980463980465,849.8249898249899
1624278943.2499998,796.3919413919414,804.2490842490843,802.5702075702077,808.4798534798535,860.6593406593407
1624278943.2578125,796.1904761904763,804.5177045177045,803.2641432641433,810.5616605616606,871.4936914936916
1624278943.265625,795.989010989011,804.7863247863247,803.958078958079,812.6434676434677,882.3280423280423
1624278943.2734375,795.7875457875458,805.054945054945,804.6520146520147,814.7252747252747,893.1623931623932
1624278943.28125,795.7203907203907,804.8758648758649,803.3760683760685,811.5689865689866,878.992673992674
1624278943.2890625,795.6532356532357,804.6967846967847,802.1001221001221,808.4126984126984,864.8229548229549
1624278943.296875,795.5860805860806,804.5177045177045,800.8241758241759,805.2564102564103,850.6532356532357
1624278943.3046875,795.5189255189255,804.3386243386243,799.5482295482296,802.1001221001221,836.4835164835165
1624278943.3125,795.4517704517705,804.1595441595441,798.2722832722833,798.943833943834,822.3137973137974
1624278943.3203125,795.3846153846154,803.9804639804639,796.996336996337,795.7875457875458,808.1440781440782
1624278943.328125,791.3553113553114,800.6227106227107,803.4432234432235,799.0109890109891,982.7472527472528
1624278943.3359375,792.8159340659341,801.5796703296703,803.0906593406594,800.2449633699634,961.0897435897436
1624278943.34375,794.2765567765568,802.5366300366301,802.7380952380953,801.4789377289378,939.4322344322344
1624278943.3515625,795.7371794871796,803.4935897435898,802.3855311355312,802.7129120879122,917.7747252747253
1624278943.359375,797.1978021978023,804.4505494505495,802.032967032967,803.9468864468865,896.1172161172161
1624278943.3671875,798.658424908425,805.4075091575091,801.6804029304029,805.1808608058608,874.459706959707
1624278943.375,800.1190476190477,806.3644688644689,801.3278388278388,806.4148351648352,852.8021978021977
1624278943.3828125,801.5796703296704,807.3214285714287,800.9752747252747,807.6488095238095,831.1446886446886
1624278943.390625,803.0402930402931,808.2783882783883,800.6227106227107,808.8827838827839,809.4871794871794
1624278943.3984373,801.0256410256411,808.2783882783883,806.6666666666667,808.4798534798535,855.4212454212454
1624278943.40625,799.2796092796093,807.9234257805687,805.9855224140939,807.7651316937032,840.292168149311
1624278943.4140625,797.5335775335776,807.568463282749,805.3043781615211,807.0504099075529,825.1630908773766
1624278943.421875,795.7875457875458,807.2135007849294,804.6232339089484,806.3356881214024,810.0340136054422
1624278943.4296875,794.041514041514,806.8585382871097,803.9420896563755,805.6209663352521,794.9049363335077
1624278943.4375,792.2954822954823,806.50357578929,803.2609454038027,804.9062445491018,779.7758590615733
1624278943.4453125,790.5494505494505,806.1486132914704,802.5798011512298,804.1915227629514,764.6467817896389
1624278943.4531252,790.0457875457876,806.2637362637363,804.4505494505495,812.2069597069598,765.6684981684982
1624278943.4609375,787.8128815628816,807.3717948717949,803.0067155067155,809.235347985348,799.732905982906
1624278943.46875,785.5799755799756,808.4798534798535,801.5628815628816,806.2637362637363,833.7973137973139
1624278943.4765625,783.3470695970695,809.5879120879122,800.1190476190477,803.2921245421246,867.8617216117218
1624278943.484375,781.1141636141637,810.6959706959707,798.6752136752137,800.3205128205128,901.9261294261296
1624278943.4921875,778.8812576312577,811.8040293040293,797.2313797313798,797.348901098901,935.9905372405374
1624278943.5,776.6483516483516,812.9120879120879,795.7875457875458,794.3772893772893,970.0549450549452
1624278943.5078125,770.8058608058608,800.6227106227107,797.8021978021978,785.3113553113553,714.7985347985348
1624278943.515625,773.9397639397639,801.7195767195767,798.2946682946683,789.072039072039,731.2067562067562
1624278943.5234375,777.073667073667,802.8164428164429,798.7871387871388,792.8327228327229,747.6149776149776
1624278943.53125,780.2075702075701,803.913308913309,799.2796092796093,796.5934065934066,764.023199023199
1624278943.5390625,783.3414733414733,805.0101750101751,799.7720797720798,800.3540903540903,780.4314204314204
1624278943.5468748,786.4753764753764,806.1070411070411,800.2645502645503,804.1147741147741,796.8396418396419
1624278943.5546875,789.6092796092795,807.2039072039073,800.7570207570208,807.8754578754579,813.2478632478633
1624278943.5625,787.5050875050874,806.7114367114368,801.048026048026,806.5099715099715,829.3874643874644
1624278943.5703125,785.4008954008953,806.2189662189663,801.3390313390313,805.1444851444852,845.5270655270656
1624278943.578125,783.2967032967032,805.7264957264958,801.6300366300366,803.7789987789988,861.6666666666667
1624278943.5859375,781.1925111925111,805.2340252340252,801.9210419210419,802.4135124135124,877.8062678062678
1624278943.59375,779.0883190883189,804.7415547415548,802.2120472120472,801.0480260480261,893.9458689458689
1624278943.6015627,776.9841269841269,804.2490842490843,802.5030525030525,799.6825396825398,910.08547008547
1624278943.609375,803.4432234432235,803.040293040293,802.6373626373627,821.978021978022,784.1025641025641
1624278943.6171875,798.6080586080586,802.5534188034188,802.1336996336997,820.1480463980464,793.6553724053724
1624278943.625,793.7728937728938,802.0665445665446,801.6300366300367,818.3180708180709,803.2081807081807
1624278943.6328125,788.9377289377289,801.5796703296703,801.1263736263736,816.4880952380952,812.7609890109891
1624278943.640625,784.1025641025642,801.0927960927961,800.6227106227107,814.6581196581196,822.3137973137973
1624278943.6484375,779.2673992673994,800.6059218559219,800.1190476190477,812.8281440781441,831.8666056166056
1624278943.65625,774.4322344322345,800.1190476190477,799.6153846153846,810.9981684981685,841.419413919414
1624278943.6640625,777.8235653235654,800.4380341880343,799.0781440781441,808.228021978022,830.8592796092796
1624278943.671875,781.2148962148963,800.7570207570208,798.5409035409035,805.4578754578755,820.2991452991454
1624278943.6796875,784.6062271062272,801.0760073260074,798.003663003663,802.6877289377289,809.739010989011
1624278943.6875,787.997557997558,801.394993894994,797.4664224664225,799.9175824175824,799.1788766788767
1624278943.6953125,791.3888888888889,801.7139804639804,796.9291819291819,797.1474358974359,788.6187423687425
1624278943.703125,794.7802197802198,802.032967032967,796.3919413919414,794.3772893772893,778.0586080586081
1624278943.7109375,789.7435897435897,803.8461538461539,796.1904761904763,803.8461538461539,1168.095238095238
1624278943.71875,791.4560439560439,803.6111111111112,796.4926739926741,803.5439560439561,1087.811355311355
1624278943.7265625,793.1684981684982,803.3760683760685,796.7948717948719,803.2417582417582,1007.5274725274724
1624278943.734375,794.8809523809524,803.1410256410256,797.0970695970698,802.9395604395604,927.2435897435896
1624278943.7421875,796.5934065934066,802.9059829059829,797.3992673992675,802.6373626373627,846.9597069597069
1624278943.7500002,798.3058608058609,802.6709401709402,797.7014652014653,802.3351648351648,766.6758241758241
1624278943.7578125,800.0183150183151,802.4358974358975,798.0036630036632,802.032967032967,686.3919413919414
1624278943.765625,802.0889295889297,802.6261701261701,797.8805453805455,800.0742775742776,700.3042328042328
1624278943.7734375,804.1595441595442,802.8164428164429,797.7574277574279,798.1155881155881,714.2165242165242
1624278943.78125,806.2301587301588,803.0067155067156,797.6343101343102,796.1568986568986,728.1288156288156
1624278943.7890625,808.3007733007734,803.1969881969883,797.5111925111927,794.1982091982093,742.041107041107
1624278943.796875,810.3713878713879,803.3872608872609,797.388074888075,792.2395197395199,755.9533984533984
1624278943.8046875,812.4420024420025,803.5775335775337,797.2649572649574,790.2808302808304,769.8656898656899
1624278943.8125,801.9322344322345,801.6300366300367,802.8388278388279,796.7948717948718,917.4725274725274
1624278943.8203125,803.7017704517705,801.9590964590965,802.2948717948718,798.1715506715507,907.050061050061
1624278943.828125,805.4713064713065,802.2881562881563,801.7509157509159,799.5482295482295,896.6275946275947
1624278943.8359375,807.2408424908425,802.6172161172162,801.2069597069598,800.9249084249084,886.2051282051283
1624278943.84375,809.0103785103785,802.946275946276,800.6630036630037,802.3015873015873,875.7826617826619
1624278943.8515625,810.7799145299145,803.2753357753359,800.1190476190477,803.6782661782662,865.3601953601956
1624278943.859375,812.5494505494505,803.6043956043957,799.5750915750916,805.054945054945,854.9377289377292
1624278943.8671875,812.8919413919414,803.8159340659341,798.6030219780221,805.2564102564103,835.0128205128207
1624278943.875,813.2344322344322,804.0274725274726,797.6309523809524,805.4578754578754,815.0879120879122
1624278943.8828125,813.5769230769231,804.239010989011,796.6588827838827,805.6593406593406,795.1630036630037
1624278943.890625,813.919413919414,804.4505494505495,795.6868131868132,805.8608058608058,775.2380952380952
1624278943.8984373,812.039072039072,803.476800976801,796.0393772893773,805.3907203907204,791.5567765567765
1624278943.90625,810.1587301587302,802.5030525030526,796.3919413919414,804.9206349206349,807.8754578754579
1624278943.9140625,808.2783882783883,801.5293040293041,796.7445054945056,804.4505494505495,824.1941391941391
1624278943.921875,806.3980463980464,800.5555555555555,797.0970695970697,803.9804639804639,840.5128205128204
1624278943.9296875,804.5177045177046,799.5818070818071,797.4496336996338,803.5103785103785,856.8315018315018
1624278943.9375,802.6373626373627,798.6080586080586,797.8021978021978,803.040293040293,873.1501831501831
1624278943.9453125,829.90231990232,811.9047619047619,799.010989010989,809.6214896214897,972.6739926739924
1624278943.9531252,825.8730158730159,810.7407407407408,799.2796092796093,807.1591371591372,937.5071225071224
1624278943.9609375,821.8437118437118,809.5767195767196,799.5482295482295,804.6967846967848,902.3402523402522
1624278943.96875,817.8144078144078,808.4126984126983,799.8168498168498,802.2344322344322,867.173382173382
1624278943.9765625,813.7851037851038,807.2486772486772,800.0854700854701,799.7720797720798,832.0065120065119
1624278943.984375,809.7557997557998,806.084656084656,800.3540903540904,797.3097273097274,796.8396418396417
1624278943.9921875,805.7264957264957,804.9206349206348,800.6227106227107,794.8473748473749,761.6727716727715
1624278944.0,806.7721960579104,805.0453514739228,800.6610849467993,796.5358451072738,770.2398395255537
1624278944.0078125,807.8178963893249,805.1700680272108,800.6994592708879,798.2243153671725,778.8069073783358
1624278944.015625,808.8635967207396,805.2947845804988,800.7378335949766,799.9127856270713,787.373975231118
1624278944.0234375,809.9092970521541,805.4195011337868,800.7762079190651,801.6012558869702,795.9410430839002
1624278944.03125,810.9549973835688,805.5442176870747,800.8145822431537,803.289726146869,804.5081109366824
1624278944.0390625,812.0006977149833,805.6689342403628,800.8529565672424,804.9781964067678,813.0751787894645
1624278944.0468748,813.0463980463979,805.7936507936507,800.891330891331,806.6666666666666,821.6422466422467
1624278944.0546875,811.800298466965,805.689187355854,801.6673450006784,806.9352869352869,812.3226156559491
1624278944.0625,810.5541988875322,805.5847239180572,802.4433591100259,807.2039072039072,803.0029846696514
1624278944.0703125,809.3080993080993,805.4802604802604,803.2193732193733,807.4725274725274,793.6833536833537
1624278944.078125,808.0619997286664,805.3757970424637,803.9953873287208,807.7411477411478,784.3637226970561
1624278944.0859375,806.8159001492335,805.271333604667,804.7714014380681,808.009768009768,775.0440917107584
1624278944.09375,805.5698005698006,805.1668701668702,805.5474155474155,808.2783882783883,765.7244607244608
1624278944.1015627,804.3237009903677,805.0624067290735,806.323429656763,808.5470085470085,756.4048297381631
1624278944.109375,803.0776014109348,804.9579432912767,807.0994437661104,808.8156288156289,747.0851987518654
1624278944.1171875,801.8315018315019,804.8534798534799,807.8754578754579,809.0842490842491,737.7655677655678
1624278944.125,805.4578754578755,814.7252747252747,808.2783882783883,814.7252747252747,761.1355311355312
1624278944.1328125,805.6089743589744,812.7609890109891,807.4053724053724,813.6843711843712,772.602258852259
1624278944.140625,805.7600732600732,810.7967032967033,806.5323565323565,812.6434676434677,784.0689865689866
1624278944.1484375,805.9111721611721,808.8324175824175,805.6593406593406,811.6025641025642,795.5357142857143
1624278944.15625,806.0622710622711,806.8681318681319,804.7863247863248,810.5616605616606,807.0024420024421
1624278944.1640625,806.2133699633699,804.9038461538462,803.9133089133089,809.5207570207571,818.4691697191697
1624278944.171875,806.3644688644688,802.9395604395604,803.040293040293,808.4798534798535,829.9358974358975
1624278944.1796875,801.1095848595849,802.822039072039,802.3687423687423,805.7600732600733,850.636446886447
1624278944.1875,795.8547008547008,802.7045177045177,801.6971916971917,803.0402930402931,871.3369963369963
1624278944.1953125,790.5998168498168,802.5869963369963,801.0256410256411,800.3205128205129,892.0375457875458
1624278944.203125,785.3449328449328,802.469474969475,800.3540903540904,797.6007326007326,912.7380952380952
1624278944.2109375,780.0900488400489,802.3519536019536,799.6825396825398,794.8809523809524,933.4386446886448
1624278944.21875,774.8351648351648,802.2344322344322,799.0109890109891,792.1611721611722,954.1391941391942
1624278944.2265625,790.7509157509157,806.6666666666667,799.8168498168499,791.959706959707,340.87912087912093
1624278944.234375,790.2640415140415,806.7002442002442,800.2869352869353,792.1443833943835,396.0470085470086
1624278944.2421875,789.7771672771672,806.7338217338219,800.7570207570208,792.3290598290598,451.2148962148962
1624278944.2499998,789.290293040293,806.7673992673994,801.2271062271063,792.5137362637363,506.382783882784
1624278944.2578125,788.8034188034188,806.8009768009769,801.6971916971918,792.6984126984128,561.5506715506716
1624278944.265625,788.3165445665445,806.8345543345545,802.1672771672772,792.8830891330891,616.7185592185592
1624278944.2734375,787.8296703296703,806.868131868132,802.6373626373627,793.0677655677656,671.886446886447
1624278944.28125,780.848901098901,807.2912087912089,803.3223443223444,786.3824786324786,667.8772893772895
1624278944.2890625,773.8681318681319,807.7142857142858,804.007326007326,779.6971916971918,663.868131868132
1624278944.296875,766.8873626373627,808.1373626373627,804.6923076923076,773.0119047619048,659.8589743589745
1624278944.3046875,759.9065934065934,808.5604395604396,805.3772893772893,766.3266178266178,655.849816849817
1624278944.3125,752.9258241758241,808.9835164835165,806.0622710622711,759.6413308913309,651.8406593406594
1624278944.3203125,745.945054945055,809.4065934065935,806.7472527472527,752.956043956044,647.8315018315019
1624278944.328125,738.9642857142858,809.8296703296704,807.4322344322343,746.2707570207571,643.8223443223444
1624278944.3359375,731.9835164835165,810.2527472527473,808.117216117216,739.5854700854701,639.8131868131869
1624278944.34375,725.0027472527472,810.6758241758242,808.8021978021977,732.9001831501832,635.8040293040294
1624278944.3515625,718.021978021978,811.0989010989011,809.4871794871793,726.2148962148963,631.7948717948719
1624278944.359375,577.2649572649574,820.7692307692308,806.2637362637362,595.6654456654458,666.3125763125763
1624278944.3671875,616.2820512820514,818.3964183964184,803.7118437118437,635.2421652421654,682.1611721611722
1624278944.375,655.2991452991454,816.023606023606,801.1599511599511,674.8188848188848,698.009768009768
1624278944.3828125,694.3162393162394,813.6507936507937,798.6080586080586,714.3956043956044,713.8583638583639
1624278944.390625,733.3333333333334,811.2779812779813,796.0561660561661,753.972323972324,729.7069597069598
1624278944.3984373,772.3504273504274,808.9051689051689,793.5042735042736,793.5490435490435,745.5555555555555
1624278944.40625,811.3675213675214,806.5323565323565,790.9523809523811,833.1257631257631,761.4041514041514
1624278944.4140625,821.3678702250131,806.3212977498691,792.5410779696496,842.1475667189952,778.7032967032967
1624278944.421875,831.3682190825048,806.1102389673819,794.1297749869179,851.1693703122274,796.0024420024421
1624278944.4296875,841.3685679399965,805.8991801848945,795.7184720041864,860.1911739054596,813.3015873015873
1624278944.4375,851.3689167974883,805.6881214024072,797.3071690214548,869.2129774986918,830.6007326007326
1624278944.4453125,861.36926565498,805.4770626199198,798.8958660387233,878.2347810919239,847.8998778998779
1624278944.4531252,871.3696145124717,805.2660038374325,800.4845630559917,887.256584685156,865.1990231990233
1624278944.4609375,881.3699633699634,805.0549450549452,802.0732600732601,896.2783882783882,882.4981684981685
1624278944.46875,877.9517704517705,805.424297924298,801.8315018315019,893.8675213675212,853.2387057387058
1624278944.4765625,874.5335775335776,805.7936507936508,801.5897435897436,891.4566544566544,823.979242979243
1624278944.484375,871.1153846153846,806.1630036630038,801.3479853479854,889.0457875457876,794.7197802197802
1624278944.4921875,867.6971916971917,806.5323565323566,801.1062271062272,886.6349206349206,765.4603174603175
1624278944.5,864.2789987789988,806.9017094017095,800.8644688644689,884.2240537240536,736.2008547008547
1624278944.5078125,860.8608058608058,807.2710622710623,800.6227106227107,881.8131868131868,706.941391941392
1624278944.515625,848.5714285714286,798.8095238095239,800.4212454212454,862.4725274725274,845.5494505494505
1624278944.5234375,849.041514041514,799.4307081807082,800.5051892551893,860.4075091575091,917.0360195360196
1624278944.53125,849.5115995115996,800.0518925518926,800.5891330891332,858.3424908424907,988.5225885225884
1624278944.5390625,849.981684981685,800.6730769230769,800.6730769230769,856.2774725274725,1060.0091575091574
1624278944.5468748,850.4517704517705,801.2942612942612,800.7570207570208,854.2124542124542,1131.4957264957263
1624278944.5546875,850.921855921856,801.9154456654456,800.8409645909646,852.1474358974358,1202.9822954822953
1624278944.5625,851.3919413919415,802.53663003663,800.9249084249085,850.0824175824175,1274.4688644688642
1624278944.578125,844.4078144078145,801.2271062271062,798.876678876679,845.6837606837606,1162.5885225885224
1624278944.5859375,840.915750915751,800.5723443223443,797.8525641025642,843.4844322344322,1106.6483516483515
1624278944.59375,837.4236874236874,799.9175824175824,796.8284493284493,841.2851037851038,1050.7081807081806
1624278944.6015627,833.9316239316239,799.2628205128206,795.8043345543346,839.0857753357753,994.7680097680096
1624278944.609375,830.4395604395604,798.6080586080586,794.7802197802198,836.886446886447,938.8278388278388
1624278944.6171875,814.6245421245421,798.6080586080586,798.1043956043957,832.6556776556777,826.0073260073259
1624278944.625,814.1115807269654,799.0667793744717,798.2361228515075,831.3446041138349,827.1231332769794
1624278944.6328125,813.5986193293886,799.5255001408848,798.3678500986193,830.0335305719922,828.2389405466328
1624278944.640625,813.0856579318117,799.9842209072979,798.4995773457313,828.7224570301494,829.3547478162862
1624278944.6484375,812.572696534235,800.442941673711,798.6313045928431,827.4113834883066,830.4705550859396
1624278944.65625,812.0597351366582,800.901662440124,798.7630318399549,826.1003099464639,831.5863623555931
1624278944.6640625,811.5467737390815,801.3603832065371,798.8947590870667,824.7892364046211,832.7021696252466
1624278944.671875,811.0338123415046,801.8191039729502,799.0264863341787,823.4781628627783,833.8179768949
1624278944.6796875,810.5208509439278,802.2778247393633,799.1582135812905,822.1670893209355,834.9337841645535
1624278944.6875,810.0078895463511,802.7365455057763,799.2899408284023,820.8560157790928,836.049591434207
1624278944.6953125,809.4949281487743,803.1952662721894,799.4216680755142,819.54494223725,837.1653987038603
1624278944.703125,808.9819667511974,803.6539870386025,799.5533953226261,818.2338686954072,838.2812059735138
1624278944.7109375,808.4690053536207,804.1127078050156,799.6851225697379,816.9227951535645,839.3970132431672
1624278944.71875,807.9560439560439,804.5714285714287,799.8168498168498,815.6117216117217,840.5128205128207
1624278944.7265625,803.6446886446886,804.5848595848597,800.018315018315,816.941391941392,902.899877899878
1624278944.734375,799.3333333333333,804.5982905982906,800.2197802197802,818.2710622710623,965.2869352869354
1624278944.7421875,795.0219780219779,804.6117216117217,800.4212454212454,819.6007326007327,1027.6739926739929
1624278944.7500002,790.7106227106227,804.6251526251527,800.6227106227105,820.930402930403,1090.06105006105
1624278944.7578125,786.3992673992674,804.6385836385837,800.8241758241758,822.2600732600733,1152.4481074481075
1624278944.765625,782.0879120879121,804.6520146520147,801.025641025641,823.5897435897436,1214.835164835165
1624278944.7734375,798.8095238095239,800.2197802197802,800.2197802197802,815.3296703296703,666.4468864468864
1624278944.78125,798.1043956043957,799.3691493691493,800.3317053317053,813.2590557590557,684.1086691086691
1624278944.7890625,797.3992673992675,798.5185185185186,800.4436304436305,811.1884411884412,701.7704517704517
1624278944.796875,796.6941391941393,797.6678876678877,800.5555555555557,809.1178266178266,719.4322344322344
1624278944.8046875,795.989010989011,796.8172568172569,800.6674806674807,807.047212047212,737.0940170940171
1624278944.8125,795.2838827838829,795.9666259666261,800.7794057794058,804.9765974765975,754.7557997557997
1624278944.8203125,794.5787545787547,795.1159951159952,800.891330891331,802.9059829059829,772.4175824175824
1624278944.828125,794.4348508634224,796.2912087912089,800.1766091051807,801.8746729461016,774.1732077446363
1624278944.8359375,794.29094714809,797.4664224664226,799.4618873190302,800.8433629862201,775.9288330716902
1624278944.84375,794.1470434327578,798.6416361416362,798.7471655328799,799.8120530263387,777.6844583987441
1624278944.8515625,794.0031397174255,799.8168498168499,798.0324437467295,798.7807430664574,779.440083725798
1624278944.859375,793.8592360020932,800.9920634920635,797.3177219605792,797.749433106576,781.195709052852
1624278944.8671875,793.7153322867608,802.1672771672772,796.6030001744288,796.7181231466946,782.9513343799058
1624278944.875,793.5714285714286,803.3424908424909,795.8882783882784,795.6868131868132,784.7069597069598
1624278944.8828125,792.485754985755,803.9189051689052,795.8267195767196,795.636446886447,798.7087912087912
1624278944.890625,791.4000814000814,804.4953194953196,795.7651607651608,795.5860805860806,812.7106227106227
1624278944.8984373,790.3144078144078,805.0717338217339,795.703601953602,795.5357142857142,826.7124542124543
1624278944.90625,789.2287342287343,805.6481481481482,795.6420431420432,795.485347985348,840.7142857142858
1624278944.9140625,788.1430606430607,806.2245624745625,795.5804843304844,795.4349816849817,854.7161172161173
1624278944.921875,787.0573870573871,806.8009768009769,795.5189255189256,795.3846153846154,868.7179487179487
1624278944.9296875,787.6253270538986,807.0350601779173,796.0293040293041,795.5803244374673,849.9183673469388
1624278944.9375,788.19326705041,807.2691435548579,796.5396825396826,795.7760334903192,831.1187859759289
1624278944.9453125,788.7612070469214,807.5032269317984,797.0500610500611,795.9717425431711,812.3192046049189
1624278944.9531252,789.3291470434327,807.7373103087389,797.5604395604397,796.1674515960229,793.519623233909
1624278944.9609375,789.8970870399442,807.9713936856793,798.0708180708182,796.3631606488749,774.720041862899
1624278944.96875,790.4650270364556,808.2054770626199,798.5811965811968,796.5588697017267,755.9204604918891
1624278944.9765625,791.032967032967,808.4395604395604,799.0915750915752,796.7545787545787,737.1208791208792
1624278944.984375,801.8315018315019,801.8315018315019,796.996336996337,792.1611721611722,780.0732600732601
1624278944.9921875,801.3502238502239,801.988196988197,797.2649572649573,793.3923483923485,794.7354497354497
1624278945.0,800.8689458689458,802.1448921448922,797.5335775335776,794.6235246235246,809.3976393976394
1624278945.0078125,800.3876678876679,802.3015873015875,797.802197802198,795.8547008547009,824.0598290598291
1624278945.015625,799.9063899063899,802.4582824582826,798.0708180708182,797.0858770858772,838.7220187220187
1624278945.0234375,799.4251119251119,802.6149776149778,798.3394383394384,798.3170533170534,853.3842083842083
1624278945.03125,798.9438339438339,802.7716727716729,798.6080586080587,799.5482295482296,868.0463980463979
1624278945.0390625,798.1006647673314,802.8015194681863,799.3243793243795,800.3839370506038,883.6114502781169
1624278945.0468748,797.2574955908289,802.8313661646996,800.0407000407001,801.2196445529779,899.1765025098357
1624278945.0546875,796.4143264143264,802.861212861213,800.7570207570209,802.0553520553522,914.7415547415546
1624278945.0625,795.5711572378239,802.8910595577263,801.4733414733415,802.8910595577263,930.3066069732736
1624278945.0703125,794.7279880613214,802.9209062542396,802.1896621896623,803.7267670601004,945.8716592049924
1624278945.078125,793.8848188848189,802.950752950753,802.9059829059829,804.5624745624746,961.4367114367112
1624278945.0859375,793.0416497083164,802.9805996472663,803.6223036223037,805.3981820648488,977.0017636684304
1624278945.09375,792.1984805318139,803.0104463437797,804.3386243386243,806.233889567223,992.5668159001492
1624278945.1015627,791.3553113553114,803.040293040293,805.054945054945,807.0695970695971,1008.131868131868
1624278945.109375,782.2893772893774,807.8754578754579,808.4798534798535,801.4285714285714,852.1978021978023
1624278945.1171875,784.690170940171,807.5900488400489,807.7075702075703,801.2942612942613,822.918192918193
1624278945.125,787.0909645909646,807.3046398046398,806.935286935287,801.1599511599512,793.6385836385837
1624278945.1328125,789.4917582417584,807.0192307692307,806.1630036630038,801.0256410256411,764.3589743589744
1624278945.140625,791.892551892552,806.7338217338217,805.3907203907205,800.8913308913309,735.0793650793651
1624278945.1484375,794.2933455433456,806.4484126984128,804.6184371184372,800.7570207570208,705.7997557997558
1624278945.15625,796.6941391941392,806.1630036630037,803.8461538461539,800.6227106227107,676.5201465201465
1624278945.1640625,797.4088609802895,805.8320251177395,803.9612768184197,800.6802721088436,698.5853828710971
1624278945.171875,798.1235827664399,805.5010465724752,804.0763997906856,800.7378335949765,720.6506192220478
1624278945.1796875,798.8383045525902,805.170068027211,804.1915227629514,800.7953950811094,742.7158555729984
1624278945.1875,799.5530263387407,804.8390894819466,804.3066457352172,800.8529565672422,764.781091923949
1624278945.1953125,800.267748124891,804.5081109366824,804.421768707483,800.9105180533752,786.8463282748996
1624278945.203125,800.9824699110413,804.1771323914181,804.5368916797489,800.968079539508,808.9115646258504
1624278945.2109375,801.6971916971917,803.8461538461539,804.6520146520147,801.025641025641,830.976800976801
1624278945.21875,802.4247049247049,804.0476190476192,803.8125763125763,803.1913919413919,838.7947700447701
1624278945.2265625,803.1522181522181,804.2490842490843,802.973137973138,805.3571428571429,846.6127391127392
1624278945.234375,803.8797313797313,804.4505494505495,802.1336996336997,807.5228937728938,854.4307081807083
1624278945.2421875,804.6072446072446,804.6520146520147,801.2942612942613,809.6886446886447,862.2486772486773
1624278945.2499998,805.3347578347579,804.8534798534798,800.4548229548229,811.8543956043957,870.0666463166464
1624278945.2578125,806.0622710622711,805.054945054945,799.6153846153846,814.0201465201466,877.8846153846155
1624278945.265625,801.4285714285714,801.8315018315019,795.7875457875458,809.4871794871796,889.6703296703297
1624278945.2734375,800.958485958486,801.8315018315019,796.3247863247864,808.949938949939,860.03256003256
1624278945.28125,800.4884004884004,801.8315018315019,796.8620268620268,808.4126984126984,830.3947903947904
1624278945.2890625,800.018315018315,801.8315018315019,797.3992673992674,807.8754578754579,800.7570207570209
