timestamp,RAW_TP9,RAW_AF7,RAW_AF8,RAW_TP10,AUX_RIGHT
1624279424.6328125,792.967032967033,793.9167974882262,797.8021978021978,807.7795220652364,784.5726495726495
1624279424.640625,794.1758241758241,794.2477760334904,797.3992673992674,808.7676609105181,777.1520146520146
1624279424.6484375,795.3846153846154,794.5787545787547,796.996336996337,809.7557997557998,769.7313797313797
1624279424.65625,801.952380952381,795.8479853479854,799.1318681318683,811.2399267399268,744.2930402930402
1624279424.6640625,808.5201465201466,797.1172161172162,801.2673992673994,812.7240537240539,718.8547008547009
1624279424.671875,815.0879120879122,798.386446886447,803.4029304029305,814.2081807081809,693.4163614163615
1624279424.6796875,821.6556776556778,799.6556776556777,805.5384615384617,815.6923076923078,667.9780219780221
1624279424.6875,819.2348060103163,799.4566793750467,805.584510727368,815.4225910144279,700.2568587874712
1624279424.6953125,816.8139343649549,799.2576810944157,805.6305599162743,815.1528743365479,732.5356955969202
1624279424.703125,814.3930627195934,799.0586828137848,805.6766091051805,814.883157658668,764.8145324063693
1624279424.7109375,811.972191074232,798.8596845331539,805.722658294087,814.6134409807879,797.0933692158183
1624279424.71875,809.5513194288706,798.660686252523,805.7687074829932,814.343724302908,829.3722060252674
1624279424.7265625,807.1304477835091,798.4616879718919,805.8147566718995,814.074007625028,861.6510428347165
1624279424.734375,804.7095761381477,798.262689691261,805.8608058608058,813.804290947148,893.9298796441655
1624279424.7421875,811.0989010989011,803.8461538461539,794.981684981685,799.4139194139194,917.0695970695972
1624279424.7500002,810.0244200244201,802.8388278388279,797.3992673992675,800.8689458689458,880.0447700447702
1624279424.7578125,808.949938949939,801.8315018315019,799.8168498168499,802.3239723239724,843.0199430199432
1624279424.765625,807.8754578754579,800.8241758241759,802.2344322344322,803.7789987789988,805.9951159951161
1624279424.7734375,806.8009768009769,799.8168498168499,804.6520146520147,805.2340252340252,768.9702889702891
1624279424.78125,805.7264957264958,798.8095238095239,807.0695970695972,806.6890516890518,731.9454619454621
1624279424.7890625,804.6520146520147,797.8021978021978,809.4871794871796,808.1440781440782,694.920634920635
1624279424.796875,774.8351648351648,801.8315018315019,807.0695970695971,807.4725274725275,780.4761904761905
1624279424.8046875,781.7655677655678,801.6568986568988,807.0964590964591,807.4188034188035,794.4713064713064
1624279424.8125,788.6959706959707,801.4822954822955,807.1233211233211,807.3650793650794,808.4664224664225
1624279424.8203125,795.6263736263736,801.3076923076924,807.1501831501832,807.3113553113553,822.4615384615386
1624279424.828125,802.5567765567766,801.1330891330892,807.1770451770452,807.2576312576311,836.4566544566545
1624279424.8359375,809.4871794871796,800.958485958486,807.2039072039072,807.2039072039071,850.4517704517705
1624279424.84375,816.4175824175825,800.7838827838829,807.2307692307693,807.150183150183,864.4468864468865
1624279424.8515625,813.1135531135532,808.6813186813187,805.4578754578755,801.4285714285714,766.7765567765568
1624279424.859375,809.9740537240538,806.8513431013431,804.6520146520147,800.7066544566545,783.179181929182
1624279424.8671875,806.8345543345544,805.0213675213674,803.8461538461539,799.9847374847375,799.5818070818071
1624279424.875,803.695054945055,803.1913919413919,803.0402930402931,799.2628205128206,815.9844322344323
1624279424.8828125,800.5555555555555,801.3614163614163,802.2344322344322,798.5409035409035,832.3870573870576
1624279424.890625,797.4160561660561,799.5314407814408,801.4285714285714,797.8189865689866,848.7896825396826
1624279424.8984373,794.2765567765568,797.7014652014652,800.6227106227107,797.0970695970695,865.1923076923078
1624279424.90625,791.1370573870574,795.8714896214896,799.8168498168499,796.3751526251526,881.594932844933
1624279424.9140625,787.997557997558,794.041514041514,799.0109890109891,795.6532356532357,897.9975579975581
1624279424.921875,784.8580586080586,792.2115384615385,798.2051282051282,794.9313186813187,914.4001831501834
1624279424.9296875,781.7185592185592,790.3815628815628,797.3992673992674,794.2094017094017,930.8028083028084
1624279424.9375,778.5790598290598,788.5515873015872,796.5934065934066,793.4874847374847,947.2054334554336
1624279424.9453125,775.4395604395604,786.7216117216117,795.7875457875458,792.7655677655678,963.6080586080589
1624279424.9531252,801.9466248037677,800.4500261643118,803.8461538461539,803.5583464154894,846.4992150706437
1624279424.9609375,806.6666666666666,809.7557997557998,794.7130647130647,799.1452991452992,791.0866910866911
1624279424.96875,808.3455433455433,805.7488807488808,794.3549043549043,799.0557590557592,774.6113146113146
1624279424.9765625,810.02442002442,801.7419617419617,793.9967439967439,798.966218966219,758.1359381359381
1624279424.984375,811.7032967032967,797.7350427350427,793.6385836385837,798.8766788766789,741.6605616605616
1624279424.9921875,813.3821733821734,793.7281237281238,793.2804232804233,798.7871387871388,725.1851851851852
1624279425.0,815.0610500610501,789.7212047212048,792.9222629222629,798.6975986975988,708.7098087098087
1624279425.0078125,816.7399267399268,785.7142857142858,792.5641025641025,798.6080586080586,692.2344322344322
1624279425.015625,785.5128205128206,798.4065934065934,794.1758241758241,806.2637362637363,815.1282051282051
1624279425.0234375,786.6432641432641,798.8878713878714,795.7651607651608,807.3158323158324,817.5681725681725
1624279425.03125,787.7737077737078,799.3691493691493,797.3544973544973,808.3679283679285,820.00814000814
1624279425.0390625,788.9041514041514,799.8504273504273,798.943833943834,809.4200244200244,822.4481074481075
1624279425.0468748,790.034595034595,800.3317053317053,800.5331705331706,810.4721204721205,824.8880748880749
1624279425.0546875,791.1650386650385,800.8129833129833,802.1225071225072,811.5242165242166,827.3280423280423
1624279425.0625,792.2954822954822,801.2942612942612,803.7118437118438,812.5763125763127,829.7680097680098
1624279425.0703125,792.660038374324,801.658817373103,803.3089133089134,810.6767835339265,807.7411477411479
1624279425.078125,793.0245944531658,802.0233734519448,802.905982905983,808.7772544915404,785.7142857142858
1624279425.0859375,793.3891505320076,802.3879295307867,802.5030525030526,806.8777254491541,763.6874236874238
1624279425.09375,793.7537066108495,802.7524856096284,802.1001221001222,804.9781964067679,741.6605616605617
1624279425.1015627,794.1182626896913,803.1170416884702,801.6971916971918,803.0786673643817,719.6336996336997
1624279425.109375,794.4828187685331,803.481597767312,801.2942612942614,801.1791383219955,697.6068376068376
1624279425.1171875,794.8473748473749,803.8461538461538,800.891330891331,799.2796092796093,675.5799755799757
1624279425.125,788.8226059654631,805.1892551892552,800.9680795395083,792.6024768881912,689.509855224141
1624279425.1328125,782.7978370835515,806.5323565323565,801.0448281876854,785.925344496773,703.4397348683063
1624279425.140625,776.7730682016397,807.8754578754579,801.1215768358627,779.2482121053549,717.3696145124717
1624279425.1484375,770.748299319728,809.2185592185592,801.1983254840399,772.5710797139369,731.2994941566371
1624279425.15625,764.7235304378162,810.5616605616606,801.2750741322171,765.8939473225188,745.2293738008025
1624279425.1640625,758.6987615559045,811.9047619047619,801.3518227803943,759.2168149311007,759.1592534449678
1624279425.171875,752.6739926739928,813.2478632478633,801.4285714285716,752.5396825396825,773.0891330891332
1624279425.1796875,716.0744810744811,814.1656491656493,802.5702075702077,719.5217745217745,767.8062678062679
1624279425.1875,679.4749694749695,815.0834350834351,803.7118437118438,686.5038665038664,762.5234025234025
1624279425.1953125,642.8754578754579,816.001221001221,804.8534798534799,653.4859584859585,757.2405372405373
1624279425.203125,606.2759462759464,816.919006919007,805.9951159951161,620.4680504680505,751.957671957672
1624279425.2109375,569.6764346764347,817.8367928367929,807.1367521367522,587.4501424501425,746.6748066748066
1624279425.21875,533.0769230769231,818.7545787545788,808.2783882783883,554.4322344322344,741.3919413919414
1624279425.2265625,581.6703296703297,817.6263736263738,804.6520146520147,589.8095238095237,783.1355311355312
1624279425.234375,639.047619047619,823.5897435897436,793.7728937728938,652.7472527472528,761.941391941392
1624279425.2421875,662.3907203907204,820.7423687423689,793.3968253968254,674.6263736263736,782.1819291819293
1624279425.2499998,685.7338217338217,817.894993894994,793.0207570207571,696.5054945054945,802.4224664224664
1624279425.2578125,709.0769230769231,815.0476190476192,792.6446886446886,718.3846153846154,822.6630036630036
1624279425.265625,732.4200244200244,812.2002442002444,792.2686202686202,740.2637362637362,842.9035409035408
1624279425.2734375,755.7631257631258,809.3528693528694,791.8925518925519,762.1428571428571,863.1440781440781
1624279425.28125,779.1062271062272,806.5054945054947,791.5164835164835,784.0219780219779,883.3846153846152
1624279425.2890625,874.1575091575091,796.996336996337,781.4835164835165,877.985347985348,1146.1355311355312
1624279425.296875,876.6310541310542,796.3695563695564,783.5765160765161,878.7240537240536,1099.0486365486363
1624279425.3046875,879.1045991045991,795.7427757427758,785.6695156695157,879.4627594627594,1051.961741961742
1624279425.3125,881.5781440781441,795.1159951159952,787.7625152625153,880.2014652014652,1004.8748473748474
1624279425.3203125,884.0516890516891,794.4892144892145,789.8555148555148,880.9401709401709,957.7879527879528
1624279425.328125,886.525234025234,793.8624338624339,791.9485144485144,881.6788766788766,910.701058201058
1624279425.3359375,888.998778998779,793.2356532356533,794.041514041514,882.4175824175824,863.6141636141634
1624279425.34375,887.0416884702599,793.2260596546312,794.856968428397,881.3143206000349,845.4343275771846
1624279425.3515625,885.0845979417409,793.216466073609,795.6724228152799,880.2110587824873,827.2544915402057
1624279425.359375,883.1275074132218,793.2068724925869,796.4878772021628,879.1077969649398,809.0746555032268
1624279425.3671875,881.1704168847026,793.1972789115646,797.3033315890459,878.0045351473922,790.8948194662479
1624279425.375,879.2133263561835,793.1876853305424,798.1187859759289,876.9012733298447,772.7149834292691
1624279425.3828125,877.2562358276645,793.1780917495203,798.9342403628118,875.7980115122971,754.5351473922901
1624279425.390625,875.2991452991454,793.1684981684981,799.7496947496948,874.6947496947496,736.3553113553113
1624279425.40625,825.2686202686202,795.7203907203908,803.9133089133089,851.2576312576313,597.0757020757021
1624279425.4140625,828.5592185592186,797.2649572649573,807.6068376068376,852.7350427350427,627.6312576312577
1624279425.421875,831.8498168498169,798.8095238095239,811.3003663003662,854.2124542124543,658.1868131868132
1624279425.4296875,835.1404151404151,800.3540903540904,814.993894993895,855.6898656898658,688.7423687423687
1624279425.4375,838.4310134310135,801.8986568986569,818.6874236874237,857.1672771672772,719.2979242979243
1624279425.4453125,841.7216117216118,803.4432234432235,822.3809523809524,858.6446886446887,749.8534798534798
1624279425.4531252,869.5238095238096,804.6520146520147,796.7948717948718,843.3333333333333,699.8901098901099
1624279425.4609375,865.4721204721205,804.2714692714693,799.0221815221815,842.057387057387,718.8502238502239
1624279425.46875,861.4204314204314,803.890923890924,801.2494912494913,840.7814407814408,737.8103378103378
1624279425.4765625,857.3687423687425,803.5103785103786,803.476800976801,839.5054945054944,756.7704517704518
1624279425.484375,853.3170533170534,803.1298331298332,805.7041107041107,838.2295482295482,775.7305657305658
1624279425.4921875,849.2653642653643,802.7492877492879,807.9314204314204,836.953601953602,794.6906796906798
1624279425.5,845.2136752136752,802.3687423687425,810.1587301587301,835.6776556776557,813.6507936507937
1624279425.5078125,840.7478632478633,800.6898656898658,807.6739926739926,832.1184371184371,813.1135531135532
1624279425.515625,836.2820512820513,799.0109890109891,805.1892551892552,828.5592185592186,812.5763125763126
1624279425.5234375,831.8162393162393,797.3321123321123,802.7045177045178,825.0,812.039072039072
1624279425.53125,827.3504273504274,795.6532356532356,800.2197802197803,821.4407814407814,811.5018315018315
1624279425.5390625,821.978021978022,802.6373626373627,807.0695970695971,830.8424908424909,713.1868131868132
1624279425.5468748,821.7094017094017,802.3879295307868,805.9567416710274,828.4440955869527,748.0882609454038
1624279425.5546875,821.4407814407814,802.1384964242108,804.8438862724577,826.0457003314147,782.9897087039944
1624279425.5625,821.1721611721612,801.8890633176349,803.731030873888,823.6473050758765,817.8911564625851
1624279425.5703125,820.9035409035408,801.6396302110588,802.6181754753184,821.2489098203384,852.7926042211757
1624279425.578125,820.6349206349206,801.3901971044829,801.5053200767487,818.8505145648003,887.6940519797663
1624279425.5859375,820.3663003663003,801.1407639979069,800.392464678179,816.4521193092622,922.5954997383568
1624279425.59375,820.09768009768,800.891330891331,799.2796092796093,814.0537240537241,957.4969474969477
1624279425.6015627,815.631868131868,801.4285714285716,798.386446886447,812.2472527472528,898.8974358974359
1624279425.609375,811.1660561660561,801.965811965812,797.4932844932846,810.4407814407814,840.2979242979243
1624279425.6171875,806.7002442002442,802.5030525030525,796.6001221001221,808.6343101343101,781.6984126984128
1624279425.625,802.2344322344322,803.040293040293,795.7069597069598,806.8278388278388,723.0989010989011
1624279425.6328125,798.0324437467294,802.5606139891854,795.5649747078319,804.943659515088,749.5042735042736
1624279425.640625,793.8304552590267,802.0809349380778,795.422989708704,803.0594802023373,775.909645909646
1624279425.6484375,789.6284667713239,801.6012558869702,795.2810047095761,801.1753008895865,802.3150183150183
1624279425.65625,785.4264782836211,801.1215768358626,795.1390197104483,799.2911215768358,828.7203907203907
1624279425.6640625,781.2244897959183,800.641897784755,794.9970347113205,797.406942264085,855.1257631257631
1624279425.671875,777.0225013082156,800.1622187336474,794.8550497121926,795.5227629513344,881.5311355311355
1624279425.6796875,772.8205128205128,799.6825396825398,794.7130647130647,793.6385836385836,907.936507936508
1624279425.6875,773.4249084249084,800.2421652421654,793.8176638176637,793.7952787952787,881.5221815221815
1624279425.6953125,774.0293040293041,800.8017908017908,792.9222629222629,793.9519739519739,855.1078551078551
1624279425.703125,774.6336996336996,801.3614163614163,792.0268620268621,794.1086691086691,828.6935286935287
1624279425.7109375,775.2380952380952,801.9210419210419,791.1314611314612,794.2653642653643,802.2792022792023
1624279425.71875,775.8424908424909,802.4806674806675,790.2360602360602,794.4220594220594,775.8648758648759
1624279425.7265625,776.4468864468864,803.040293040293,789.3406593406594,794.5787545787546,749.4505494505495
1624279425.734375,823.0525030525031,799.6825396825398,800.4884004884005,810.2930402930402,659.1941391941392
1624279425.7421875,819.2918192918194,800.1750101750102,800.3764753764754,809.3976393976393,672.4908424908425
1624279425.7500002,815.5311355311355,800.6674806674807,800.2645502645503,808.5022385022385,685.7875457875458
1624279425.7578125,811.7704517704518,801.1599511599511,800.1526251526252,807.6068376068375,699.0842490842491
1624279425.765625,808.0097680097681,801.6524216524216,800.0407000407,806.7114367114366,712.3809523809524
1624279425.7734375,804.2490842490843,802.1448921448921,799.9287749287748,805.8160358160358,725.6776556776557
1624279425.78125,800.4884004884005,802.6373626373626,799.8168498168498,804.9206349206348,738.974358974359
1624279425.7890625,800.2312925170069,802.6488749345891,800.4039769754055,804.3642072213501,744.0627943485086
1624279425.796875,799.9741845456132,802.6603872318158,800.9911041339612,803.8077795220652,749.1512297226583
1624279425.8046875,799.7170765742195,802.6718995290423,801.578231292517,803.2513518227804,754.2396650968079
1624279425.8125,799.4599686028258,802.683411826269,802.1653584510727,802.6949241234955,759.3281004709577
1624279425.8203125,799.2028606314321,802.6949241234955,802.7524856096285,802.1384964242108,764.4165358451073
1624279425.828125,798.9457526600385,802.7064364207222,803.3396127681842,801.5820687249259,769.504971219257
1624279425.8359375,798.6886446886448,802.7179487179487,803.92673992674,801.0256410256411,774.5934065934066
1624279425.84375,814.3223443223443,807.4725274725275,800.2197802197802,805.054945054945,898.1318681318681
1624279425.8515625,813.2030932030932,806.8569393569394,800.8577533577534,806.498778998779,882.6302401302402
1624279425.859375,812.0838420838421,806.2413512413513,801.4957264957264,807.942612942613,867.1286121286122
1624279425.8671875,810.9645909645909,805.6257631257632,802.1336996336996,809.3864468864468,851.6269841269841
1624279425.875,809.8453398453398,805.0101750101751,802.7716727716728,810.8302808302808,836.1253561253561
1624279425.8828125,808.7260887260887,804.394586894587,803.4096459096459,812.2741147741148,820.6237281237281
1624279425.890625,807.6068376068376,803.7789987789988,804.047619047619,813.7179487179487,805.1221001221002
1624279425.8984373,806.4875864875864,803.1634106634108,804.6855921855922,815.1617826617826,789.6204721204722
1624279425.90625,805.3683353683354,802.5478225478226,805.3235653235653,816.6056166056165,774.1188441188441
1624279425.9140625,804.2490842490843,801.9322344322345,805.9615384615385,818.0494505494505,758.6172161172161
1624279425.921875,806.5227629513344,801.0975928833072,805.3283621140764,817.0421245421245,757.9552590266876
1624279425.9296875,808.7964416535846,800.26295133438,804.6951857666144,816.0347985347985,757.2933019361591
1624279425.9375,811.0701203558347,799.4283097854527,804.0620094191523,815.0274725274725,756.6313448456306
1624279425.9453125,813.3437990580848,798.5936682365253,803.4288330716902,814.0201465201465,755.9693877551019
1624279425.9531252,815.6174777603349,797.7590266875981,802.7956567242281,813.0128205128204,755.3074306645734
1624279425.9609375,817.8911564625851,796.9243851386708,802.1624803767661,812.0054945054944,754.6454735740449
1624279425.96875,820.1648351648352,796.0897435897435,801.5293040293041,810.9981684981684,753.9835164835164
1624279425.9765625,817.8479853479853,796.4087301587301,802.0833333333334,812.8952991452991,794.7634310134309
1624279425.984375,815.5311355311355,796.7277167277167,802.6373626373627,814.7924297924297,835.5433455433455
1624279425.9921875,813.2142857142858,797.0467032967033,803.191391941392,816.6895604395604,876.3232600732601
1624279426.0,810.8974358974359,797.3656898656899,803.7454212454213,818.5866910866911,917.1031746031748
1624279426.0078125,808.580586080586,797.6846764346765,804.2994505494506,820.4838217338217,957.8830891330892
1624279426.015625,806.2637362637363,798.0036630036631,804.8534798534799,822.3809523809524,998.6630036630038
1624279426.0234375,814.8058608058608,796.8351648351647,804.4102564102565,816.7399267399269,863.4798534798535
1624279426.03125,813.4388821055487,797.5544702211369,803.9595712929047,816.3668430335098,855.3615520282187
1624279426.0390625,812.0719034052368,798.2737756071089,803.5088861755529,815.9937593270928,847.2432505765839
1624279426.0468748,810.7049247049247,798.993080993081,803.0582010582011,815.6206756206757,839.1249491249491
1624279426.0546875,809.3379460046126,799.712386379053,802.6075159408493,815.2475919142587,831.0066476733143
1624279426.0625,807.9709673043006,800.4316917650251,802.1568308234974,814.8745082078416,822.8883462216796
1624279426.0703125,806.6039886039886,801.1509971509971,801.7061457061457,814.5014245014246,814.7700447700448
1624279426.078125,805.2370099036765,801.8703025369692,801.2554605887939,814.1283407950075,806.65174331841
1624279426.0859375,803.8700312033645,802.5896079229412,800.8047754714421,813.7552570885905,798.5334418667752
1624279426.09375,802.5030525030525,803.3089133089134,800.3540903540903,813.3821733821734,790.4151404151404
1624279426.1015627,809.0842490842491,796.1904761904763,791.3553113553114,804.6520146520147,651.5384615384615
1624279426.109375,806.8009768009769,796.2800162800163,792.8327228327229,804.875864875865,687.8693528693528
1624279426.1171875,804.5177045177045,796.3695563695564,794.3101343101343,805.0997150997151,724.2002442002442
1624279426.125,802.2344322344322,796.4590964590965,795.7875457875458,805.3235653235654,760.5311355311355
1624279426.1328125,799.95115995116,796.5486365486365,797.2649572649573,805.5474155474157,796.8620268620268
1624279426.140625,797.6678876678876,796.6381766381767,798.7423687423687,805.7712657712658,833.1929181929181
1624279426.1484375,795.3846153846154,796.7277167277167,800.2197802197802,805.9951159951161,869.5238095238095
1624279426.15625,798.6656200941915,797.7302459445317,800.4931972789116,805.6737310308739,868.5596546310832
1624279426.1640625,801.9466248037677,798.7327751613466,800.7666143380429,805.3523460666319,867.5954997383569
1624279426.171875,805.2276295133438,799.7353043781616,801.0400313971743,805.0309611023897,866.6313448456306
1624279426.1796875,808.5086342229199,800.7378335949765,801.3134484563057,804.7095761381476,865.6671899529043
1624279426.1875,811.789638932496,801.7403628117914,801.586865515437,804.3881911739054,864.703035060178
1624279426.1953125,815.0706436420722,802.7428920286063,801.8602825745684,804.0668062096634,863.7388801674517
1624279426.203125,818.3516483516484,803.7454212454213,802.1336996336997,803.7454212454212,862.7747252747254
1624279426.2109375,815.911680911681,802.7940577940578,801.4733414733415,803.3984533984534,857.6373626373627
1624279426.21875,813.4717134717134,801.8426943426944,800.8129833129834,803.0514855514855,852.5000000000001
1624279426.2265625,811.031746031746,800.891330891331,800.1526251526252,802.7045177045177,847.3626373626374
1624279426.234375,808.5917785917786,799.9399674399675,799.492266992267,802.3575498575499,842.2252747252749
1624279426.2421875,806.1518111518111,798.988603988604,798.8319088319089,802.010582010582,837.0879120879122
1624279426.2499998,803.7118437118437,798.0372405372406,798.1715506715507,801.6636141636142,831.9505494505496
1624279426.2578125,801.2718762718763,797.0858770858772,797.5111925111925,801.3166463166464,826.8131868131869
1624279426.265625,798.8319088319088,796.1345136345137,796.8508343508344,800.9696784696785,821.6758241758243
1624279426.2734375,796.3919413919414,795.1831501831502,796.1904761904761,800.6227106227107,816.5384615384617
1624279426.28125,789.945054945055,797.1978021978023,801.2271062271063,799.6153846153846,640.4578754578755
1624279426.2890625,789.5421245421246,797.5671550671551,801.965811965812,800.9249084249084,668.427960927961
1624279426.296875,789.1391941391942,797.936507936508,802.7045177045178,802.2344322344322,696.3980463980464
1624279426.3046875,788.7362637362637,798.3058608058609,803.4432234432235,803.5439560439561,724.368131868132
1624279426.3125,788.3333333333334,798.6752136752137,804.1819291819291,804.8534798534798,752.3382173382174
1624279426.3203125,787.930402930403,799.0445665445666,804.9206349206349,806.1630036630036,780.3083028083029
1624279426.328125,787.5274725274726,799.4139194139194,805.6593406593406,807.4725274725274,808.2783882783883
1624279426.3359375,788.1318681318681,794.981684981685,808.2783882783883,805.8608058608058,676.9230769230769
1624279426.34375,788.7631257631258,796.3247863247864,806.7203907203907,806.089133089133,705.5445665445666
1624279426.3515625,789.3943833943835,797.6678876678877,805.1623931623932,806.3174603174604,734.1660561660563
1624279426.359375,790.0256410256411,799.0109890109891,803.6043956043956,806.5457875457876,762.7875457875459
1624279426.3671875,790.6568986568986,800.3540903540904,802.0463980463979,806.7741147741148,791.4090354090355
1624279426.375,791.2881562881563,801.6971916971918,800.4884004884004,807.0024420024421,820.0305250305252
1624279426.3828125,791.919413919414,803.0402930402931,798.9304029304028,807.2307692307693,848.6520146520148
1624279426.390625,770.8058608058608,801.025641025641,789.7435897435897,794.1758241758242,904.5787545787546
1624279426.3984373,774.8687423687423,801.3782051282051,791.4728327228327,795.485347985348,880.5540293040293
1624279426.40625,778.9316239316239,801.7307692307693,793.2020757020757,796.7948717948718,856.5293040293041
1624279426.4140625,782.9945054945056,802.0833333333334,794.9313186813188,798.1043956043957,832.5045787545788
1624279426.421875,787.0573870573871,802.4358974358975,796.6605616605617,799.4139194139194,808.4798534798535
1624279426.4296875,791.1202686202687,802.7884615384617,798.3898046398047,800.7234432234432,784.4551282051283
1624279426.4375,795.1831501831502,803.1410256410257,800.1190476190477,802.032967032967,760.430402930403
1624279426.4453125,796.2480376766092,803.1985871271587,800.5075876504449,802.666143380429,757.782574568289
1624279426.4531252,797.3129251700681,803.2561486132915,800.896127681842,803.2993197278911,755.1347462061749
1624279426.4609375,798.377812663527,803.3137100994245,801.2846677132392,803.9324960753531,752.4869178440608
1624279426.46875,799.4427001569859,803.3712715855573,801.6732077446364,804.5656724228153,749.8390894819466
1624279426.4765625,800.5075876504449,803.4288330716903,802.0617477760336,805.1988487702773,747.1912611198326
1624279426.484375,801.5724751439037,803.4863945578231,802.4502878074308,805.8320251177394,744.5434327577185
1624279426.4921875,802.6373626373627,803.5439560439561,802.8388278388279,806.4652014652014,741.8956043956044
1624279426.5,801.5436944008374,802.8676085818944,802.8388278388279,805.9183673469387,739.1470434327578
1624279426.5078125,800.4500261643119,802.1912611198326,802.8388278388279,805.3715332286761,736.3984824699111
1624279426.515625,799.3563579277866,801.5149136577709,802.8388278388279,804.8246991104133,733.6499215070644
1624279426.5234375,798.2626896912611,800.8385661957091,802.8388278388279,804.2778649921506,730.9013605442177
1624279426.53125,797.1690214547358,800.1622187336474,802.8388278388279,803.7310308738879,728.152799581371
1624279426.5390625,796.0753532182104,799.4858712715856,802.8388278388279,803.1841967556253,725.4042386185243
1624279426.5468748,794.981684981685,798.8095238095239,802.8388278388279,802.6373626373626,722.6556776556777
1624279426.5546875,794.3964765393337,799.2316413744985,802.6469562183848,802.5989883132739,727.2318158032443
1624279426.5625,793.8112680969824,799.6537589394733,802.4550845979418,802.5606139891854,731.8079539508111
1624279426.5703125,793.2260596546311,800.0758765044479,802.2632129774987,802.5222396650968,736.3840920983778
1624279426.578125,792.6408512122798,800.4979940694226,802.0713413570558,802.4838653410081,740.9602302459446
1624279426.5859375,792.0556427699285,800.9201116343972,801.8794697366127,802.4454910169195,745.5363683935112
1624279426.59375,791.4704343275772,801.342229199372,801.6875981161696,802.407116692831,750.112506541078
1624279426.6015627,790.8852258852259,801.7643467643467,801.4957264957266,802.3687423687423,754.6886446886447
1624279426.609375,784.2320774463632,802.8100470957613,800.9392987964417,795.7587650444793,765.9275248560963
1624279426.6171875,777.5789290075004,803.855747427176,800.3828710971569,789.1487877202163,777.1664050235479
1624279426.625,770.9257805686377,804.9014477585906,799.826443397872,782.5388103959533,788.4052851909995
1624279426.6328125,764.2726321297749,805.9471480900052,799.2700156985873,775.9288330716903,799.644165358451
1624279426.640625,757.6194836909123,806.9928484214198,798.7135879993024,769.3188557474273,810.8830455259026
1624279426.6484375,750.9663352520495,808.0385487528345,798.1571603000176,762.7088784231643,822.1219256933542
1624279426.65625,744.3131868131868,809.0842490842491,797.6007326007327,756.0989010989013,833.3608058608058
1624279426.6640625,721.9337606837607,810.4273504273505,797.1642246642248,733.5683760683762,803.5271672771672
1624279426.671875,699.5543345543346,811.7704517704518,796.7277167277168,711.0378510378512,773.6935286935287
1624279426.6796875,677.1749084249084,813.113553113553,796.2912087912089,688.5073260073261,743.8598901098901
1624279426.6875,654.7954822954823,814.4566544566544,795.8547008547009,665.976800976801,714.0262515262515
1624279426.6953125,632.4160561660563,815.7997557997558,795.418192918193,643.4462759462759,684.192612942613
1624279426.703125,610.0366300366301,817.1428571428571,794.981684981685,620.9157509157509,654.3589743589744
1624279426.7109375,621.1172161172161,817.5457875457876,800.6227106227107,617.893772893773,707.7472527472528
1624279426.71875,644.8565323565324,814.4230769230769,797.8021978021978,642.43894993895,756.6697191697192
1624279426.7265625,668.5958485958486,811.3003663003664,794.981684981685,666.9841269841271,805.5921855921857
1624279426.734375,692.3351648351648,808.1776556776557,792.1611721611722,691.5293040293041,854.5146520146521
1624279426.7421875,716.0744810744811,805.054945054945,789.3406593406594,716.0744810744811,903.4371184371186
1624279426.7500002,739.8137973137973,801.9322344322345,786.5201465201466,740.6196581196582,952.3595848595852
1624279426.7578125,763.5531135531136,798.8095238095239,783.6996336996338,765.1648351648353,1001.2820512820516
1624279426.765625,866.9047619047619,803.6446886446887,792.1611721611721,847.7655677655678,838.6996336996338
1624279426.7734375,866.3003663003664,802.656549799407,792.026862026862,850.547706261992,827.6190476190477
1624279426.78125,865.6959706959707,801.6684109541253,791.8925518925519,853.3298447584162,816.5384615384615
1624279426.7890625,865.0915750915751,800.6802721088436,791.7582417582418,856.1119832548404,805.4578754578755
1624279426.796875,864.4871794871796,799.6921332635618,791.6239316239316,858.8941217512647,794.3772893772893
1624279426.8046875,863.882783882784,798.7039944182801,791.4896214896215,861.6762602476889,783.2967032967033
1624279426.8125,863.2783882783883,797.7158555729984,791.3553113553114,864.4583987441132,772.2161172161173
1624279426.8203125,862.6739926739928,796.7277167277167,791.2210012210013,867.2405372405374,761.1355311355311
1624279426.828125,860.361939647654,796.9195883481598,792.4010116867261,865.6192220477936,763.0254665968952
1624279426.8359375,858.0498866213153,797.1114599686028,793.5810221524508,863.9979068550498,764.9154020582591
1624279426.84375,855.7378335949766,797.3033315890459,794.7610326181756,862.376591662306,766.8053375196232
1624279426.8515625,853.4257805686378,797.4952032094889,795.9410430839004,860.7552764695623,768.6952729809873
1624279426.859375,851.1137275422991,797.6870748299319,797.1210535496251,859.1339612768186,770.5852084423514
1624279426.8671875,848.8016745159604,797.878946450375,798.3010640153499,857.5126460840747,772.4751439037153
1624279426.875,846.4896214896216,798.0708180708181,799.4810744810746,855.891330891331,774.3650793650794
1624279426.8828125,842.9687772544917,798.6848072562358,800.1430315716032,852.1978021978023,779.5935810221525
1624279426.890625,839.4479330193617,799.2987964416536,800.8049886621317,848.5042735042736,784.8220826792256
1624279426.8984373,835.9270887842317,799.9127856270713,801.4669457526602,844.8107448107448,790.0505843362987
1624279426.90625,832.4062445491018,800.5267748124892,802.1289028431886,841.1172161172162,795.2790859933718
1624279426.9140625,828.8854003139718,801.1407639979069,802.7908599337171,837.4236874236875,800.507587650445
1624279426.921875,825.3645560788418,801.7547531833247,803.4528170242456,833.7301587301588,805.736089307518
1624279426.9296875,821.8437118437118,802.3687423687425,804.1147741147741,830.0366300366301,810.9645909645911
1624279426.9453125,822.2850165707308,799.7401011686727,802.7428920286063,823.6473050758765,785.906157334729
1624279426.9531252,822.5056689342404,798.4257805686378,802.0569509855225,820.4526425954997,773.3769405197978
1624279426.9609375,822.7263212977499,797.1114599686028,801.3710099424385,817.257980115123,760.8477237048667
1624279426.96875,822.9469736612594,795.797139368568,800.6850688993546,814.0633176347462,748.3185068899355
1624279426.9765625,823.1676260247689,794.4828187685331,799.9991278562707,810.8686551543694,735.7892900750045
1624279426.984375,823.3882783882784,793.1684981684982,799.3131868131868,807.6739926739926,723.2600732600733
1624279426.9921875,826.1080586080586,793.6050061050062,800.1358363858363,806.498778998779,711.6422466422467
1624279427.0,828.8278388278388,794.0415140415141,800.958485958486,805.3235653235653,700.0244200244201
1624279427.0078125,831.547619047619,794.4780219780221,801.7811355311355,804.1483516483516,688.4065934065934
1624279427.015625,834.2673992673994,794.9145299145299,802.6037851037851,802.973137973138,676.7887667887668
1624279427.0234375,836.9871794871796,795.3510378510379,803.4264346764347,801.7979242979243,665.1709401709402
1624279427.03125,839.7069597069598,795.7875457875458,804.2490842490843,800.6227106227107,653.5531135531136
1624279427.0390625,824.6978021978023,798.1043956043957,806.6666666666666,811.7032967032967,878.3882783882783
1624279427.0468748,819.2414529914531,799.0613553113553,806.6666666666666,809.957264957265,879.4963369963369
1624279427.0546875,813.7851037851038,800.0183150183151,806.6666666666666,808.2112332112332,880.6043956043956
1624279427.0625,808.3287545787546,800.9752747252747,806.6666666666667,806.4652014652015,881.7124542124542
1624279427.0703125,802.8724053724054,801.9322344322344,806.6666666666667,804.7191697191698,882.8205128205128
1624279427.078125,797.4160561660563,802.8891941391942,806.6666666666667,802.973137973138,883.9285714285714
1624279427.0859375,791.959706959707,803.8461538461538,806.6666666666667,801.2271062271063,885.0366300366301
1624279427.09375,821.1721611721612,805.8608058608058,807.4725274725274,804.6520146520147,796.5934065934066
1624279427.1015627,818.2621082621083,804.5177045177045,806.8009768009767,805.2116402116403,801.8315018315018
1624279427.109375,815.3520553520553,803.1746031746031,806.1294261294261,805.7712657712659,807.0695970695971
1624279427.1171875,812.4420024420024,801.8315018315018,805.4578754578754,806.3308913308915,812.3076923076924
1624279427.125,809.5319495319495,800.4884004884005,804.7863247863248,806.890516890517,817.5457875457876
1624279427.1328125,806.6218966218967,799.1452991452992,804.1147741147741,807.4501424501426,822.7838827838827
1624279427.140625,803.7118437118437,797.8021978021978,803.4432234432235,808.0097680097682,828.021978021978
1624279427.1484375,803.040293040293,807.0695970695971,808.6813186813187,805.054945054945,914.6520146520148
1624279427.15625,804.2778649921507,805.6881214024071,807.9330193615908,804.7767312053027,913.155416012559
1624279427.1640625,805.5154369440083,804.3066457352172,807.1847200418629,804.4985173556603,911.6588173731031
1624279427.171875,806.7530088958661,802.9251700680272,806.436420722135,804.2203035060179,910.1622187336473
1624279427.1796875,807.9905808477238,801.5436944008372,805.6881214024072,803.9420896563754,908.6656200941916
1624279427.1875,809.2281527995814,800.1622187336474,804.9398220826793,803.663875806733,907.1690214547356
1624279427.1953125,810.4657247514391,798.7807430664574,804.1915227629514,803.3856619570906,905.6724228152798
1624279427.203125,809.5008846029255,799.216565747178,803.8160025915129,803.509007998804,876.370885350477
1624279427.2109375,808.5360444544119,799.6523884278987,803.4404824200743,803.6323540405174,847.0693478856743
1624279427.21875,807.5712043058983,800.0882111086194,803.0649622486358,803.7557000822308,817.7678104208716
1624279427.2265625,806.6063641573846,800.5240337893399,802.6894420771972,803.8790461239441,788.4662729560688
1624279427.234375,805.641524008871,800.9598564700606,802.3139219057587,804.0023921656575,759.1647354912661
1624279427.2421875,804.6766838603575,801.3956791507812,801.9384017343201,804.1257382073709,729.8631980264634
1624279427.2499998,803.7118437118438,801.8315018315019,801.5628815628816,804.2490842490843,700.5616605616606
1624279427.2578125,802.6373626373627,802.2045855379189,801.637498304165,803.7715371048705,712.7540360873694
1624279427.265625,801.5628815628817,802.577669244336,801.7121150454484,803.2939899606566,724.9464116130782
1624279427.2734375,800.4884004884005,802.950752950753,801.7867317867317,802.8164428164429,737.1387871387872
1624279427.28125,799.4139194139194,803.32383665717,801.8613485280151,802.3388956722291,749.331162664496
1624279427.2890625,798.3394383394384,803.6969203635871,801.9359652692985,801.8613485280152,761.5235381902048
1624279427.296875,797.2649572649573,804.0700040700041,802.010582010582,801.3838013838015,773.7159137159136
1624279427.3046875,796.1904761904761,804.4430877764211,802.0851987518653,800.9062542395877,785.9082892416225
1624279427.3125,795.1159951159951,804.8161714828382,802.1598154931487,800.4287070953739,798.1006647673314
1624279427.3203125,794.041514041514,805.1892551892552,802.2344322344321,799.9511599511601,810.2930402930402
1624279427.328125,797.5527646956218,804.8438862724577,802.3687423687422,800.8721437292867,797.0538984824699
1624279427.3359375,801.0640153497296,804.4985173556602,802.5030525030525,801.7931275074134,783.8147566718995
1624279427.34375,804.5752660038374,804.1531484388627,802.6373626373626,802.71411128554,770.5756148613292
1624279427.3515625,808.0865166579451,803.8077795220653,802.7716727716728,803.6350950636665,757.3364730507587
1624279427.359375,811.597767312053,803.4624106052678,802.9059829059829,804.5560788417931,744.0973312401884
1624279427.3671875,815.1090179661608,803.1170416884703,803.0402930402931,805.4770626199198,730.858189429618
1624279427.375,818.6202686202686,802.7716727716728,803.1746031746032,806.3980463980464,717.6190476190477
1624279427.3828125,815.7885632885633,802.2120472120472,801.2382987382988,804.6967846967847,716.8131868131869
1624279427.390625,812.9568579568579,801.6524216524217,799.3019943019943,802.995522995523,716.007326007326
1624279427.3984373,810.1251526251526,801.0927960927961,797.36568986569,801.2942612942613,715.2014652014652
1624279427.40625,807.2934472934473,800.5331705331705,795.4293854293855,799.5929995929996,714.3956043956044
1624279427.4140625,804.461741961742,799.973544973545,793.4930809930811,797.8917378917379,713.5897435897435
1624279427.421875,801.6300366300367,799.4139194139194,791.5567765567766,796.1904761904761,712.7838827838827
1624279427.4296875,767.1794871794872,802.6373626373627,792.967032967033,805.4578754578755,1041.978021978022
1624279427.4375,778.909238909239,802.4135124135124,793.2356532356532,803.4879934879935,939.0964590964592
1624279427.4453125,790.6389906389907,802.1896621896623,793.5042735042736,801.5181115181116,836.2148962148963
1624279427.4531252,802.3687423687425,801.965811965812,793.7728937728938,799.5482295482296,733.3333333333334
1624279427.4609375,807.4725274725275,788.1318681318681,795.7875457875458,817.1428571428571,950.5128205128206
1624279427.46875,802.2120472120473,790.0569800569801,796.1457061457062,813.4940984940985,919.89010989011
1624279427.4765625,796.951566951567,791.982091982092,796.5038665038666,809.8453398453398,889.2673992673992
1624279427.484375,791.6910866910868,793.9072039072039,796.8620268620268,806.1965811965812,858.6446886446886
1624279427.4921875,786.4306064306065,795.8323158323159,797.2201872201872,802.5478225478225,828.021978021978
1624279427.5,781.1701261701262,797.7574277574279,797.5783475783476,798.8990638990639,797.3992673992674
1624279427.5078125,775.909645909646,799.6825396825398,797.936507936508,795.2503052503052,766.7765567765567
1624279427.515625,780.8343508343509,798.5632885632887,800.3988603988604,795.8099308099308,740.5189255189255
1624279427.5234375,785.7590557590559,797.4440374440375,802.8612128612128,796.3695563695563,714.2612942612942
1624279427.53125,790.6837606837607,796.3247863247864,805.3235653235654,796.9291819291819,688.003663003663
1624279427.5390625,795.6084656084656,795.2055352055353,807.7859177859178,797.4888074888075,661.7460317460318
1624279427.5468748,800.5331705331706,794.0862840862841,810.2482702482703,798.048433048433,635.4884004884005
1624279427.5546875,805.4578754578755,792.967032967033,812.7106227106227,798.6080586080586,609.2307692307693
1624279427.5625,805.0549450549452,803.3089133089134,811.3675213675214,803.4432234432234,747.1672771672771
1624279427.5703125,804.7359584859586,803.7678062678063,810.986975986976,803.2249694749694,762.2547822547822
1624279427.578125,804.416971916972,804.2266992266992,810.6064306064306,803.0067155067155,777.3422873422874
1624279427.5859375,804.0979853479854,804.6855921855922,810.2258852258853,802.7884615384615,792.4297924297925
1624279427.59375,803.7789987789988,805.1444851444852,809.8453398453399,802.5702075702076,807.5172975172976
1624279427.6015627,803.4600122100122,805.6033781033781,809.4647944647945,802.3519536019537,822.6048026048027
1624279427.609375,803.1410256410256,806.0622710622711,809.0842490842492,802.1336996336997,837.6923076923078
1624279427.6171875,803.227367870225,805.2420198848771,809.573521716379,803.0115122972267,824.9856096284669
1624279427.625,803.3137100994244,804.421768707483,810.0627943485088,803.8893249607536,812.2789115646259
1624279427.6328125,803.4000523286237,803.601517530089,810.5520669806385,804.7671376242805,799.572213500785
1624279427.640625,803.4863945578231,802.781266352695,811.0413396127683,805.6449502878075,786.8655154369441
1624279427.6484375,803.5727367870224,801.961015175301,811.5306122448981,806.5227629513345,774.1588173731031
1624279427.65625,803.6590790162219,801.1407639979069,812.0198848770278,807.4005756148614,761.4521193092621
1624279427.6640625,803.7454212454212,800.3205128205129,812.5091575091576,808.2783882783883,748.7454212454212
1624279427.671875,801.8902625152625,800.4296398046399,810.6456043956046,805.6593406593407,744.8588217338217
1624279427.6796875,800.0351037851038,800.5387667887669,808.7820512820514,803.0402930402931,740.9722222222222
1624279427.6875,798.1799450549452,800.6478937728938,806.9184981684982,800.4212454212454,737.0856227106226
1624279427.6953125,796.3247863247865,800.7570207570208,805.0549450549452,797.8021978021978,733.1990231990231
1624279427.703125,796.2524654832349,800.7053630130554,805.3442284211516,798.2412886259041,736.5051188128111
1624279427.7109375,796.1801446416832,800.6537052690899,805.633511787358,798.6803794496102,739.811214426599
1624279427.71875,796.1078238001317,800.6020475251245,805.9227951535645,799.1194702733164,743.117310040387
1624279427.7265625,796.03550295858,800.5503897811591,806.2120785197709,799.5585610970227,746.4234056541749
1624279427.734375,795.9631821170284,800.4987320371936,806.5013618859773,799.9976519207288,749.7295012679629
1624279427.7421875,795.8908612754767,800.4470742932282,806.7906452521837,800.436742744435,753.0355968817507
1624279427.7500002,795.8185404339251,800.3954165492628,807.0799286183902,800.8758335681413,756.3416924955387
1624279427.7578125,795.7462195923734,800.3437588052974,807.3692119845966,801.3149243918475,759.6477881093266
1624279427.765625,795.6738987508219,800.2921010613319,807.658495350803,801.7540152155536,762.9538837231146
1624279427.7734375,795.6015779092702,800.2404433173665,807.9477787170094,802.1931060392599,766.2599793369025
1624279427.78125,795.5292570677186,800.1887855734011,808.237062083216,802.6321968629661,769.5660749506904
1624279427.7890625,795.4569362261669,800.1371278294356,808.5263454494224,803.0712876866722,772.8721705644784
1624279427.796875,795.3846153846154,800.0854700854702,808.8156288156288,803.5103785103785,776.1782661782663
1624279427.8046875,797.063492063492,800.3093203093204,808.7932437932437,802.49185999186,772.7981277981279
1624279427.8125,798.7423687423687,800.5331705331706,808.7708587708587,801.4733414733414,769.4179894179895
1624279427.8203125,800.4212454212454,800.7570207570209,808.7484737484738,800.4548229548229,766.0378510378512
1624279427.828125,802.1001221001221,800.980870980871,808.7260887260887,799.4363044363045,762.6577126577128
1624279427.8359375,803.7789987789988,801.2047212047212,808.7037037037037,798.4177859177859,759.2775742775743
1624279427.84375,805.4578754578755,801.4285714285714,808.6813186813187,797.3992673992674,755.8974358974359
1624279428.109375,828.6263736263736,801.4285714285714,803.2417582417582,793.3699633699634,608.4249084249084
1624279428.1171875,803.0402930402931,795.989010989011,799.4139194139194,795.7875457875458,766.1721611721612
1624279428.125,800.9105180533753,797.3071690214548,799.425431711146,796.9848246991104,784.1486132914705
1624279428.1328125,798.7807430664575,798.6253270538984,799.4369440083726,798.1821036106751,802.1250654107797
1624279428.140625,796.6509680795397,799.9434850863422,799.4484563055992,799.3793825222397,820.101517530089
1624279428.1484375,794.5211930926217,801.261643118786,799.4599686028258,800.5766614338044,838.0779696493983
1624279428.15625,792.3914181057039,802.5798011512297,799.4714809000524,801.7739403453689,856.0544217687076
1624279428.1640625,790.2616431187861,803.8979591836734,799.482993197279,802.9712192569336,874.0308738880168
1624279428.171875,788.1318681318683,805.2161172161171,799.4945054945056,804.1684981684982,892.0073260073261
1624279428.1796875,789.3658424908426,804.0425824175824,799.4995421245422,800.9652014652015,862.2861721611722
1624279428.1875,790.5998168498169,802.8690476190476,799.5045787545789,797.7619047619048,832.5650183150183
1624279428.1953125,791.8337912087911,801.6955128205128,799.5096153846155,794.5586080586081,802.8438644688645
1624279428.203125,793.0677655677655,800.521978021978,799.5146520146521,791.3553113553114,773.1227106227105
1624279428.2109375,794.8521716378858,800.4788069073784,800.0470957613816,792.2043432757719,802.9107796964939
1624279428.21875,796.6365777080063,800.4356357927786,800.5795395081111,793.0533751962324,832.6988487702773
1624279428.2265625,798.4209837781266,800.392464678179,801.1119832548405,793.9024071166929,862.4869178440606
1624279428.234375,800.205389848247,800.3492935635793,801.64442700157,794.7514390371534,892.274986917844
1624279428.2421875,801.9897959183673,800.3061224489796,802.1768707482994,795.6004709576139,922.0630559916274
1624279428.2499998,803.7742019884878,800.2629513343799,802.7093144950289,796.4495028780744,951.8511250654108
1624279428.2578125,805.5586080586081,800.2197802197802,803.2417582417584,797.2985347985349,981.6391941391942
1624279428.265625,802.5198412698413,801.5628815628816,803.1410256410257,798.1211843711844,930.9874847374848
1624279428.2734375,799.4810744810745,802.9059829059829,803.0402930402931,798.943833943834,880.3357753357753
1624279428.28125,796.4423076923077,804.2490842490843,802.9395604395605,799.7664835164835,829.684065934066
1624279428.2890625,793.4035409035409,805.5921855921856,802.8388278388279,800.5891330891332,779.0323565323565
1624279428.296875,790.3647741147741,806.935286935287,802.7380952380953,801.4117826617827,728.380647130647
1624279428.3046875,787.3260073260074,808.2783882783883,802.6373626373627,802.2344322344322,677.7289377289377
1624279428.3125,787.1916971916971,804.1147741147741,802.6373626373626,804.1147741147741,756.3003663003664
1624279428.3203125,790.0513838013837,803.868538868539,802.0665445665445,805.0941188441188,771.1416361416362
1624279428.328125,792.9110704110703,803.6223036223037,801.4957264957264,806.0734635734636,785.9829059829061
1624279428.3359375,795.770757020757,803.3760683760684,800.9249084249084,807.0528083028083,800.8241758241759
1624279428.34375,798.6304436304437,803.1298331298332,800.3540903540904,808.032153032153,815.6654456654458
1624279428.3515625,801.4901302401303,802.883597883598,799.7832722832724,809.0114977614978,830.5067155067156
1624279428.359375,804.3498168498169,802.6373626373627,799.2124542124543,809.9908424908425,845.3479853479855
1624279428.3671875,811.9047619047619,807.4725274725275,799.8168498168499,803.4432234432235,589.0842490842491
1624279428.375,810.7127594627594,807.4389499389499,800.4380341880342,802.4191086691087,622.1749084249084
1624279428.3828125,809.5207570207571,807.4053724053724,801.0592185592186,801.394993894994,655.2655677655678
1624279428.390625,808.3287545787546,807.3717948717949,801.680402930403,800.3708791208792,688.3562271062272
1624279428.3984373,807.1367521367521,807.3382173382173,802.3015873015873,799.3467643467643,721.4468864468864
1624279428.40625,805.9447496947497,807.3046398046397,802.9227716727717,798.3226495726495,754.5375457875457
1624279428.4140625,804.7527472527472,807.2710622710622,803.5439560439561,797.2985347985348,787.6282051282051
1624279428.421875,768.5141941391942,807.9258241758241,804.0728021978023,761.6643772893773,787.1245421245421
1624279428.4296875,732.275641025641,808.580586080586,804.6016483516485,726.0302197802198,786.6208791208792
1624279428.4375,696.0370879120878,809.235347985348,805.1304945054945,690.3960622710623,786.1172161172161
1624279428.4453125,659.7985347985348,809.8901098901099,805.6593406593407,654.7619047619048,785.6135531135532
1624279428.4531252,647.221350078493,811.6169544740974,805.170068027211,643.0193615907903,769.1077969649399
1624279428.4609375,634.644165358451,813.3437990580848,804.6807953950812,631.2768184196756,752.6020408163266
1624279428.46875,622.0669806384092,815.0706436420722,804.1915227629514,619.534275248561,736.0962846677132
1624279428.4765625,609.4897959183673,816.7974882260596,803.7022501308215,607.7917320774463,719.5905285191
1624279428.484375,596.9126111983255,818.5243328100471,803.2129774986918,596.0491889063318,703.0847723704867
1624279428.4921875,584.3354264782836,820.2511773940345,802.723704866562,584.3066457352172,686.5790162218734
1624279428.5,571.7582417582418,821.978021978022,802.2344322344322,572.5641025641025,670.0732600732601
1624279428.5078125,689.8168498168498,821.037851037851,795.9218559218558,673.4310134310134,756.5689865689866
1624279428.515625,712.1507064364207,818.0062794348509,796.2096633525204,697.5492761207047,771.0936682365254
1624279428.5234375,734.4845630559915,814.9747078318507,796.497470783185,721.667538810396,785.6183499040642
1624279428.53125,756.8184196755625,811.9431362288504,796.7852782138496,745.7858015000872,800.143031571603
1624279428.5390625,779.1522762951334,808.9115646258504,797.0730856445142,769.9040641897784,814.6677132391419
1624279428.5468748,801.4861329147044,805.8799930228502,797.3608930751788,794.0223268794697,829.1923949066808
1624279428.5546875,823.8199895342752,802.84842141985,797.6487005058434,818.140589569161,843.7170765742195
1624279428.5625,846.1538461538462,799.8168498168498,797.936507936508,842.2588522588522,858.2417582417584
1624279428.5703125,859.98778998779,799.5482295482295,796.5598290598291,857.2680097680097,865.5280830280831
1624279428.578125,873.8217338217339,799.2796092796093,795.1831501831502,872.2771672771673,872.8144078144078
1624279428.5859375,887.6556776556777,799.0109890109891,793.8064713064713,887.2863247863249,880.1007326007326
1624279428.59375,901.4896214896216,798.7423687423689,792.4297924297924,902.2954822954824,887.3870573870573
1624279428.6015627,895.8485958485959,798.3394383394384,794.981684981685,898.2997557997559,841.1843711843712
1624279428.609375,890.2075702075703,797.936507936508,797.5335775335775,894.3040293040294,794.981684981685
1624279428.6171875,884.5665445665446,797.5335775335776,800.08547008547,890.3083028083029,748.7789987789988
1624279428.625,878.925518925519,797.1306471306472,802.6373626373626,886.3125763125763,702.5763125763127
1624279428.6328125,875.337519623234,797.3608930751789,803.424036281179,883.3001918716204,736.1538461538462
1624279428.640625,871.7495203209489,797.5911390197105,804.2107099249956,880.2878074306645,769.7313797313798
1624279428.6484375,868.161521018664,797.8213849642422,804.9973835688121,877.2754229897087,803.3089133089132
1624279428.65625,864.5735217163789,798.0516309087739,805.7840572126287,874.2630385487529,836.8864468864468
1624279428.6640625,860.9855224140939,798.2818768533056,806.5707308564452,871.250654107797,870.4639804639803
1624279428.671875,857.3975231118088,798.5121227978372,807.3574045002617,868.2382696668411,904.041514041514
1624279428.6875,849.2094017094017,799.794464794465,807.1255596255596,860.4354904354905,901.0531135531132
1624279428.6953125,844.6092796092796,800.8465608465609,806.1070411070411,855.6450956450957,864.4871794871793
1624279428.703125,840.0091575091575,801.898656898657,805.0885225885227,850.8547008547009,827.9212454212452
1624279428.7109375,835.4090354090354,802.9507529507531,804.0700040700041,846.064306064306,791.3553113553112
1624279428.71875,830.8089133089132,804.0028490028491,803.0514855514855,841.2739112739113,754.7893772893772
1624279428.7265625,826.2087912087911,805.0549450549452,802.032967032967,836.4835164835165,718.2234432234432
1624279428.734375,819.96336996337,803.4432234432235,790.5494505494506,821.1721611721612,646.7032967032967
1624279428.7421875,819.174297924298,802.251221001221,791.9597069597071,819.0399877899878,662.7533577533577
1624279428.7500002,818.385225885226,801.0592185592186,793.3699633699634,816.9078144078144,678.8034188034188
1624279428.7578125,817.5961538461539,799.8672161172162,794.7802197802198,814.7756410256411,694.8534798534798
1624279428.765625,816.8070818070819,798.6752136752137,796.1904761904763,812.6434676434677,710.9035409035408
1624279428.7734375,816.0180097680098,797.4832112332113,797.6007326007327,810.5112942612943,726.953601953602
1624279428.78125,815.2289377289378,796.2912087912089,799.0109890109891,808.3791208791209,743.003663003663
1624279428.7890625,815.5982905982906,797.2745508459794,799.6825396825398,808.7676609105181,751.5803244374673
1624279428.796875,815.9676434676435,798.2578929007501,800.3540903540904,809.1562009419152,760.1569858712716
1624279428.8046875,816.3369963369963,799.2412349555207,801.0256410256411,809.5447409733124,768.7336473050759
1624279428.8125,816.7063492063493,800.2245770102912,801.6971916971917,809.9332810047097,777.3103087388803
1624279428.8203125,817.0757020757021,801.2079190650618,802.3687423687423,810.3218210361068,785.8869701726846
1624279428.828125,817.445054945055,802.1912611198325,803.040293040293,810.710361067504,794.4636316064889
1624279428.8359375,817.8144078144078,803.174603174603,803.7118437118437,811.0989010989011,803.0402930402932
1624279428.84375,810.6959706959707,802.2344322344321,802.9059829059829,810.2035002035002,812.889702889703
1624279428.8515625,803.5775335775336,801.2942612942612,802.1001221001222,809.3080993080994,822.7391127391129
1624279428.859375,796.4590964590965,800.3540903540903,801.2942612942614,808.4126984126984,832.5885225885227
1624279428.8671875,802.032967032967,800.6227106227107,800.4212454212454,801.2271062271062,920.897435897436
1624279428.875,803.2081807081806,800.958485958486,800.8577533577534,801.3502238502239,906.8284493284492
1624279428.8828125,804.3833943833944,801.2942612942613,801.2942612942613,801.4733414733415,892.7594627594628
1624279428.890625,805.5586080586081,801.6300366300366,801.7307692307693,801.5964590964591,878.6904761904763
1624279428.8984373,806.7338217338217,801.9658119658119,802.1672771672771,801.7195767195767,864.6214896214897
1624279428.90625,807.9090354090354,802.3015873015872,802.6037851037851,801.8426943426944,850.5525030525032
1624279428.9140625,809.0842490842491,802.6373626373626,803.040293040293,801.965811965812,836.4835164835166
1624279428.921875,808.1632653061225,802.9971219256932,802.4215070643642,801.6875981161696,822.6975405546835
1624279428.9296875,807.2422815279958,803.356881214024,801.8027210884353,801.4093842665271,808.9115646258505
1624279428.9375,806.3212977498692,803.7166405023547,801.1839351125064,801.1311704168847,795.1255886970174
1624279428.9453125,805.4003139717425,804.0763997906855,800.5651491365777,800.8529565672424,781.3396127681842
1624279428.9531252,804.479330193616,804.4361590790162,799.9463631606488,800.5747427176,767.5536368393512
1624279428.9609375,803.5583464154893,804.795918367347,799.32757718472,800.2965288679575,753.7676609105181
1624279428.96875,802.6373626373627,805.1556776556777,798.7087912087911,800.0183150183151,739.981684981685
1624279428.9765625,798.3394383394384,804.198717948718,799.8336385836385,800.2533577533578,747.1336996336997
1624279428.984375,794.0415140415141,803.2417582417582,800.9584859584859,800.4884004884005,754.2857142857143
1624279428.9921875,789.7435897435898,802.2847985347985,802.0833333333333,800.7234432234433,761.4377289377289
1624279429.0,785.4456654456654,801.3278388278388,803.2081807081807,800.958485958486,768.5897435897436
1624279429.0078125,781.1477411477412,800.3708791208792,804.3330280830281,801.1935286935287,775.7417582417584
1624279429.015625,776.8498168498169,799.4139194139194,805.4578754578755,801.4285714285714,782.893772893773
1624279429.0234375,800.3205128205129,798.3058608058609,798.6080586080586,805.1556776556777,785.4120879120879
1624279429.03125,798.4439017772352,798.4588251254919,797.936507936508,805.1743318409985,800.1451634784968
1624279429.0390625,796.5672907339575,798.6117894451229,797.2649572649573,805.1929860263193,814.8782390449057
1624279429.0468748,794.6906796906798,798.7647537647539,796.5934065934066,805.2116402116402,829.6113146113146
1624279429.0546875,792.8140686474021,798.9177180843849,795.9218559218559,805.2302943969611,844.3443901777235
1624279429.0625,790.9374576041243,799.0706824040158,795.2503052503054,805.2489485822819,859.0774657441324
1624279429.0703125,789.0608465608467,799.2236467236468,794.5787545787547,805.2676027676027,873.8105413105413
1624279429.078125,787.1842355175689,799.3766110432778,793.907203907204,805.2862569529236,888.5436168769502
1624279429.0859375,785.3076244742913,799.5295753629088,793.2356532356533,805.3049111382444,903.276692443359
1624279429.09375,783.4310134310135,799.6825396825398,792.5641025641027,805.3235653235653,918.009768009768
1624279429.1015627,782.8713878713879,800.3764753764755,792.967032967033,803.4656084656084,879.1045991045991
1624279429.109375,782.3117623117624,801.0704110704112,793.3699633699634,801.6076516076516,840.1994301994301
1624279429.1171875,781.7521367521368,801.7643467643468,793.7728937728939,799.7496947496948,801.2942612942613
1624279429.125,781.1925111925112,802.4582824582825,794.1758241758242,797.8917378917379,762.3890923890924
1624279429.1328125,780.6328856328857,803.1522181522182,794.5787545787546,796.0337810337811,723.4839234839235
1624279429.140625,780.0732600732601,803.8461538461539,794.981684981685,794.1758241758242,684.5787545787546
1624279429.1484375,754.5543345543347,797.3992673992674,791.892551892552,769.1941391941392,890.4761904761905
1624279429.15625,759.9323361823363,797.0131257631258,792.8607041107042,769.6978021978023,867.1230158730159
1624279429.1640625,765.310337810338,796.6269841269841,793.8288563288564,770.2014652014652,843.7698412698413
1624279429.171875,770.6883394383395,796.2408424908425,794.7970085470085,770.7051282051282,820.4166666666667
1624279429.1796875,776.0663410663411,795.8547008547009,795.7651607651608,771.2087912087912,797.063492063492
1624279429.1875,781.4443426943428,795.4685592185592,796.733312983313,771.7124542124543,773.7103174603175
1624279429.1953125,786.8223443223444,795.0824175824176,797.7014652014652,772.2161172161173,750.3571428571429
1624279429.203125,789.5133437990581,796.7229199372057,798.9246467817896,775.7561486132915,760.3296703296703
1624279429.2109375,792.2043432757719,798.3634222919937,800.1478283621141,779.2961800104657,770.3021978021978
1624279429.21875,794.8953427524856,800.0039246467818,801.3710099424385,782.83621140764,780.2747252747253
1624279429.2265625,797.5863422291994,801.6444270015699,802.594191522763,786.3762428048143,790.2472527472528
1624279429.234375,800.2773417059132,803.2849293563579,803.8173731030874,789.9162742019886,800.2197802197802
1624279429.2421875,802.9683411826269,804.925431711146,805.0405546834119,793.4563055991628,810.1923076923076
1624279429.2499998,805.6593406593406,806.565934065934,806.2637362637363,796.996336996337,820.1648351648352
1624279429.2578125,804.114774114774,806.1965811965812,806.1462148962149,796.6605616605617,812.2237484737485
1624279429.265625,802.5702075702076,805.8272283272282,806.0286935286936,796.3247863247864,804.2826617826618
1624279429.2734375,801.0256410256411,805.4578754578754,805.9111721611721,795.989010989011,796.3415750915751
1624279429.28125,799.4810744810745,805.0885225885226,805.7936507936507,795.6532356532357,788.4004884004885
1624279429.2890625,797.936507936508,804.7191697191696,805.6761294261294,795.3174603174604,780.4594017094017
1624279429.296875,796.3919413919415,804.3498168498168,805.558608058608,794.981684981685,772.5183150183151
1624279429.3046875,796.1904761904763,798.6080586080586,803.4432234432235,799.8168498168499,647.9120879120879
1624279429.3125,796.8284493284494,798.7199837199837,803.6670736670737,799.6825396825398,667.946682946683
1624279429.3203125,797.4664224664225,798.8319088319089,803.8909238909239,799.5482295482295,687.981277981278
1624279429.328125,798.1043956043957,798.943833943834,804.1147741147741,799.4139194139194,708.015873015873
1624279429.3359375,798.7423687423689,799.055759055759,804.3386243386244,799.2796092796093,728.0504680504681
1624279429.34375,799.3803418803419,799.1676841676842,804.5624745624746,799.1452991452991,748.0850630850632
1624279429.3515625,800.0183150183151,799.2796092796093,804.7863247863248,799.010989010989,768.1196581196582
1624279429.359375,800.029994160429,799.3146467059511,804.6928916494135,798.920475659606,774.829325264108
1624279429.3671875,800.0416733025429,799.3496841322929,804.599458512502,798.8299623082231,781.5389924085576
1624279429.375,800.0533524446569,799.3847215586346,804.5060253755906,798.7394489568402,788.2486595530074
1624279429.3828125,800.0650315867708,799.4197589849764,804.4125922386793,798.6489356054573,794.9583266974572
1624279429.390625,800.0767107288847,799.4547964113182,804.3191591017678,798.5584222540743,801.667993841907
1624279429.3984373,800.0883898709986,799.48983383766,804.2257259648565,798.4679089026915,808.3776609863567
1624279429.40625,800.1000690131126,799.5248712640017,804.1322928279451,798.3773955513086,815.0873281308064
1624279429.4140625,800.1117481552265,799.5599086903435,804.0388596910337,798.2868821999257,821.7969952752562
1624279429.421875,800.1234272973404,799.5949461166853,803.9454265541223,798.1963688485428,828.506662419706
1624279429.4296875,800.1351064394544,799.629983543027,803.8519934172109,798.1058554971598,835.2163295641557
1624279429.4375,800.1467855815682,799.6650209693688,803.7585602802995,798.0153421457769,841.9259967086055
1624279429.4453125,800.1584647236822,799.7000583957107,803.6651271433881,797.924828794394,848.6356638530552
1624279429.4531252,800.170143865796,799.7350958220525,803.5716940064767,797.8343154430111,855.345330997505
1624279429.4609375,800.18182300791,799.7701332483942,803.4782608695654,797.7438020916281,862.0549981419547
1624279429.46875,800.193502150024,799.805170674736,803.3848277326539,797.6532887402452,868.7646652864045
1624279429.4765625,800.2051812921378,799.8402081010778,803.2913945957425,797.5627753888623,875.4743324308542
1624279429.484375,800.2168604342518,799.8752455274196,803.1979614588312,797.4722620374794,882.183999575304
1624279429.4921875,800.2285395763657,799.9102829537613,803.1045283219198,797.3817486860966,888.8936667197537
1624279429.5,800.2402187184796,799.9453203801031,803.0110951850083,797.2912353347136,895.6033338642035
1624279429.5078125,800.2518978605935,799.9803578064449,802.917662048097,797.2007219833307,902.3130010086531
1624279429.515625,800.2635770027075,800.0153952327867,802.8242289111856,797.1102086319478,909.022668153103
1624279429.5234375,800.2752561448214,800.0504326591284,802.7307957742742,797.0196952805649,915.7323352975528
1624279429.53125,800.2869352869353,800.0854700854702,802.6373626373628,796.9291819291819,922.4420024420024
1624279429.5390625,780.1404151404153,808.0097680097682,804.920634920635,778.7973137973139,852.3992673992675
1624279429.5468748,546.3736263736264,815.2625152625152,813.2478632478633,557.2527472527472,776.5811965811967
1624279429.5546875,561.5314843886273,815.2625152625152,810.4177568463283,572.0844235129949,780.7639979068551
1624279429.5625,576.6893424036281,815.2625152625152,807.5876504447933,586.9160997732426,784.9467992325136
1624279429.5703125,591.847200418629,815.2625152625152,804.7575440432583,601.7477760334904,789.1296005581721
1624279429.578125,607.0050584336299,815.2625152625152,801.9274376417234,616.579452293738,793.3124018838305
1624279429.5859375,622.1629164486308,815.2625152625152,799.0973312401884,631.4111285539857,797.495203209489
1624279429.59375,637.3207744636316,815.2625152625152,796.2672248386534,646.2428048142334,801.6780045351475
1624279429.6015627,652.4786324786324,815.2625152625152,793.4371184371184,661.0744810744811,805.860805860806
1624279429.609375,824.1538461538461,799.7362637362638,783.6190476190477,823.025641025641,704.8058608058608
1624279429.6171875,836.4163614163614,798.3394383394384,786.923076923077,837.2222222222222,730.3785103785103
1624279429.625,848.6788766788767,796.942612942613,790.2271062271063,851.4188034188033,755.95115995116
1624279429.6328125,860.9413919413919,795.5457875457876,793.5311355311355,865.6153846153845,781.5238095238095
1624279429.640625,873.2039072039072,794.1489621489623,796.8351648351648,879.8119658119658,807.0964590964591
1624279429.6484375,885.4664224664225,792.7521367521368,800.1391941391942,894.008547008547,832.6691086691087
1624279429.65625,897.7289377289378,791.3553113553114,803.4432234432235,908.2051282051282,858.2417582417582
1624279429.671875,909.5370370370372,802.5478225478225,792.1723646723648,905.2838827838827,776.2454212454213
1624279429.6796875,904.2205942205944,800.8465608465608,794.802604802605,901.7582417582418,761.5384615384615
1624279429.6875,898.9041514041514,799.1452991452991,797.432844932845,898.2326007326008,746.8315018315018
1624279429.6953125,893.5877085877087,797.4440374440375,800.0630850630852,894.7069597069598,732.1245421245421
1624279429.703125,888.2712657712659,795.7427757427757,802.6933251933253,891.1813186813187,717.4175824175825
1624279429.7109375,882.954822954823,794.041514041514,805.3235653235655,887.6556776556777,702.7106227106227
1624279429.71875,883.8134484563057,794.9385138670852,805.5586080586082,884.5761381475668,736.1826268969127
1624279429.7265625,884.6720739577884,795.8355136926565,805.793650793651,881.4965986394558,769.6546310832025
1624279429.734375,885.530699459271,796.7325135182277,806.0286935286937,878.4170591313449,803.1266352694925
1624279429.7421875,886.3893249607536,797.6295133437991,806.2637362637363,875.3375196232339,836.5986394557824
1624279429.7500002,887.2479504622362,798.5265131693703,806.498778998779,872.257980115123,870.0706436420724
1624279429.7578125,888.1065759637189,799.4235129949416,806.7338217338217,869.178440607012,903.5426478283622
1624279429.765625,888.9652014652015,800.3205128205128,806.9688644688645,866.0989010989011,937.014652014652
1624279429.7734375,881.7748124890983,800.6898656898657,806.7530088958661,859.795918367347,909.6057910343626
1624279429.78125,874.5844235129949,801.0592185592186,806.5371533228677,853.4929356357928,882.196930054073
1624279429.7890625,867.3940345368917,801.4285714285714,806.3212977498692,847.1899529042387,854.7880690737834
1624279429.796875,860.2036455607885,801.7979242979244,806.1054421768707,840.8869701726844,827.3792080934938
1624279429.8046875,853.0132565846852,802.1672771672772,805.8895866038723,834.5839874411303,799.9703471132043
1624279429.8125,845.8228676085819,802.5366300366302,805.6737310308739,828.2810047095761,772.5614861329148
1624279429.8203125,838.6324786324786,802.905982905983,805.4578754578755,821.978021978022,745.1526251526252
1624279429.828125,835.7224257224257,802.5925925925927,804.8534798534799,822.7167277167277,755.8078958078959
1624279429.8359375,832.8123728123728,802.2792022792023,804.2490842490843,823.4554334554334,766.4631664631665
1624279429.84375,829.90231990232,801.965811965812,803.6446886446887,824.1941391941392,777.1184371184372
1624279429.8515625,826.992266992267,801.6524216524217,803.0402930402931,824.932844932845,787.7737077737078
1624279429.859375,824.082214082214,801.3390313390313,802.4358974358975,825.6715506715507,798.4289784289784
1624279429.8671875,821.1721611721612,801.025641025641,801.8315018315019,826.4102564102565,809.0842490842491
1624279429.875,850.989010989011,800.4212454212454,806.0622710622711,830.0366300366301,870.9340659340661
1624279429.8828125,842.5543345543347,799.2460317460318,805.9078144078144,824.5567765567766,858.1947496947498
1624279429.890625,834.1196581196582,798.0708180708181,805.7533577533578,819.0769230769231,845.4554334554335
1624279429.8984373,825.6849816849817,796.8956043956043,805.5989010989011,813.5970695970697,832.7161172161173
1624279429.90625,817.2503052503054,795.7203907203907,805.4444444444445,808.1172161172162,819.9768009768011
1624279429.9140625,808.815628815629,794.5451770451771,805.2899877899879,802.6373626373627,807.2374847374848
1624279429.921875,800.3809523809525,793.3699633699633,805.1355311355312,797.1575091575093,794.4981684981685
1624279429.9296875,804.6520146520147,810.6959706959707,799.8168498168499,805.4578754578755,1102.014652014652
1624279429.9375,802.7213064713065,809.1346153846154,800.2533577533578,801.9826007326008,1050.2213064713064
1624279429.9453125,800.7905982905983,807.57326007326,800.6898656898658,798.507326007326,998.427960927961
1624279429.9531252,798.8598901098901,806.0119047619048,801.1263736263736,795.0320512820513,946.6346153846156
1624279429.9609375,796.9291819291819,804.4505494505495,801.5628815628816,791.5567765567766,894.8412698412699
1624279429.96875,794.9984737484737,802.8891941391942,801.9993894993895,788.0815018315019,843.0479242979243
1624279429.9765625,793.0677655677655,801.3278388278388,802.4358974358975,784.6062271062272,791.2545787545788
1624279429.984375,792.0772283272282,800.1022588522588,802.0665445665446,787.5106837606838,809.8397435897436
1624279429.9921875,791.0866910866911,798.8766788766789,801.6971916971917,790.4151404151404,828.4249084249085
1624279430.0,790.0961538461538,797.651098901099,801.3278388278388,793.3195970695971,847.0100732600733
1624279430.0078125,789.1056166056165,796.425518925519,800.958485958486,796.2240537240538,865.5952380952383
1624279430.015625,788.1150793650794,795.199938949939,800.589133089133,799.1285103785103,884.1804029304031
1624279430.0234375,787.1245421245421,793.974358974359,800.2197802197802,802.032967032967,902.765567765568
1624279430.03125,776.4468864468864,801.025641025641,794.1758241758242,782.4908424908425,761.1355311355312
1624279430.0390625,775.8592796092796,800.7066544566544,794.9481074481075,785.2106227106227,764.7619047619048
1624279430.0468748,775.2716727716728,800.3876678876678,795.7203907203908,787.9304029304029,768.3882783882784
1624279430.0546875,774.684065934066,800.0686813186812,796.4926739926741,790.6501831501831,772.014652014652
1624279430.0625,774.0964590964591,799.7496947496948,797.2649572649573,793.3699633699633,775.6410256410256
1624279430.0703125,773.5088522588522,799.4307081807082,798.0372405372406,796.0897435897435,779.2673992673992
1624279430.078125,772.9212454212454,799.1117216117216,798.8095238095239,798.8095238095237,782.8937728937728
1624279430.0859375,777.3366910866911,798.8263125763126,798.9774114774116,799.3803418803418,780.4761904761905
1624279430.09375,781.7521367521367,798.5409035409035,799.1452991452992,799.9511599511599,778.058608058608
1624279430.1015627,786.1675824175825,798.2554945054944,799.3131868131868,800.5219780219779,775.6410256410256
1624279430.109375,790.5830280830281,797.9700854700855,799.4810744810745,801.0927960927961,773.2234432234433
1624279430.1171875,794.9984737484738,797.6846764346765,799.6489621489623,801.6636141636142,770.8058608058608
1624279430.125,799.4139194139194,797.3992673992674,799.8168498168499,802.2344322344322,768.3882783882784
1624279430.1328125,799.4810744810744,800.4212454212453,796.7277167277167,802.5030525030525,776.4468864468864
1624279430.140625,801.2830687830688,801.6971916971916,795.8658933658934,802.4582824582824,817.1428571428571
1624279430.1484375,803.0850630850631,802.9731379731379,795.0040700040701,802.4135124135124,857.8388278388279
1624279430.15625,804.8870573870574,804.2490842490843,794.1422466422466,802.3687423687423,898.5347985347986
1624279430.1640625,806.6890516890517,805.5250305250305,793.2804232804233,802.3239723239723,939.2307692307692
1624279430.171875,808.491045991046,806.8009768009767,792.4185999186,802.2792022792023,979.92673992674
1624279430.1796875,810.2930402930403,808.0769230769231,791.5567765567766,802.2344322344322,1020.6227106227108
1624279430.1875,795.7875457875458,804.1147741147741,800.7570207570208,799.6825396825398,787.1916971916971
1624279430.1953125,793.7225274725274,803.9217032967033,800.9752747252747,800.2953296703297,793.82326007326
1624279430.203125,791.6575091575091,803.7286324786326,801.1935286935287,800.9081196581196,800.4548229548229
1624279430.2109375,789.5924908424909,803.5355616605617,801.4117826617827,801.5209096459097,807.0863858363858
1624279430.21875,787.5274725274725,803.3424908424909,801.6300366300367,802.1336996336996,813.7179487179487
1624279430.2265625,787.3260073260072,802.2008547008547,800.5051892551893,800.8241758241758,804.7527472527472
1624279430.234375,787.1245421245421,801.0592185592186,799.3803418803419,799.514652014652,795.7875457875458
1624279430.2421875,786.9230769230769,799.9175824175825,798.2554945054945,798.2051282051282,786.8223443223444
1624279430.2499998,786.7216117216117,798.7759462759464,797.1306471306472,796.8956043956043,777.8571428571429
1624279430.2578125,786.5201465201466,797.6343101343102,796.0057997557998,795.5860805860806,768.8919413919414
1624279430.265625,786.3186813186813,796.4926739926741,794.8809523809524,794.2765567765567,759.92673992674
1624279430.2734375,787.1725100296529,796.7756846328276,794.7034711320426,795.4133961276818,786.9230769230769
1624279430.28125,788.0263387406244,797.058695272981,794.5259898831328,796.5502354788068,813.919413919414
1624279430.2890625,788.880167451596,797.3417059131345,794.348508634223,797.6870748299319,840.9157509157509
1624279430.296875,789.7339961625676,797.6247165532881,794.1710273853132,798.8239141810569,867.9120879120879
1624279430.3046875,790.5878248735391,797.9077271934416,793.9935461364034,799.960753532182,894.9084249084249
1624279430.3125,791.4416535845106,798.190737833595,793.8160648874936,801.097592883307,921.904761904762
1624279430.3203125,792.2954822954822,798.4737484737485,793.6385836385838,802.2344322344321,948.9010989010987
1624279430.328125,793.056573056573,798.8990638990639,794.6011396011397,800.6003256003255,925.1729751729752
1624279430.3359375,793.8176638176637,799.3243793243794,795.5636955636957,798.9662189662189,901.4448514448516
1624279430.34375,794.5787545787546,799.7496947496948,796.5262515262516,797.3321123321123,877.7167277167277
1624279430.3515625,795.3398453398454,800.1750101750101,797.4888074888075,795.6980056980058,853.9886039886039
1624279430.359375,796.1009361009361,800.6003256003256,798.4513634513635,794.0638990638992,830.2604802604802
1624279430.3671875,796.8620268620269,801.025641025641,799.4139194139194,792.4297924297925,806.5323565323565
1624279430.375,798.1245421245421,798.2051282051282,799.7362637362637,796.0293040293041,788.4542124542124
1624279430.3828125,797.3647305075876,798.0209314495029,800.0931449502878,796.6279434850863,787.0612244897959
1624279430.390625,796.6049188906331,797.8367346938776,800.4500261643119,797.2265829408686,785.6682365253794
1624279430.3984373,795.8451072736787,797.6525379382523,800.806907378336,797.8252223966509,784.2752485609628
1624279430.40625,795.0852956567243,797.4683411826269,801.16378859236,798.4238618524333,782.8822605965463
1624279430.4140625,794.3254840397698,797.2841444270016,801.520669806384,799.0225013082156,781.4892726321298
1624279430.421875,793.5656724228153,797.0999476713763,801.8775510204082,799.6211407639979,780.0962846677132
1624279430.4296875,792.8058608058608,796.915750915751,802.2344322344322,800.2197802197802,778.7032967032967
1624279430.4375,792.8461538461538,797.3164428164429,802.3239723239723,800.2869352869353,776.8520553520553
1624279430.4453125,792.8864468864468,797.7171347171347,802.4135124135124,800.3540903540903,775.000814000814
1624279430.4531252,792.92673992674,798.1178266178267,802.5030525030525,800.4212454212454,773.1495726495726
1624279430.4609375,792.967032967033,798.5185185185186,802.5925925925926,800.4884004884005,771.2983312983313
1624279430.46875,793.007326007326,798.9192104192105,802.6821326821326,800.5555555555555,769.44708994709
1624279430.4765625,793.047619047619,799.3199023199023,802.7716727716728,800.6227106227107,767.5958485958487
1624279430.484375,793.0879120879122,799.7205942205943,802.8612128612128,800.6898656898658,765.7446072446073
1624279430.4921875,793.1282051282052,800.1212861212862,802.950752950753,800.7570207570208,763.893365893366
1624279430.5,793.1684981684982,800.521978021978,803.040293040293,800.8241758241759,762.0421245421246
1624279430.5078125,782.893772893773,798.6080586080586,807.8754578754579,793.3699633699634,951.7216117216118
1624279430.515625,789.4581807081807,799.1117216117216,807.002442002442,795.3174603174604,920.7799145299144
1624279430.5234375,796.0225885225885,799.6153846153846,806.1294261294262,797.2649572649573,889.8382173382174
1624279430.53125,802.5869963369964,800.1190476190477,805.2564102564103,799.2124542124543,858.8965201465202
1624279430.5390625,809.1514041514042,800.6227106227107,804.3833943833944,801.1599511599512,827.9548229548229
1624279430.5468748,815.715811965812,801.1263736263736,803.5103785103786,803.1074481074481,797.0131257631258
1624279430.5546875,822.2802197802198,801.6300366300367,802.6373626373627,805.054945054945,766.0714285714286
1624279430.5625,822.2298534798535,801.9993894993895,802.4358974358975,803.6223036223037,768.1140618640618
1624279430.5703125,822.1794871794872,802.3687423687425,802.2344322344322,802.1896621896622,770.1566951566952
1624279430.578125,822.1291208791208,802.7380952380953,802.032967032967,800.7570207570208,772.1993284493284
1624279430.5859375,822.0787545787546,803.1074481074481,801.8315018315019,799.3243793243794,774.2419617419616
1624279430.59375,822.0283882783883,803.4768009768011,801.6300366300367,797.8917378917379,776.284595034595
1624279430.6015627,821.978021978022,803.8461538461539,801.4285714285714,796.4590964590965,778.3272283272282
1624279430.609375,819.5604395604396,800.6227106227107,795.7875457875458,788.5347985347986,864.2857142857143
1624279430.6171875,813.024013024013,800.8913308913309,795.8547008547009,790.1912901912902,857.4135124135124
1624279430.625,806.4875864875866,801.1599511599512,795.9218559218559,791.8477818477819,850.5413105413105
1624279430.6328125,799.95115995116,801.4285714285716,795.9890109890109,793.5042735042736,843.6691086691086
1624279430.640625,793.4147334147334,801.6971916971918,796.056166056166,795.1607651607652,836.7969067969067
1624279430.6484375,786.878306878307,801.965811965812,796.1233211233211,796.8172568172569,829.9247049247048
1624279430.65625,780.3418803418804,802.2344322344323,796.1904761904761,798.4737484737485,823.0525030525029
1624279430.6640625,783.3862433862435,801.965811965812,795.7203907203907,797.8245828245829,809.9796499796498
1624279430.671875,786.4306064306064,801.6971916971918,795.2503052503052,797.1754171754172,796.9067969067968
1624279430.6796875,789.4749694749695,801.4285714285716,794.7802197802198,796.5262515262516,783.8339438339437
1624279430.6875,792.5193325193326,801.1599511599512,794.3101343101343,795.8770858770858,770.7610907610907
1624279430.6953125,795.5636955636955,800.8913308913309,793.8400488400489,795.2279202279202,757.6882376882377
1624279430.703125,798.6080586080586,800.6227106227107,793.3699633699634,794.5787545787546,744.6153846153846
1624279430.7109375,796.996336996337,804.4505494505495,796.5934065934066,791.5567765567766,855.018315018315
1624279430.71875,800.0720390720392,804.470695970696,797.0769230769231,793.7393162393163,846.019536019536
1624279430.7265625,803.1477411477412,804.4908424908425,797.5604395604396,795.9218559218559,837.020757020757
1624279430.734375,806.2234432234433,804.5109890109891,798.0439560439561,798.1043956043957,828.0219780219779
1624279430.7421875,809.2991452991454,804.5311355311356,798.5274725274725,800.2869352869353,819.023199023199
1624279430.7500002,812.3748473748474,804.5512820512821,799.010989010989,802.469474969475,810.02442002442
1624279430.7578125,815.4505494505495,804.5714285714287,799.4945054945055,804.6520146520146,801.025641025641
1624279430.765625,784.9084249084249,800.2197802197802,802.2344322344322,800.2197802197802,918.6813186813188
1624279430.7734375,785.0293040293041,800.5018315018315,801.9859584859585,800.018315018315,901.482905982906
1624279430.78125,785.1501831501831,800.7838827838827,801.7374847374847,799.8168498168498,884.2844932844934
1624279430.7890625,785.2710622710622,801.065934065934,801.489010989011,799.6153846153846,867.0860805860807
1624279430.796875,785.3919413919414,801.3479853479853,801.2405372405373,799.4139194139194,849.8876678876679
1624279430.8046875,785.5128205128206,801.6300366300366,800.9920634920635,799.2124542124542,832.6892551892552
1624279430.8125,785.6336996336996,801.9120879120878,800.7435897435898,799.0109890109891,815.4908424908425
1624279430.8203125,785.7545787545787,802.1941391941392,800.4951159951161,798.8095238095239,798.2924297924299
1624279430.828125,785.8754578754579,802.4761904761905,800.2466422466423,798.6080586080586,781.0940170940171
1624279430.8359375,785.996336996337,802.7582417582418,799.9981684981685,798.4065934065934,763.8956043956043
1624279430.84375,786.1172161172161,803.040293040293,799.7496947496948,798.2051282051282,746.6971916971917
1624279430.8515625,786.2380952380952,803.3223443223443,799.5012210012211,798.0036630036631,729.498778998779
1624279430.859375,786.3589743589744,803.6043956043956,799.2527472527473,797.8021978021978,712.3003663003662
1624279430.8671875,797.8021978021978,806.2637362637363,796.996336996337,789.3406593406594,700.2930402930403
1624279430.875,795.0264550264551,806.0846560846561,798.0484330484331,790.885225885226,718.3129833129833
1624279430.8828125,792.2507122507122,805.9055759055759,799.1005291005291,792.4297924297924,736.3329263329264
1624279430.890625,789.4749694749695,805.7264957264957,800.1526251526252,793.9743589743589,754.3528693528694
1624279430.8984373,786.6992266992268,805.5474155474155,801.2047212047213,795.5189255189255,772.3728123728124
1624279430.90625,783.9234839234839,805.3683353683354,802.2568172568173,797.063492063492,790.3927553927554
1624279430.9140625,781.1477411477412,805.1892551892552,803.3089133089134,798.6080586080585,808.4126984126984
1624279430.921875,784.9643874643875,804.9989824989825,803.5663410663411,799.2124542124541,803.2865282865283
1624279430.9296875,788.7810337810338,804.8087098087098,803.8237688237689,799.8168498168498,798.1603581603582
1624279430.9375,792.59768009768,804.6184371184371,804.0811965811967,800.4212454212454,793.034188034188
1624279430.9453125,796.4143264143264,804.4281644281645,804.3386243386244,801.025641025641,787.9080179080179
1624279430.9531252,800.2309727309728,804.2378917378917,804.5960520960522,801.6300366300366,782.7818477818478
1624279430.9609375,804.047619047619,804.047619047619,804.8534798534799,802.2344322344322,777.6556776556777
1624279430.96875,778.8644688644689,803.8461538461539,801.8315018315019,791.3553113553114,727.2893772893773
1624279430.9765625,779.7449464116131,803.8610771944105,802.0851987518655,790.8479175145842,737.571564238231
1624279430.984375,780.6254239587573,803.8760005426673,802.3388956722291,790.3405236738571,747.8537511870845
1624279430.9921875,781.5059015059015,803.8909238909239,802.5925925925926,789.8331298331299,758.1359381359382
1624279431.0,782.3863790530457,803.9058472391806,802.8462895129562,789.3257359924027,768.4181250847918
1624279431.0078125,783.26685660019,803.9207705874372,803.0999864333198,788.8183421516756,778.7003120336454
1624279431.015625,784.1473341473342,803.935693935694,803.3536833536834,788.3109483109483,788.982498982499
1624279431.0234375,785.0278116944784,803.9506172839506,803.6073802740469,787.8035544702211,799.2646859313527
1624279431.03125,785.9082892416226,803.9655406322073,803.8610771944105,787.296160629494,809.5468728802064
1624279431.0390625,786.7887667887668,803.9804639804639,804.1147741147741,786.7887667887668,819.8290598290599
1624279431.0468748,798.8766788766789,800.6898656898658,802.905982905983,795.7203907203908,826.2087912087912
1624279431.0546875,800.3764753764754,801.0480260480261,803.7342287342289,797.914122914123,816.2362637362637
1624279431.0625,801.8762718762719,801.4061864061865,804.5624745624747,800.1078551078551,806.2637362637363
1624279431.0703125,803.3760683760684,801.7643467643468,805.3907203907204,802.3015873015873,796.2912087912089
1624279431.078125,804.8758648758649,802.1225071225072,806.2189662189662,804.4953194953196,786.3186813186813
1624279431.0859375,806.3756613756614,802.4806674806675,807.047212047212,806.6890516890517,776.3461538461538
1624279431.09375,807.8754578754579,802.8388278388279,807.8754578754579,808.8827838827839,766.3736263736264
1624279431.1015627,807.4725274725274,803.2417582417582,800.6227106227107,802.7380952380953,760.1282051282052
1624279431.109375,802.4526862026862,802.6709401709402,801.0592185592186,802.5702075702076,764.5940170940171
1624279431.1171875,797.4328449328449,802.1001221001221,801.4957264957266,802.40231990232,769.0598290598291
1624279431.125,792.4130036630036,801.5293040293041,801.9322344322345,802.2344322344322,773.5256410256411
1624279431.1328125,787.3931623931624,800.958485958486,802.3687423687423,802.0665445665445,777.991452991453
1624279431.140625,782.3733211233211,800.3876678876679,802.8052503052503,801.8986568986569,782.4572649572649
1624279431.1484375,777.3534798534798,799.8168498168499,803.2417582417582,801.7307692307692,786.9230769230769
1624279431.15625,777.7396214896214,798.943833943834,805.0213675213676,799.7329059829059,791.019536019536
1624279431.1640625,778.1257631257631,798.0708180708181,806.8009768009769,797.7350427350427,795.1159951159951
1624279431.171875,778.5119047619048,797.1978021978023,808.580586080586,795.7371794871794,799.2124542124542
1624279431.1796875,778.8980463980464,796.3247863247864,810.3601953601953,793.7393162393162,803.3089133089132
1624279431.1875,779.284188034188,795.4517704517705,812.1398046398047,791.741452991453,807.4053724053724
1624279431.1953125,779.6703296703297,794.5787545787546,813.919413919414,789.7435897435897,811.5018315018315
1624279431.3515625,817.1428571428571,808.0769230769231,787.1245421245421,822.3809523809523,896.5201465201463
1624279431.359375,856.0256410256411,800.4212454212454,789.9450549450551,867.7106227106227,655.9706959706959
1624279431.3671875,864.2185592185593,799.6153846153846,792.0940170940172,870.934065934066,676.9230769230769
1624279431.375,872.4114774114774,798.8095238095237,794.2429792429792,874.1575091575091,697.8754578754579
1624279431.3828125,880.6043956043957,798.003663003663,796.3919413919414,877.3809523809524,718.8278388278388
1624279431.390625,872.3443223443223,795.1831501831502,794.7802197802198,881.2087912087912,767.985347985348
1624279431.3984373,871.6876950210284,794.6384479717814,795.4293854293854,880.2089268755935,784.2816442816443
1624279431.40625,871.0310676977343,794.0937457604125,796.0785510785511,879.2090625423959,800.5779405779406
1624279431.4140625,870.3744403744404,793.5490435490436,796.7277167277167,878.2091982091982,816.8742368742369
1624279431.421875,869.7178130511464,793.0043413376748,797.3768823768823,877.2093338760005,833.1705331705332
1624279431.4296875,869.0611857278524,792.4596391263058,798.0260480260481,876.2094695428029,849.4668294668296
1624279431.4375,868.4045584045584,791.9149369149369,798.6752136752137,875.2096052096052,865.7631257631259
1624279431.4453125,867.7479310812645,791.370234703568,799.3243793243794,874.2097408764075,882.0594220594222
1624279431.4531252,867.0913037579704,790.8255324921992,799.973544973545,873.2098765432099,898.3557183557185
1624279431.4609375,866.4346764346765,790.2808302808303,800.6227106227107,872.2100122100122,914.6520146520148
1624279431.46875,862.1143671143672,790.997150997151,802.3687423687425,869.3111518111518,861.6330891330892
1624279431.4765625,857.7940577940578,791.7134717134717,804.1147741147741,866.4122914122914,808.6141636141638
1624279431.484375,853.4737484737485,792.4297924297924,805.8608058608058,863.513431013431,755.5952380952382
1624279431.4921875,849.1534391534392,793.1461131461132,807.6068376068376,860.6145706145707,702.5763125763126
1624279431.5,844.8331298331299,793.8624338624338,809.3528693528694,857.7157102157103,649.5573870573871
1624279431.5078125,840.5128205128206,794.5787545787546,811.0989010989011,854.8168498168499,596.5384615384615
1624279431.5234375,817.6577126577128,797.6231176231177,803.5327635327635,835.6328856328857,905.04884004884
1624279431.53125,811.4570614570615,797.1754171754171,804.4281644281643,831.9617419617421,909.2796092796092
1624279431.5390625,805.2564102564104,796.7277167277167,805.3235653235653,828.2905982905984,913.5103785103786
1624279431.5468748,799.0557590557592,796.2800162800163,806.2189662189662,824.6194546194547,917.741147741148
1624279431.5546875,792.8551078551079,795.8323158323158,807.114367114367,820.948310948311,921.971916971917
1624279431.5625,786.6544566544567,795.3846153846154,808.009768009768,817.2771672771673,926.2026862026864
1624279431.5703125,792.0652363509506,796.7277167277167,807.0504099075528,817.0469213326356,897.3068201639632
1624279431.578125,797.4760160474447,798.0708180708181,806.0910518053374,816.816675388104,868.41095412524
1624279431.5859375,802.8867957439386,799.4139194139194,805.1316937031222,816.5864294435723,839.5150880865167
1624279431.59375,808.2975754404326,800.7570207570208,804.172335600907,816.3561834990406,810.6192220477935
1624279431.6015627,813.7083551369266,802.1001221001221,803.2129774986918,816.1259375545089,781.7233560090704
1624279431.609375,819.1191348334206,803.4432234432235,802.2536193964764,815.8956916099773,752.8274899703472
1624279431.6171875,824.5299145299145,804.7863247863248,801.2942612942612,815.6654456654456,723.931623931624
1624279431.625,821.015466015466,804.4953194953196,802.995522995523,813.2926332926332,742.4888074888075
1624279431.6328125,817.5010175010175,804.2043142043142,804.6967846967847,810.919820919821,761.0459910459911
1624279431.640625,813.986568986569,803.9133089133089,806.3980463980463,808.5470085470085,779.6031746031747
1624279431.6484375,810.4721204721205,803.6223036223037,808.099308099308,806.1741961741961,798.1603581603582
1624279431.65625,806.957671957672,803.3312983312983,809.8005698005697,803.8013838013838,816.7175417175417
1624279431.6640625,803.4432234432235,803.040293040293,811.5018315018315,801.4285714285714,835.2747252747253
1624279431.671875,775.0366300366301,797.3992673992675,805.2564102564103,804.047619047619,999.2673992673992
1624279431.6796875,777.8571428571429,799.0781440781442,806.498778998779,805.6593406593406,948.0616605616606
1624279431.6875,780.6776556776557,800.7570207570208,807.7411477411478,807.2710622710623,896.8559218559218
1624279431.6953125,783.4981684981685,802.4358974358975,808.9835164835165,808.8827838827839,845.6501831501831
1624279431.703125,786.3186813186813,804.1147741147741,810.2258852258853,810.4945054945055,794.4444444444445
1624279431.7109375,789.1391941391942,805.7936507936507,811.4682539682541,812.1062271062272,743.2387057387057
1624279431.71875,791.959706959707,807.4725274725274,812.7106227106228,813.7179487179487,692.032967032967
1624279431.7265625,797.6678876678876,802.7716727716728,806.5995115995116,805.3907203907205,803.9133089133089
1624279431.734375,798.9662189662189,803.1522181522182,806.2077737077738,803.8573463573464,816.3593813593814
1624279431.7421875,800.2645502645503,803.5327635327636,805.8160358160359,802.3239723239724,828.8054538054538
1624279431.7500002,801.5628815628816,803.913308913309,805.4242979242979,800.7905982905984,841.2515262515262
1624279431.7578125,802.8612128612128,804.2938542938543,805.03256003256,799.2572242572243,853.6975986975988
1624279431.765625,804.1595441595442,804.6743996743998,804.6408221408221,797.7238502238501,866.1436711436712
1624279431.7734375,805.4578754578755,805.0549450549452,804.2490842490843,796.1904761904761,878.5897435897436
1624279431.78125,778.8644688644688,804.6520146520147,803.2417582417584,807.0695970695972,732.3260073260074
1624279431.7890625,783.1791819291818,804.4001831501832,802.3015873015875,805.7768620268621,726.3324175824176
1624279431.796875,787.493894993895,804.1483516483516,801.3614163614164,804.4841269841271,720.3388278388279
1624279431.8046875,791.8086080586081,803.8965201465202,800.4212454212454,803.1913919413921,714.3452380952381
1624279431.8125,796.1233211233211,803.6446886446887,799.4810744810745,801.898656898657,708.3516483516484
1624279431.8203125,800.4380341880342,803.3928571428571,798.5409035409036,800.6059218559219,702.3580586080586
1624279431.828125,804.7527472527473,803.1410256410256,797.6007326007326,799.3131868131869,696.3644688644689
1624279431.8359375,806.36926565498,802.8196406767836,798.0708180708181,800.2869352869354,704.9843014128729
1624279431.84375,807.9857840572126,802.4982557125414,798.5409035409036,801.2606837606838,713.6041339612768
1624279431.8515625,809.6023024594454,802.1768707482994,799.0109890109891,802.2344322344323,722.2239665096808
1624279431.859375,811.218820861678,801.8554857840572,799.4810744810745,803.2081807081807,730.8437990580849
1624279431.8671875,812.8353392639107,801.5341008198152,799.95115995116,804.1819291819293,739.4636316064889
1624279431.875,814.4518576661433,801.212715855573,800.4212454212455,805.1556776556777,748.0834641548928
1624279431.8828125,816.068376068376,800.891330891331,800.891330891331,806.1294261294262,756.7032967032968
1624279431.890625,816.0124135124134,800.7794057794058,801.3334350834352,806.7058404558405,767.9349816849817
1624279431.8984373,815.9564509564509,800.6674806674807,801.7755392755394,807.2822547822549,779.1666666666666
1624279431.90625,815.9004884004884,800.5555555555557,802.2176434676435,807.8586691086691,790.3983516483515
1624279431.9140625,815.8445258445258,800.4436304436305,802.6597476597477,808.4350834350835,801.6300366300366
1624279431.921875,815.7885632885633,800.3317053317053,803.101851851852,809.0114977614978,812.8617216117215
1624279431.9296875,815.7326007326008,800.2197802197802,803.5439560439561,809.5879120879122,824.0934065934064
1624279431.9375,798.5274725274726,798.2857142857144,802.959706959707,803.3626373626374,823.106227106227
1624279431.9453125,798.2511773940346,798.7346938775512,802.4531658817373,805.2305075876505,845.2645211930926
1624279431.9531252,797.9748822605966,799.1836734693879,801.9466248037677,807.0983778126636,867.4228152799581
1624279431.9609375,797.6985871271586,799.6326530612247,801.440083725798,808.9662480376767,889.5811093668236
1624279431.96875,797.4222919937206,800.0816326530613,800.9335426478284,810.8341182626897,911.7394034536892
1624279431.9765625,797.1459968602826,800.5306122448981,800.4270015698587,812.7019884877028,933.8976975405548
1624279431.984375,796.8697017268446,800.9795918367348,799.9204604918891,814.5698587127158,956.0559916274202
1624279431.9921875,796.5934065934066,801.4285714285716,799.4139194139194,816.4377289377289,978.2142857142858
1624279432.0,801.025641025641,801.4957264957266,799.5482295482295,811.8543956043956,937.9380341880342
1624279432.0078125,805.4578754578755,801.5628815628817,799.6825396825396,807.2710622710623,897.6617826617827
1624279432.015625,809.8901098901099,801.6300366300368,799.8168498168498,802.6877289377289,857.3855311355312
1624279432.0234375,814.3223443223443,801.6971916971918,799.95115995116,798.1043956043956,817.1092796092796
1624279432.03125,818.7545787545788,801.7643467643468,800.0854700854701,793.5210622710623,776.833028083028
1624279432.0390625,823.1868131868132,801.8315018315019,800.2197802197802,788.9377289377289,736.5567765567765
1624279432.0468748,776.2454212454213,800.8241758241759,801.4285714285714,799.2124542124542,819.7619047619048
1624279432.0546875,781.8696581196582,801.9154456654458,801.3446275946276,799.2124542124542,807.9929792429793
1624279432.0625,787.4938949938951,803.0067155067155,801.2606837606838,799.2124542124542,796.2240537240538
1624279432.0703125,793.118131868132,804.0979853479854,801.17673992674,799.2124542124542,784.4551282051283
1624279432.078125,798.7423687423689,805.1892551892553,801.0927960927961,799.2124542124542,772.6862026862028
1624279432.0859375,804.3666056166057,806.280525030525,801.0088522588524,799.2124542124542,760.9172771672772
1624279432.09375,809.9908424908426,807.3717948717949,800.9249084249085,799.2124542124542,749.1483516483518
1624279432.1015627,804.198717948718,805.4410866910868,802.0161782661784,798.9774114774115,700.108363858364
1624279432.109375,798.4065934065935,803.5103785103786,803.1074481074481,798.7423687423687,651.0683760683761
1624279432.1171875,792.614468864469,801.5796703296703,804.198717948718,798.507326007326,602.0283882783883
1624279432.125,786.8223443223444,799.6489621489621,805.2899877899879,798.2722832722833,552.9884004884005
1624279432.1328125,781.0302197802198,797.718253968254,806.3812576312577,798.0372405372406,503.9484126984127
1624279432.140625,775.2380952380953,795.7875457875458,807.4725274725275,797.8021978021978,454.9084249084249
1624279432.1484375,816.9413919413919,799.4139194139194,803.8461538461538,792.7655677655678,715.8058608058609
1624279432.15625,816.4377289377289,800.2645502645503,803.4208384208384,793.6945461945462,740.351037851038
1624279432.1640625,815.9340659340659,801.1151811151811,802.995522995523,794.6235246235246,764.8962148962149
1624279432.171875,815.4304029304028,801.965811965812,802.5702075702075,795.5525030525031,789.4413919413919
1624279432.1796875,814.9267399267399,802.8164428164429,802.1448921448921,796.4814814814815,813.986568986569
1624279432.1875,814.4230769230769,803.6670736670737,801.7195767195767,797.41045991046,838.531746031746
1624279432.1953125,813.9194139194138,804.5177045177046,801.2942612942612,798.3394383394384,863.076923076923
1624279432.203125,809.0410779696493,803.975667189953,801.2558869701726,798.8239141810571,857.6949241234955
1624279432.2109375,804.1627420198848,803.4336298622013,801.2175126460841,799.3083900226758,852.312925170068
1624279432.21875,799.2844060701203,802.8915925344497,801.1791383219954,799.7928658642945,846.9309262166405
1624279432.2265625,794.4060701203558,802.3495552066981,801.1407639979069,800.2773417059132,841.5489272632129
1624279432.234375,789.5277341705913,801.8075178789466,801.1023896738183,800.7618175475319,836.1669283097855
1624279432.2421875,784.6493982208268,801.2654805511949,801.0640153497297,801.2462933891505,830.7849293563579
1624279432.2499998,779.7710622710623,800.7234432234433,801.0256410256411,801.7307692307693,825.4029304029305
1624279432.2578125,782.3733211233211,800.1470288970289,800.4660154660155,802.0385632885634,796.425518925519
1624279432.265625,784.97557997558,799.5706145706146,799.9063899063899,802.3463573463574,767.4481074481075
1624279432.2734375,787.5778388278388,798.9942002442002,799.3467643467643,802.6541514041514,738.4706959706959
1624279432.28125,790.1800976800977,798.4177859177859,798.7871387871388,802.9619454619456,709.4932844932845
1624279432.2890625,792.7823565323565,797.8413715913715,798.2275132275132,803.2697395197397,680.515873015873
1624279432.296875,795.3846153846154,797.2649572649572,797.6678876678876,803.5775335775337,651.5384615384615
1624279432.3046875,795.4010615235105,798.0653360245196,797.5883979965612,802.5962472901249,672.8279883381924
1624279432.3125,795.4175076624056,798.8657147840821,797.5089083252349,801.6149610027162,694.1175151379233
1624279432.3203125,795.4339538013007,799.6660935436446,797.4294186539084,800.6336747153074,715.4070419376542
1624279432.328125,795.4503999401959,800.466472303207,797.349928982582,799.6523884278987,736.6965687373851
1624279432.3359375,795.466846079091,801.2668510627694,797.2704393112556,798.6711021404899,757.986095537116
1624279432.34375,795.4832922179861,802.0672298223319,797.1909496399293,797.6898158530812,779.2756223368468
1624279432.3515625,795.4997383568813,802.8676085818944,797.1114599686028,796.7085295656724,800.5651491365777
1624279432.359375,794.2614284372527,802.4831273732374,797.5881871486267,796.5188718485422,802.8425176776825
1624279432.3671875,793.0231185176241,802.0986461645803,798.0649143286506,796.329214131412,805.1198862187873
1624279432.375,791.7848085979955,801.7141649559233,798.5416415086745,796.1395564142816,807.3972547598921
1624279432.3828125,790.5464986783669,801.3296837472662,799.0183686886984,795.9498986971514,809.6746233009969
1624279432.390625,789.3081887587383,800.9452025386091,799.4950958687223,795.7602409800212,811.9519918421017
1624279432.3984373,788.0698788391097,800.5607213299521,799.9718230487462,795.570583262891,814.2293603832065
1624279432.40625,786.831568919481,800.1762401212951,800.44855022877,795.3809255457606,816.5067289243112
1624279432.4140625,785.5932589998524,799.7917589126381,800.9252774087939,795.1912678286304,818.784097465416
1624279432.421875,784.3549490802238,799.407277703981,801.4020045888178,795.0016101115002,821.0614660065208
1624279432.4296875,783.1166391605952,799.022796495324,801.8787317688417,794.81195239437,823.3388345476257
1624279432.4375,781.8783292409667,798.638315286667,802.3554589488656,794.6222946772397,825.6162030887305
1624279432.4453125,780.6400193213381,798.2538340780098,802.8321861288895,794.4326369601094,827.8935716298353
1624279432.4531252,779.4017094017095,797.8693528693528,803.3089133089134,794.2429792429792,830.1709401709401
1624279432.4609375,781.6418105703821,798.2195185766614,803.5295656724229,794.981684981685,829.7919937205651
1624279432.46875,783.8819117390547,798.56968428397,803.7502180359323,795.7203907203907,829.4130472701901
1624279432.4765625,786.1220129077273,798.9198499912785,803.9708703994419,796.4590964590965,829.0341008198151
1624279432.484375,788.3621140763998,799.2700156985871,804.1915227629514,797.1978021978023,828.65515436944
1624279432.4921875,790.6022152450724,799.6201814058957,804.412175126461,797.9365079365081,828.276207919065
1624279432.5,792.842316413745,799.9703471132043,804.6328274899704,798.6752136752137,827.89726146869
1624279432.5078125,795.0824175824176,800.3205128205128,804.8534798534799,799.4139194139195,827.518315018315
1624279432.515625,796.643772893773,800.1358363858365,804.6520146520147,799.2796092796094,827.3336385836385
1624279432.5234375,798.2051282051283,799.95115995116,804.4505494505495,799.1452991452992,827.1489621489621
1624279432.53125,799.7664835164835,799.7664835164835,804.2490842490843,799.0109890109891,826.9642857142857
1624279432.5390625,801.3278388278388,799.5818070818071,804.047619047619,798.876678876679,826.7796092796092
1624279432.5468748,802.8891941391942,799.3971306471308,803.8461538461538,798.7423687423687,826.5949328449328
1624279432.5546875,804.4505494505495,799.2124542124543,803.6446886446886,798.6080586080586,826.4102564102564
1624279432.5625,805.054945054945,809.4871794871796,808.6813186813187,808.2783882783883,649.92673992674
1624279432.5703125,805.1623931623932,808.6141636141637,807.5531135531136,805.9951159951161,654.5201465201466
1624279432.578125,805.2698412698413,807.7411477411478,806.4249084249084,803.7118437118437,659.1135531135532
1624279432.5859375,805.3772893772893,806.868131868132,805.2967032967033,801.4285714285714,663.7069597069598
1624279432.59375,805.4847374847375,805.9951159951161,804.1684981684982,799.1452991452992,668.3003663003664
1624279432.6015627,805.5921855921856,805.1221001221002,803.040293040293,796.8620268620268,672.893772893773
1624279432.609375,805.6996336996338,804.2490842490843,801.9120879120879,794.5787545787546,677.4871794871796
1624279432.6171875,803.1074481074481,802.9059829059829,800.5555555555555,796.1233211233211,724.93894993895
1624279432.625,800.5152625152625,801.5628815628816,799.1990231990233,797.6678876678877,772.3907203907205
1624279432.6328125,797.9230769230769,800.2197802197802,797.8424908424909,799.2124542124543,819.842490842491
1624279432.640625,795.3308913308914,798.876678876679,796.4859584859585,800.7570207570208,867.2942612942614
1624279432.6484375,792.7387057387058,797.5335775335776,795.1294261294262,802.3015873015873,914.746031746032
1624279432.65625,790.1465201465202,796.1904761904763,793.7728937728938,803.8461538461539,962.1978021978024
1624279432.6640625,819.1575091575091,798.0036630036631,801.2271062271062,801.6300366300367,901.9597069597072
1624279432.671875,813.8656898656899,798.9639804639805,800.7771672771672,799.0177045177045,867.5024420024421
1624279432.6796875,808.5738705738706,799.924297924298,800.3272283272283,796.4053724053724,833.0451770451772
1624279432.6875,803.2820512820513,800.8846153846155,799.8772893772893,793.7930402930403,798.5879120879122
1624279432.6953125,797.990231990232,801.8449328449328,799.4273504273503,791.1807081807082,764.1306471306472
1624279432.703125,792.6984126984128,802.8052503052503,798.9774114774115,788.568376068376,729.6733821733822
1624279432.7109375,787.4065934065935,803.7655677655678,798.5274725274725,785.9560439560439,695.2161172161173
1624279432.71875,779.9312750741324,803.6811442525728,799.5750915750915,777.3448456305599,701.2178615035758
1624279432.7265625,772.4559567416711,803.5967207395779,800.6227106227107,768.7336473050759,707.2196057910344
1624279432.734375,764.98063840921,803.512297226583,801.6703296703297,760.1224489795919,713.221350078493
1624279432.7421875,757.5053200767487,803.427873713588,802.7179487179487,751.5112506541078,719.2230943659515
1624279432.7500002,750.0300017442876,803.3434502005931,803.7655677655678,742.9000523286238,725.2248386534101
1624279432.7578125,742.5546834118263,803.2590266875982,804.8131868131869,734.2888540031398,731.2265829408686
1624279432.765625,735.0793650793652,803.1746031746032,805.860805860806,725.6776556776558,737.2283272283272
1624279432.7734375,672.8490028490029,809.4424094424095,805.7264957264958,672.6251526251527,702.2181522181522
1624279432.78125,610.6186406186407,815.7102157102157,805.5921855921856,619.5726495726497,667.2079772079771
1624279432.7890625,548.3882783882784,821.978021978022,805.4578754578755,566.5201465201466,632.1978021978022
1624279432.796875,562.4908424908425,823.9926739926741,795.989010989011,563.0952380952381,735.5494505494505
1624279432.8046875,580.2332112332113,823.5225885225886,795.8211233211234,580.1996336996336,756.5622710622711
1624279432.8125,597.97557997558,823.0525030525031,795.6532356532357,597.3040293040293,777.5750915750915
1624279432.8203125,615.7179487179487,822.5824175824176,795.485347985348,614.4084249084249,798.587912087912
1624279432.828125,633.4603174603175,822.1123321123322,795.3174603174604,631.5128205128204,819.6007326007325
1624279432.8359375,651.2026862026862,821.6422466422466,795.1495726495727,648.617216117216,840.613553113553
1624279432.84375,668.945054945055,821.1721611721612,794.981684981685,665.7216117216117,861.6263736263735
1624279432.8515625,686.6874236874237,820.7020757020757,794.8137973137973,682.8260073260072,882.6391941391939
1624279432.859375,704.4297924297924,820.2319902319903,794.6459096459097,699.9304029304028,903.6520146520144
1624279432.8671875,722.1721611721612,819.7619047619047,794.4780219780221,717.0347985347985,924.664835164835
1624279432.875,739.9145299145299,819.2918192918193,794.3101343101343,734.139194139194,945.6776556776556
1624279432.8828125,760.8613146113146,816.2306674806674,794.4052706552707,757.7274114774114,912.2176434676433
1624279432.890625,781.8080993080993,813.1695156695156,794.500407000407,781.3156288156288,878.7576312576311
1624279432.8984373,802.7548840048839,810.1083638583639,794.5955433455433,804.9038461538462,845.297619047619
1624279432.90625,823.7016687016687,807.047212047212,794.6906796906798,828.4920634920635,811.8376068376068
1624279432.9140625,844.6484533984534,803.9860602360602,794.7858160358161,852.0802808302808,778.3775946275946
1624279432.921875,865.5952380952381,800.9249084249084,794.8809523809524,875.6684981684982,744.9175824175825
1624279432.9296875,903.1684981684982,796.3919413919414,785.915750915751,878.3882783882784,717.014652014652
1624279432.9375,894.471916971917,796.9179894179895,788.434065934066,876.2393162393163,738.4706959706959
1624279432.9453125,885.7753357753359,797.4440374440375,790.952380952381,874.0903540903541,759.9267399267399
1624279432.9531252,877.0787545787547,797.9700854700855,793.4706959706959,871.941391941392,781.3827838827838
1624279432.9609375,868.3821733821735,798.4961334961336,795.989010989011,869.7924297924299,802.8388278388278
1624279432.96875,859.6855921855923,799.0221815221817,798.507326007326,867.6434676434677,824.2948717948717
1624279432.9765625,850.9890109890111,799.5482295482296,801.025641025641,865.4945054945056,845.7509157509156
1624279432.984375,852.2985347985349,798.2834757834759,802.7380952380952,862.942612942613,826.7124542124541
1624279432.9921875,853.6080586080587,797.0187220187221,804.4505494505494,860.3907203907205,807.6739926739925
1624279433.0,854.9175824175825,795.7539682539684,806.1630036630036,857.8388278388279,788.635531135531
1624279433.0078125,856.2271062271062,794.4892144892146,807.8754578754579,855.2869352869353,769.5970695970695
1624279433.015625,857.5366300366301,793.2244607244609,809.5879120879121,852.7350427350428,750.558608058608
1624279433.0234375,858.8461538461538,791.9597069597071,811.3003663003662,850.1831501831502,731.5201465201465
1624279433.0390625,827.4847374847375,806.0622710622711,796.3024013024013,839.997964997965,716.1864061864062
1624279433.0468748,823.3211233211233,803.0402930402931,798.8319088319089,836.6625966625967,751.0175010175011
1624279433.0546875,819.1575091575091,800.0183150183151,801.3614163614164,833.3272283272283,785.8485958485959
1624279433.0625,814.993894993895,796.996336996337,803.890923890924,829.9918599918599,820.6796906796907
1624279433.0703125,810.8302808302808,793.9743589743591,806.4204314204316,826.6564916564915,855.5107855107856
1624279433.078125,806.6666666666666,790.9523809523811,808.9499389499391,823.3211233211232,890.3418803418804
1624279433.0859375,811.098901098901,792.5641025641027,809.6774521774523,821.8884818884818,850.8770858770858
1624279433.09375,815.5311355311355,794.1758241758242,810.4049654049655,820.4558404558404,811.4122914122914
1624279433.1015627,819.96336996337,795.7875457875459,811.1324786324788,819.0231990231989,771.947496947497
1624279433.109375,824.3956043956044,797.3992673992675,811.8599918599919,817.5905575905575,732.4827024827025
1624279433.1171875,828.8278388278388,799.0109890109891,812.5875050875051,816.1579161579161,693.017908017908
1624279433.125,833.2600732600733,800.6227106227107,813.3150183150183,814.7252747252747,653.5531135531136
1624279433.1328125,837.0879120879121,803.8461538461538,801.6300366300366,813.5164835164835,749.2490842490843
1624279433.140625,833.7133699633699,802.7380952380952,802.4358974358973,814.6077533577534,754.6047008547008
1624279433.1484375,830.3388278388278,801.6300366300366,803.2417582417582,815.6990231990231,759.9603174603175
1624279433.15625,826.9642857142858,800.5219780219779,804.047619047619,816.790293040293,765.315934065934
1624279433.1640625,823.5897435897436,799.4139194139194,804.8534798534798,817.8815628815629,770.6715506715506
1624279433.171875,820.2152014652015,798.3058608058608,805.6593406593407,818.9728327228327,776.0271672771672
1624279433.1796875,816.8406593406594,797.1978021978022,806.4652014652015,820.0641025641025,781.3827838827838
1624279433.1875,813.7683150183151,796.5262515262515,805.8272283272283,817.2939560439561,768.8751526251525
1624279433.1953125,810.6959706959707,795.8547008547008,805.1892551892553,814.5238095238095,756.3675213675214
1624279433.203125,807.6236263736264,795.1831501831502,804.5512820512821,811.753663003663,743.8598901098901
1624279433.2109375,804.5512820512821,794.5115995115996,803.9133089133089,808.9835164835165,731.3522588522588
1624279433.21875,801.4789377289377,793.8400488400489,803.2753357753359,806.21336996337,718.8446275946277
1624279433.2265625,798.4065934065934,793.1684981684982,802.6373626373627,803.4432234432235,706.3369963369964
1624279433.234375,797.6007326007326,794.1758241758241,791.959706959707,797.1978021978023,772.4175824175825
1624279433.2421875,798.0596255596256,795.1383801383802,794.500407000407,797.6343101343102,767.0451770451771
1624279433.2499998,798.5185185185185,796.1009361009361,797.0411070411071,798.0708180708181,761.6727716727718
1624279433.2578125,798.9774114774115,797.063492063492,799.5818070818071,798.507326007326,756.3003663003664
1624279433.265625,799.4363044363045,798.0260480260481,802.1225071225072,798.943833943834,750.927960927961
1624279433.2734375,799.8951973951973,798.9886039886042,804.6632071632073,799.3803418803418,745.5555555555557
1624279433.28125,800.3540903540903,799.9511599511601,807.2039072039073,799.8168498168498,740.1831501831502
1624279433.2890625,801.4733414733414,799.1900691900693,804.3610093610095,800.9584859584859,735.3479853479854
1624279433.296875,802.5925925925926,798.4289784289786,801.5181115181116,802.1001221001221,730.5128205128206
1624279433.3046875,803.7118437118437,797.6678876678877,798.6752136752137,803.2417582417582,725.6776556776557
1624279433.3125,804.8310948310948,796.9067969067969,795.8323158323159,804.3833943833944,720.8424908424909
1624279433.3203125,805.950345950346,796.1457061457062,792.989417989418,805.5250305250306,716.007326007326
1624279433.328125,807.0695970695971,795.3846153846154,790.1465201465202,806.6666666666667,711.1721611721612
1624279433.3359375,806.3980463980464,792.4297924297925,805.860805860806,794.8473748473749,781.1477411477412
1624279433.34375,802.7660765160765,793.5602360602362,804.8870573870574,795.5916768416769,759.8819698819699
1624279433.3515625,799.1341066341066,794.6906796906798,803.9133089133089,796.335978835979,738.6161986161986
1624279433.359375,795.5021367521367,795.8211233211234,802.9395604395604,797.0802808302809,717.3504273504274
1624279433.3671875,791.8701668701669,796.9515669515671,801.965811965812,797.8245828245829,696.0846560846561
1624279433.375,788.238196988197,798.0820105820106,800.9920634920635,798.568884818885,674.8188848188848
1624279433.3828125,784.6062271062272,799.2124542124543,800.018315018315,799.3131868131869,653.5531135531136
1624279433.390625,789.3574481074481,798.9774114774116,799.8504273504274,799.5314407814409,711.4407814407815
1624279433.3984373,794.1086691086691,798.7423687423689,799.6825396825396,799.7496947496949,769.3284493284494
1624279433.40625,798.8598901098901,798.5073260073261,799.514652014652,799.9679487179487,827.2161172161173
1624279433.4140625,803.6111111111112,798.2722832722833,799.3467643467644,800.1862026862027,885.1037851037852
1624279433.421875,808.3623321123322,798.0372405372406,799.1788766788767,800.4044566544567,942.9914529914532
1624279433.4296875,813.1135531135532,797.8021978021978,799.0109890109891,800.6227106227107,1000.879120879121
1624279433.4375,805.6593406593406,808.8827838827839,800.8241758241759,797.3992673992675,689.2124542124543
1624279433.4453125,807.550875050875,807.0136345136345,800.6786731786733,797.6902726902728,682.1052096052097
1624279433.4531252,809.4424094424094,805.1444851444851,800.5331705331706,797.981277981278,674.997964997965
1624279433.4609375,811.3339438339437,803.2753357753357,800.3876678876679,798.2722832722834,667.8907203907204
1624279433.46875,813.2254782254782,801.4061864061864,800.2421652421654,798.5632885632887,660.7834757834759
1624279433.4765625,815.1170126170126,799.537037037037,800.0966625966628,798.8542938542939,653.6762311762312
1624279433.484375,817.008547008547,797.6678876678876,799.9511599511601,799.1452991452992,646.5689865689866
1624279433.4921875,813.986568986569,797.2985347985348,801.2271062271063,799.95115995116,729.6733821733822
1624279433.5,810.964590964591,796.9291819291818,802.5030525030526,800.7570207570209,812.7777777777778
1624279433.5078125,807.9426129426131,796.559829059829,803.7789987789988,801.5628815628817,895.8821733821735
1624279433.515625,804.920634920635,796.1904761904761,805.054945054945,802.3687423687425,978.9865689865692
1624279433.5234375,804.9430199430201,797.6510989010989,804.7191697191697,801.8091168091169,930.623728123728
1624279433.53125,804.9654049654051,799.1117216117216,804.3833943833944,801.2494912494914,882.2608872608873
1624279433.5390625,804.9877899877902,800.5723443223443,804.047619047619,800.6898656898658,833.8980463980465
1624279433.5468748,805.0101750101751,802.032967032967,803.7118437118437,800.1302401302402,785.5352055352056
1624279433.5546875,805.0325600325601,803.4935897435897,803.3760683760684,799.5706145706147,737.1723646723647
1624279433.5625,805.0549450549452,804.9542124542124,803.040293040293,799.0109890109891,688.8095238095239
1624279433.5703125,805.361939647654,804.5656724228153,802.157683586255,799.1452991452992,698.2783882783883
1624279433.578125,805.6689342403629,804.1771323914181,801.275074132217,799.2796092796093,707.7472527472528
1624279433.5859375,805.9759288330717,803.788592360021,800.392464678179,799.4139194139194,717.2161172161173
1624279433.59375,806.2829234257807,803.4000523286238,799.509855224141,799.5482295482295,726.6849816849817
1624279433.6015627,806.5899180184896,803.0115122972267,798.627245770103,799.6825396825396,736.1538461538462
1624279433.609375,806.8969126111984,802.6229722658295,797.744636316065,799.8168498168498,745.6227106227107
1624279433.6171875,807.2039072039073,802.2344322344323,796.8620268620269,799.9511599511599,755.0915750915751
1624279433.625,804.394586894587,802.335164835165,797.9756817256817,798.6360398860398,771.6956654456656
1624279433.6328125,801.5852665852667,802.4358974358976,799.0893365893367,797.3209198209198,788.2997557997559
1624279433.640625,798.7759462759464,802.5366300366302,800.2029914529915,796.0057997557997,804.9038461538462
1624279433.6484375,795.966625966626,802.6373626373627,801.3166463166463,794.6906796906796,821.5079365079366
1624279433.65625,793.1573056573058,802.7380952380953,802.4303011803012,793.3755596255596,838.112026862027
1624279433.6640625,790.3479853479854,802.8388278388279,803.543956043956,792.0604395604396,854.7161172161174
1624279433.671875,812.4420024420024,800.0854700854701,797.3992673992674,802.7716727716728,891.5506715506716
1624279433.6796875,808.733550400217,799.6079229412563,797.3656898656899,801.8501560168227,893.8824447157781
1624279433.6875,805.0250983584317,799.1303757970425,797.3321123321124,800.9286392619726,896.2142178808846
1624279433.6953125,801.3166463166463,798.6528286528287,797.2985347985348,800.0071225071225,898.5459910459911
1624279433.703125,797.6081942748609,798.175281508615,797.2649572649573,799.0856057522724,900.8777642110977
1624279433.7109375,793.8997422330756,797.6977343644011,797.2313797313798,798.1640889974224,903.209537376204
1624279433.71875,790.1912901912902,797.2201872201873,797.1978021978023,797.2425722425722,905.5413105413104
1624279433.7265625,786.4828381495048,796.7426400759736,797.1642246642247,796.3210554877221,907.873083706417
1624279433.734375,782.7743861077195,796.2650929317597,797.1306471306472,795.3995387328721,910.2048568715236
1624279433.7421875,779.0659340659341,795.7875457875459,797.0970695970697,794.478021978022,912.53663003663
1624279433.7500002,784.9420024420025,797.6231176231178,796.9683557183557,795.793142043142,891.8920431420431
1624279433.7578125,790.8180708180709,799.4586894586896,796.8396418396419,797.1082621082621,871.2474562474562
1624279433.765625,796.6941391941392,801.2942612942613,796.710927960928,798.4233821733822,850.6028693528692
1624279433.7734375,802.5702075702076,803.1298331298332,796.582214082214,799.7385022385022,829.9582824582824
1624279433.78125,808.4462759462759,804.965404965405,796.4535002035002,801.0536223036223,809.3136955636955
1624279433.7890625,814.3223443223443,806.8009768009769,796.3247863247863,802.3687423687423,788.6691086691086
1624279433.796875,811.1276818419675,806.8249607535322,795.9602302459444,800.7810047095761,811.7752485609627
