timestamp,RAW_TP9,RAW_AF7,RAW_AF8,RAW_TP10,AUX_RIGHT
1624279232.3203125,802.6687016687018,807.39417989418,798.38196988197,804.5714285714287,881.1617826617825
1624279232.328125,801.6524216524218,807.3158323158324,798.3170533170534,804.2490842490843,876.0378510378508
1624279232.3359375,800.6361416361417,807.2374847374848,798.2521367521368,803.92673992674,870.9139194139193
1624279232.34375,799.6198616198617,807.1591371591372,798.1872201872202,803.6043956043957,865.7899877899877
1624279232.3515625,798.6035816035817,807.0807895807897,798.1223036223037,803.2820512820514,860.666056166056
1624279232.359375,797.5873015873017,807.002442002442,798.0573870573871,802.9597069597071,855.5421245421244
1624279232.3671875,796.5710215710217,806.9240944240944,797.9924704924705,802.6373626373627,850.4181929181927
1624279232.375,795.5547415547417,806.8457468457468,797.927553927554,802.3150183150184,845.2942612942611
1624279232.3828125,794.5384615384617,806.7673992673992,797.8626373626373,801.9926739926741,840.1703296703295
1624279232.390625,793.5221815221815,806.6890516890517,797.7977207977208,801.6703296703297,835.0463980463979
1624279232.3984373,792.5059015059015,806.6107041107041,797.7328042328041,801.3479853479854,829.9224664224663
1624279232.40625,791.4896214896215,806.5323565323565,797.6678876678876,801.0256410256411,824.7985347985347
1624279232.4140625,794.0223268794698,806.2157683586255,798.1187859759287,800.4884004884005,814.1880341880341
1624279232.421875,796.555032269318,805.8991801848945,798.56968428397,799.9511599511601,803.5775335775335
1624279232.4296875,799.0877376591662,805.5825920111635,799.0205825920111,799.4139194139195,792.9670329670329
1624279232.4375,801.6204430490145,805.2660038374323,799.4714809000523,798.876678876679,782.3565323565324
1624279232.4453125,804.1531484388628,804.9494156637013,799.9223792080934,798.3394383394384,771.7460317460318
1624279232.4531252,806.685853828711,804.6328274899703,800.3732775161346,797.802197802198,761.1355311355312
1624279232.4609375,809.2185592185592,804.3162393162393,800.8241758241758,797.2649572649574,750.5250305250306
1624279232.46875,825.2014652014652,808.2783882783883,811.0989010989011,804.2490842490843,1323.223443223443
1624279232.4765625,822.2466422466423,807.8083028083029,808.972323972324,802.3911273911274,1221.9312169312166
1624279232.484375,819.2918192918194,807.3382173382174,806.8457468457469,800.5331705331705,1120.6389906389904
1624279232.4921875,816.3369963369964,806.868131868132,804.7191697191697,798.6752136752136,1019.3467643467642
1624279232.5,813.3821733821734,806.3980463980464,802.5925925925926,796.8172568172569,918.054538054538
1624279232.5078125,810.4273504273505,805.927960927961,800.4660154660155,794.9592999593,816.7623117623117
1624279232.515625,807.4725274725275,805.4578754578755,798.3394383394384,793.1013431013431,715.4700854700855
1624279232.5234375,807.4840397697541,805.9068550497122,798.3432757718473,794.5211930926216,718.0104657247514
1624279232.53125,807.4955520669806,806.355834641549,798.3471132042561,795.9410430839002,720.5508459794173
1624279232.5390625,807.5070643642072,806.8048142333857,798.350950636665,797.3608930751788,723.0912262340833
1624279232.5468748,807.5185766614338,807.2537938252224,798.3547880690738,798.7807430664574,725.6316064887493
1624279232.5546875,807.5300889586604,807.7027734170591,798.3586255014827,800.2005930577359,728.1719867434152
1624279232.5625,807.5416012558869,808.1517530088959,798.3624629338915,801.6204430490145,730.7123669980812
1624279232.5703125,807.5531135531135,808.6007326007326,798.3663003663004,803.040293040293,733.2527472527471
1624279232.578125,806.9084249084249,808.2668759811618,798.4775859061574,802.4646781789638,743.4718297575439
1624279232.5859375,806.2637362637362,807.9330193615908,798.5888714460143,801.8890633176347,753.6909122623407
1624279232.59375,805.6190476190476,807.59916274202,798.7001569858713,801.3134484563055,763.9099947671375
1624279232.6015627,804.9743589743589,807.265306122449,798.8114425257282,800.7378335949765,774.1290772719344
1624279232.609375,804.3296703296703,806.9314495028782,798.9227280655853,800.1622187336473,784.3481597767312
1624279232.6171875,803.6849816849816,806.5975928833072,799.0340136054422,799.5866038723182,794.567242281528
1624279232.625,803.040293040293,806.2637362637364,799.1452991452992,799.010989010989,804.7863247863248
1624279232.6328125,800.8241758241758,806.9352869352871,800.063085063085,800.4212454212454,823.6345136345137
1624279232.640625,798.6080586080586,807.6068376068378,800.980870980871,801.8315018315018,842.4827024827025
1624279232.6484375,796.3919413919414,808.2783882783883,801.898656898657,803.2417582417582,861.3308913308914
1624279232.65625,794.1758241758241,808.949938949939,802.8164428164429,804.6520146520147,880.1790801790803
1624279232.6640625,791.959706959707,809.6214896214897,803.7342287342287,806.0622710622711,899.0272690272691
1624279232.671875,789.7435897435897,810.2930402930403,804.6520146520147,807.4725274725275,917.875457875458
1624279232.6796875,801.5628815628816,806.8009768009769,800.891330891331,799.1452991452992,752.6739926739929
1624279232.6875,801.6412291412291,806.5771265771266,801.0816035816036,800.3317053317054,750.9279609279611
1624279232.6953125,801.7195767195767,806.3532763532763,801.2718762718763,801.5181115181116,749.1819291819294
1624279232.703125,801.7979242979243,806.1294261294261,801.4621489621491,802.7045177045177,747.4358974358976
1624279232.7109375,801.8762718762719,805.9055759055759,801.6524216524217,803.8909238909239,745.6898656898658
1624279232.71875,801.9546194546194,805.6817256817257,801.8426943426944,805.0773300773301,743.9438339438341
1624279232.7265625,802.032967032967,805.4578754578754,802.032967032967,806.2637362637363,742.1978021978023
1624279232.734375,796.8956043956044,803.5439560439561,804.1483516483518,794.981684981685,681.2545787545788
1624279232.7421875,796.8872100122101,803.6530830280831,803.7622100122101,795.4349816849817,697.5228937728938
1624279232.7500002,796.8788156288157,803.7622100122101,803.3760683760685,795.8882783882784,713.7912087912089
1624279232.7578125,796.8704212454213,803.871336996337,802.9899267399269,796.3415750915751,730.0595238095239
1624279232.765625,796.8620268620269,803.980463980464,802.6037851037852,796.7948717948718,746.3278388278388
1624279232.7734375,796.8536324786326,804.089590964591,802.2176434676435,797.2481684981685,762.5961538461539
1624279232.78125,796.8452380952381,804.198717948718,801.8315018315019,797.7014652014652,778.8644688644689
1624279232.7890625,796.8368437118437,804.307844932845,801.4453601953603,798.1547619047619,795.1327838827839
1624279232.796875,796.8284493284493,804.416971916972,801.0592185592186,798.6080586080586,811.401098901099
1624279232.8046875,796.820054945055,804.526098901099,800.6730769230769,799.0613553113553,827.669413919414
1624279232.8125,796.8116605616606,804.635225885226,800.2869352869353,799.514652014652,843.9377289377289
1624279232.8203125,796.8032661782662,804.744352869353,799.9007936507937,799.9679487179487,860.206043956044
1624279232.828125,796.7948717948718,804.8534798534799,799.514652014652,800.4212454212454,876.474358974359
1624279232.8359375,798.1475667189953,804.3757195185767,799.6959706959707,799.7247514390372,851.1214024071168
1624279232.84375,799.5002616431188,803.8979591836735,799.8772893772893,799.0282574568289,825.7684458398744
1624279232.8515625,800.8529565672424,803.4201988487703,800.058608058608,798.3317634746206,800.4154892726322
1624279232.859375,802.2056514913658,802.9424385138672,800.2399267399268,797.6352694924124,775.0625327053899
1624279232.8671875,803.5583464154893,802.4646781789639,800.4212454212454,796.9387755102041,749.7095761381477
1624279232.875,804.9110413396128,801.9869178440607,800.6025641025641,796.2422815279958,724.3566195709053
1624279232.8828125,806.2637362637363,801.5091575091575,800.7838827838827,795.5457875457876,699.0036630036631
1624279232.890625,803.7981859410431,801.8526077097506,800.2044304901448,795.9160997732426,715.0556427699286
1624279232.8984373,801.3326356183499,802.1960579103436,799.6249781964067,796.2864120006977,731.1076225361941
1624279232.90625,798.8670852956567,802.5395081109367,799.0455259026687,796.6567242281528,747.1596023024595
1624279232.9140625,796.4015349729635,802.8829583115297,798.4660736089307,797.0270364556078,763.211582068725
1624279232.921875,793.9359846502704,803.2264085121228,797.8866213151928,797.3973486830629,779.2635618349905
1624279232.9296875,791.4704343275771,803.5698587127158,797.3071690214547,797.767660910518,795.315541601256
1624279232.9375,789.0048840048839,803.9133089133089,796.7277167277167,798.1379731379731,811.3675213675215
1624279232.9453125,791.2257980115122,804.6088435374149,797.5863422291993,798.003663003663,812.1781789638934
1624279232.9531252,793.4467120181405,805.3043781615211,798.444967730682,797.8693528693528,812.9888365602652
1624279232.9609375,795.6676260247688,805.9999127856271,799.3035932321646,797.7350427350427,813.7994941566371
1624279232.96875,797.8885400313972,806.6954474097331,800.1622187336474,797.6007326007325,814.610151753009
1624279232.9765625,800.1094540380254,807.3909820338391,801.02084423513,797.4664224664224,815.4208093493809
1624279232.984375,802.3303680446537,808.0865166579453,801.8794697366127,797.3321123321123,816.2314669457527
1624279232.9921875,804.551282051282,808.7820512820513,802.7380952380953,797.1978021978022,817.0421245421246
1624279233.0,801.783533926391,807.3669980812838,802.2632129774987,796.2672248386534,798.6752136752137
1624279233.0078125,799.0157858015001,805.9519448805163,801.7883307169022,795.3366474795046,780.3083028083029
1624279233.015625,796.2480376766091,804.5368916797488,801.3134484563057,794.4060701203558,761.941391941392
1624279233.0234375,793.4802895517181,803.1218384789813,800.8385661957091,793.475492761207,743.5744810744811
1624279233.03125,790.7125414268271,801.7067852782138,800.3636839351125,792.5449154020582,725.2075702075703
1624279233.0390625,787.9447933019362,800.2917320774463,799.888801674516,791.6143380429094,706.8406593406594
1624279233.0468748,785.1770451770452,798.8766788766789,799.4139194139194,790.6837606837606,688.4737484737485
1624279233.0546875,787.9783708355137,799.9703471132042,800.0662829234258,792.7559741845456,696.5131693703123
1624279233.0625,790.7796964939822,801.0640153497296,800.7186464329321,794.8281876853305,704.552590266876
1624279233.0703125,793.5810221524507,802.157683586255,801.3710099424385,796.9004011861155,712.5920111634398
1624279233.078125,796.3823478109193,803.2513518227804,802.0233734519448,798.9726146869003,720.6314320600035
1624279233.0859375,799.1836734693878,804.3450200593057,802.6757369614512,801.0448281876853,728.6708529565673
1624279233.09375,801.9849991278563,805.4386882958312,803.3281004709576,803.1170416884702,736.710273853131
1624279233.1015627,804.7863247863248,806.5323565323565,803.9804639804639,805.1892551892552,744.7496947496948
1624279233.109375,806.1070411070411,805.4131054131054,804.6296296296296,804.1595441595441,751.7785917785918
1624279233.1171875,807.4277574277575,804.2938542938543,805.2787952787952,803.1298331298332,758.8074888074888
1624279233.125,808.7484737484738,803.1746031746031,805.9279609279608,802.1001221001221,765.8363858363858
1624279233.1328125,810.0691900691901,802.055352055352,806.5771265771266,801.0704110704111,772.8652828652829
1624279233.140625,811.3899063899064,800.936100936101,807.2262922262922,800.0407000407001,779.8941798941798
1624279233.1484375,812.7106227106227,799.8168498168499,807.8754578754579,799.0109890109891,786.9230769230769
1624279233.15625,794.7802197802198,803.8461538461538,804.6520146520147,803.4432234432235,903.3699633699634
1624279233.1640625,793.7393162393163,803.1746031746031,804.4505494505495,802.4358974358975,896.6544566544567
1624279233.171875,792.6984126984128,802.5030525030525,804.2490842490843,801.4285714285714,889.93894993895
1624279233.1796875,791.6575091575091,801.8315018315018,804.047619047619,800.4212454212454,883.2234432234433
1624279233.1875,790.6166056166056,801.1599511599512,803.8461538461539,799.4139194139194,876.5079365079365
1624279233.1953125,789.5757020757021,800.4884004884005,803.6446886446887,798.4065934065934,869.7924297924299
1624279233.203125,788.5347985347986,799.8168498168499,803.4432234432235,797.3992673992674,863.0769230769231
1624279233.2109375,803.5775335775337,800.4884004884005,799.4139194139194,799.4139194139194,689.5482295482296
1624279233.21875,801.6524216524217,796.9067969067969,799.95115995116,799.5482295482295,770.8954008954009
1624279233.2265625,799.7273097273098,793.3251933251934,800.4884004884004,799.6825396825398,852.2425722425724
1624279233.234375,797.8021978021978,789.7435897435897,801.025641025641,799.8168498168499,933.5897435897436
1624279233.2421875,817.948717948718,799.6153846153846,805.2564102564103,803.8461538461538,807.0695970695972
1624279233.2499998,812.0054945054945,799.7413003663004,804.5009157509157,801.705586080586,790.1717032967034
1624279233.2578125,806.0622710622711,799.867216117216,803.7454212454213,799.5650183150183,773.2738095238096
1624279233.265625,800.1190476190477,799.9931318681317,802.9899267399268,797.4244505494506,756.3759157509157
1624279233.2734375,794.1758241758242,800.1190476190475,802.2344322344322,795.2838827838829,739.478021978022
1624279233.28125,791.8253968253969,801.881868131868,804.7191697191697,796.2408424908425,778.5454822954823
1624279233.2890625,789.4749694749695,803.6446886446886,807.2039072039072,797.1978021978023,817.6129426129427
1624279233.296875,787.1245421245421,805.4075091575091,809.6886446886447,798.1547619047619,856.680402930403
1624279233.3046875,784.7741147741149,807.1703296703296,812.1733821733822,799.1117216117216,895.7478632478633
1624279233.3125,782.4236874236875,808.9331501831501,814.6581196581196,800.0686813186813,934.8153235653236
1624279233.3203125,780.0732600732601,810.6959706959707,817.1428571428571,801.025641025641,973.882783882784
1624279233.328125,801.0256410256411,796.3919413919414,805.8608058608058,802.032967032967,935.0000000000002
1624279233.3359375,801.4861329147044,799.7592883307169,803.731030873888,799.8168498168498,908.0900052328626
1624279233.34375,801.9466248037677,803.1266352694925,801.6012558869702,797.6007326007326,881.1800104657249
1624279233.3515625,802.407116692831,806.493982208268,799.4714809000524,795.3846153846154,854.2700156985873
1624279233.359375,802.8676085818944,809.8613291470434,797.3417059131344,793.1684981684982,827.3600209314496
1624279233.3671875,803.3281004709577,813.228676085819,795.2119309262166,790.952380952381,800.450026164312
1624279233.375,803.788592360021,816.5960230245945,793.0821559392988,788.7362637362638,773.5400313971743
1624279233.3828125,804.2490842490843,819.96336996337,790.952380952381,786.5201465201466,746.6300366300367
1624279233.390625,801.4285714285716,810.5616605616606,798.3394383394383,795.2503052503054,846.959706959707
1624279233.3984373,805.7600732600733,810.8302808302808,799.9847374847375,798.3730158730159,829.0628815628816
1624279233.40625,810.0915750915751,811.098901098901,801.6300366300367,801.4957264957266,811.1660561660563
1624279233.4140625,814.4230769230769,811.3675213675214,803.2753357753359,804.6184371184372,793.2692307692308
1624279233.421875,818.7545787545787,811.6361416361416,804.920634920635,807.7411477411478,775.3724053724054
1624279233.4296875,814.6677132391418,810.5808477237048,805.0549450549452,804.8822605965463,768.9638932496076
1624279233.4375,810.5808477237048,809.5255538112681,805.1892551892553,802.023373451945,762.5553811268097
1624279233.4453125,806.4939822082679,808.4702598988313,805.3235653235654,799.1644863073435,756.1468690040119
1624279233.4531252,802.407116692831,807.4149659863946,805.4578754578755,796.305599162742,749.738356881214
1624279233.4609375,798.3202511773941,806.3596720739578,805.5921855921856,793.4467120181406,743.3298447584162
1624279233.46875,794.2333856619571,805.3043781615211,805.7264957264957,790.5878248735393,736.9213326356183
1624279233.4765625,790.1465201465202,804.2490842490843,805.8608058608058,787.7289377289378,730.5128205128206
1624279233.484375,801.1599511599512,801.4285714285716,811.0989010989011,799.2796092796093,847.4969474969475
1624279233.4921875,802.335164835165,801.4285714285716,807.6404151404151,800.6898656898657,837.2893772893773
1624279233.5,803.5103785103786,801.4285714285716,804.1819291819293,802.100122100122,827.081807081807
1624279233.5078125,804.6855921855922,801.4285714285714,800.7234432234434,803.5103785103785,816.8742368742369
1624279233.515625,805.860805860806,801.4285714285714,797.2649572649574,804.9206349206348,806.6666666666666
1624279233.5234375,805.3907203907205,801.4285714285714,799.3691493691495,805.3795278795278,803.7454212454212
1624279233.53125,804.920634920635,801.4285714285714,801.4733414733415,805.8384208384208,800.8241758241758
1624279233.5390625,804.4505494505495,801.4285714285714,803.5775335775336,806.2973137973138,797.9029304029305
1624279233.5468748,803.980463980464,801.4285714285714,805.6817256817258,806.7562067562067,794.981684981685
1624279233.5546875,803.5103785103786,801.4285714285714,807.7859177859178,807.2150997150997,792.0604395604396
1624279233.5625,803.0402930402931,801.4285714285714,809.8901098901099,807.6739926739926,789.1391941391942
1624279233.5703125,781.6849816849817,800.6227106227107,794.981684981685,793.3699633699634,751.4652014652015
1624279233.578125,787.6953601953602,801.3278388278388,796.4590964590965,795.9554334554335,747.9059829059829
1624279233.5859375,793.7057387057387,802.032967032967,797.936507936508,798.5409035409036,744.3467643467643
1624279233.59375,799.7161172161173,802.7380952380952,799.4139194139195,801.1263736263736,740.7875457875458
1624279233.6015627,805.7264957264957,803.4432234432234,800.891330891331,803.7118437118437,737.2283272283272
1624279233.609375,806.2189662189662,802.5030525030525,801.921041921042,803.6446886446886,771.9474969474969
1624279233.6171875,806.7114367114367,801.5628815628816,802.950752950753,803.5775335775336,806.6666666666667
1624279233.625,807.2039072039072,800.6227106227107,803.980463980464,803.5103785103786,841.3858363858365
1624279233.6328125,807.6963776963778,799.6825396825396,805.0101750101751,803.4432234432235,876.1050061050062
1624279233.640625,808.1888481888483,798.7423687423687,806.039886039886,803.3760683760684,910.824175824176
1624279233.6484375,808.6813186813188,797.8021978021978,807.0695970695971,803.3089133089134,945.5433455433456
1624279233.65625,804.2490842490843,807.4725274725275,804.2490842490843,805.8608058608058,789.3406593406594
1624279233.6640625,804.2043142043142,806.6218966218967,804.2266992266992,805.7264957264957,790.1465201465202
1624279233.671875,804.1595441595441,805.7712657712658,804.2043142043142,805.5921855921856,790.952380952381
1624279233.6796875,804.114774114774,804.9206349206349,804.1819291819293,805.4578754578754,791.7582417582419
1624279233.6875,804.0700040700041,804.0700040700042,804.1595441595442,805.3235653235653,792.5641025641027
1624279233.6953125,804.025234025234,803.2193732193733,804.1371591371592,805.1892551892552,793.3699633699634
1624279233.703125,803.9804639804639,802.3687423687425,804.1147741147741,805.054945054945,794.1758241758242
1624279233.7109375,799.8168498168499,794.5787545787546,805.4578754578755,790.952380952381,896.9230769230769
1624279233.71875,799.7273097273098,795.1607651607651,805.4578754578755,792.4074074074074,881.1416361416361
1624279233.7265625,799.6377696377697,795.7427757427757,805.4578754578755,793.8624338624339,865.3601953601955
1624279233.734375,799.5482295482295,796.3247863247864,805.4578754578755,795.3174603174604,849.5787545787547
1624279233.7421875,799.4586894586895,796.9067969067969,805.4578754578755,796.7724867724868,833.7973137973139
1624279233.7500002,799.3691493691495,797.4888074888074,805.4578754578755,798.2275132275133,818.0158730158732
1624279233.7578125,799.2796092796093,798.0708180708181,805.4578754578755,799.6825396825398,802.2344322344325
1624279233.765625,799.3851386708529,798.6464329321473,805.4099075527647,800.6706785278215,788.2565846851563
1624279233.7734375,799.4906680620967,799.2220477934763,805.361939647654,801.6588173731031,774.2787371358802
1624279233.78125,799.5961974533403,799.7976626548055,805.3139717425432,802.6469562183848,760.3008895866041
1624279233.7890625,799.7017268445841,800.3732775161346,805.2660038374324,803.6350950636665,746.3230420373279
1624279233.796875,799.8072562358277,800.9488923774638,805.2180359323216,804.6232339089482,732.3451944880518
1624279233.8046875,799.9127856270715,801.5245072387929,805.170068027211,805.6113727542299,718.3673469387757
1624279233.8125,800.0183150183151,802.1001221001221,805.1221001221002,806.5995115995116,704.3894993894995
1624279233.8203125,808.2783882783883,801.8315018315019,795.3846153846154,801.4285714285714,561.2820512820513
1624279233.828125,806.7114367114367,801.8986568986569,796.5710215710216,801.6524216524217,618.9234839234839
1624279233.8359375,805.1444851444852,801.965811965812,797.7574277574278,801.8762718762719,676.5649165649165
1624279233.84375,803.5775335775336,802.032967032967,798.9438339438339,802.1001221001221,734.2063492063492
1624279233.8515625,802.010582010582,802.100122100122,800.13024013024,802.3239723239724,791.8477818477819
1624279233.859375,800.4436304436305,802.1672771672771,801.3166463166463,802.5478225478225,849.4892144892145
1624279233.8671875,798.8766788766789,802.2344322344321,802.5030525030525,802.7716727716728,907.1306471306472
1624279233.875,820.7692307692308,804.2490842490843,806.2637362637363,811.9047619047619,563.6996336996338
1624279233.8828125,817.2939560439561,803.6111111111111,806.3812576312577,810.2594627594627,601.9948107448108
1624279233.890625,813.8186813186813,802.973137973138,806.498778998779,808.6141636141637,640.2899877899878
1624279233.8984373,810.3434065934066,802.3351648351648,806.6163003663004,806.9688644688645,678.5851648351648
1624279233.90625,806.868131868132,801.6971916971917,806.7338217338217,805.3235653235653,716.8803418803419
1624279233.9140625,803.3928571428572,801.0592185592186,806.8513431013431,803.6782661782662,755.1755189255189
1624279233.921875,799.9175824175825,800.4212454212454,806.9688644688645,802.032967032967,793.4706959706959
1624279233.9296875,799.5415140415141,800.5757020757021,806.5525030525031,801.7979242979243,802.7313797313797
1624279233.9375,799.1654456654458,800.7301587301587,806.1361416361416,801.5628815628816,811.9920634920635
1624279233.9453125,798.7893772893774,800.8846153846154,805.7197802197802,801.3278388278388,821.2527472527472
1624279233.9531252,798.4133089133089,801.039072039072,805.3034188034188,801.0927960927961,830.513431013431
1624279233.9609375,798.0372405372406,801.1935286935287,804.8870573870574,800.8577533577534,839.7741147741148
1624279233.96875,797.6611721611722,801.3479853479853,804.4706959706959,800.6227106227107,849.0347985347986
1624279233.9765625,797.2851037851038,801.502442002442,804.0543345543346,800.3876678876679,858.2954822954823
1624279233.984375,796.9090354090355,801.6568986568986,803.6379731379732,800.1526251526251,867.5561660561661
1624279233.9921875,796.5329670329671,801.8113553113553,803.2216117216118,799.9175824175824,876.8168498168499
1624279234.0,796.1568986568988,801.9658119658119,802.8052503052503,799.6825396825396,886.0775335775337
1624279234.0078125,795.7808302808304,802.1202686202686,802.3888888888889,799.4474969474969,895.3382173382174
1624279234.015625,795.4047619047619,802.2747252747253,801.9725274725275,799.2124542124542,904.5989010989013
1624279234.0234375,795.0286935286936,802.4291819291819,801.5561660561661,798.9774114774115,913.859584859585
1624279234.03125,794.6526251526252,802.5836385836385,801.1398046398047,798.7423687423687,923.1202686202688
1624279234.0390625,794.2765567765568,802.7380952380952,800.7234432234433,798.507326007326,932.3809523809524
1624279234.0468748,795.0680272108845,802.6546310832025,800.9162742019886,798.5792778649922,906.420722135008
1624279234.0546875,795.8594976452121,802.5711669283097,801.1091051805338,798.6512297226583,880.4604918890634
1624279234.0625,796.6509680795397,802.487702773417,801.3019361590791,798.7231815803244,854.5002616431188
1624279234.0703125,797.4424385138672,802.4042386185243,801.4947671376243,798.7951334379907,828.5400313971744
1624279234.078125,798.2339089481948,802.3207744636317,801.6875981161696,798.8670852956568,802.5798011512298
1624279234.0859375,799.0253793825224,802.2373103087389,801.8804290947148,798.9390371533229,776.6195709052853
1624279234.09375,799.81684981685,802.1538461538462,802.0732600732601,799.0109890109891,750.6593406593407
1624279234.1015627,797.3992673992675,803.1746031746032,795.3846153846154,800.7570207570208,849.6459096459097
1624279234.109375,796.884411884412,802.9805996472664,796.2240537240538,800.4063220729887,845.0495183828517
1624279234.1171875,796.3695563695564,802.7865961199295,797.063492063492,800.0556233889567,840.4531271197939
1624279234.125,795.8547008547009,802.5925925925927,797.9029304029305,799.7049247049247,835.8567358567359
1624279234.1328125,795.3398453398454,802.3985890652558,798.7423687423687,799.3542260208927,831.2603445936779
1624279234.140625,794.8249898249899,802.204585537919,799.5818070818071,799.0035273368607,826.6639533306201
1624279234.1484375,794.3101343101343,802.0105820105821,800.4212454212454,798.6528286528287,822.0675620675621
1624279234.15625,793.7952787952788,801.8165784832453,801.2606837606838,798.3021299687966,817.4711708045041
1624279234.1640625,793.2804232804233,801.6225749559084,802.1001221001221,797.9514312847647,812.8747795414463
1624279234.171875,792.7655677655678,801.4285714285716,802.9395604395605,797.6007326007326,808.2783882783883
1624279234.1796875,794.3715332286761,800.9565672422816,803.0690737833596,797.0538984824699,794.4521193092622
1624279234.1875,795.9774986917844,800.4845630559918,803.1985871271586,796.5070643642073,780.625850340136
1624279234.1953125,797.5834641548927,800.0125588697018,803.3281004709577,795.9602302459446,766.7995813710099
1624279234.203125,799.1894296180011,799.540554683412,803.4576138147568,795.4133961276818,752.9733124018838
1624279234.2109375,800.7953950811094,799.068550497122,803.5871271585559,794.8665620094191,739.1470434327578
1624279234.21875,802.4013605442177,798.5965463108322,803.7166405023548,794.3197278911565,725.3207744636316
1624279234.2265625,804.007326007326,798.1245421245422,803.8461538461539,793.7728937728938,711.4945054945055
1624279234.234375,802.6373626373627,791.3553113553114,801.8315018315019,792.967032967033,753.0769230769231
1624279234.2421875,803.0506245890862,792.0371935756551,801.9141542218466,793.4939419554804,748.4380576688269
1624279234.2499998,803.4638865408097,792.719075795999,801.9968066121913,794.0208509439278,743.7991922607307
1624279234.2578125,803.8771484925331,793.4009580163427,802.0794590025359,794.5477599323754,739.1603268526345
1624279234.265625,804.2904104442566,794.0828402366865,802.1621113928807,795.0746689208228,734.5214614445384
1624279234.2734375,804.7036723959801,794.7647224570302,802.2447637832254,795.6015779092702,729.8825960364422
1624279234.28125,805.1169343477036,795.446604677374,802.3274161735701,796.1284868977176,725.243730628346
1624279234.2890625,805.5301962994271,796.1284868977177,802.4100685639147,796.6553958861651,720.6048652202498
1624279234.296875,805.9434582511506,796.8103691180615,802.4927209542594,797.1823048746126,715.9659998121537
1624279234.3046875,806.356720202874,797.4922513384053,802.5753733446041,797.70921386306,711.3271344040575
1624279234.3125,806.7699821545975,798.1741335587491,802.6580257349489,798.2361228515074,706.6882689959614
1624279234.3203125,807.183244106321,798.8560157790928,802.7406781252935,798.7630318399549,702.0494035878652
1624279234.328125,807.5965060580445,799.5378979994366,802.8233305156382,799.2899408284023,697.410538179769
1624279234.3359375,808.009768009768,800.2197802197803,802.9059829059829,799.8168498168498,692.7716727716728
1624279234.34375,806.156836360918,800.1786648725425,803.023846901398,799.5619346639754,717.446363160649
1624279234.3515625,804.303904712068,800.1375495253046,803.1417108968129,799.3070195111011,742.121053549625
1624279234.359375,802.4509730632179,800.0964341780668,803.259574892228,799.0521043582268,766.7957439386012
1624279234.3671875,800.598041414368,800.055318830829,803.3774388876429,798.7971892053524,791.4704343275772
1624279234.375,798.745109765518,800.0142034835912,803.495302883058,798.5422740524781,816.1451247165534
1624279234.3828125,796.892178116668,799.9730881363533,803.613166878473,798.2873588996038,840.8198151055294
1624279234.390625,795.039246467818,799.9319727891155,803.731030873888,798.0324437467294,865.4945054945056
1624279234.3984373,795.2612693429021,800.4767511400164,802.6969798908575,797.6973536667414,851.5358451072738
1624279234.40625,795.4832922179861,801.0215294909171,801.6629289078269,797.3622635867533,837.5771847200419
1624279234.4140625,795.7053150930702,801.566307841818,800.6288779247964,797.0271735067653,823.6185243328101
1624279234.421875,795.9273379681543,802.1110861927189,799.5948269417657,796.6920834267773,809.6598639455782
1624279234.4296875,796.1493608432385,802.6558645436197,798.5607759587352,796.3569933467893,795.7012035583464
1624279234.4375,796.3713837183225,803.2006428945205,797.5267249757046,796.0219032668012,781.7425431711146
1624279234.4453125,796.5934065934066,803.7454212454213,796.4926739926741,795.6868131868132,767.7838827838827
1624279234.4531252,797.324650657984,803.0701397368065,796.7724867724869,796.0263193596527,784.9233482566816
1624279234.4609375,798.0558947225614,802.3948582281917,797.0522995522996,796.3658255324922,802.0628137294804
1624279234.46875,798.7871387871388,801.7195767195767,797.3321123321124,796.7053317053317,819.2022792022792
1624279234.4765625,799.5183828517162,801.0442952109619,797.6119251119252,797.0448378781712,836.341744675078
1624279234.484375,800.2496269162937,800.369013702347,797.8917378917379,797.3843440510108,853.4812101478768
1624279234.4921875,800.980870980871,799.6937321937322,798.1715506715507,797.7238502238503,870.6206756206756
1624279234.5,801.7121150454484,799.0184506851173,798.4513634513635,798.0633563966898,887.7601410934744
1624279234.5078125,802.4433591100259,798.3431691765024,798.7311762311762,798.4028625695292,904.8996065662732
1624279234.515625,803.1746031746032,797.6678876678876,799.010989010989,798.7423687423687,922.039072039072
1624279234.5234375,788.1318681318681,806.2637362637363,799.0109890109891,790.1465201465202,718.4249084249085
1624279234.53125,790.0961538461538,805.5418192918194,799.1452991452992,791.741452991453,714.1773504273505
1624279234.5390625,792.0604395604396,804.8199023199023,799.2796092796093,793.3363858363858,709.9297924297924
1624279234.5468748,794.0247252747254,804.0979853479854,799.4139194139194,794.9313186813187,705.6822344322345
1624279234.5546875,795.989010989011,803.3760683760685,799.5482295482295,796.5262515262515,701.4346764346765
1624279234.5625,797.9532967032967,802.6541514041514,799.6825396825396,798.1211843711843,697.1871184371184
1624279234.5703125,799.9175824175825,801.9322344322345,799.8168498168498,799.7161172161171,692.9395604395604
1624279234.578125,800.4212454212454,803.8461538461538,803.2417582417582,796.996336996337,805.4578754578754
1624279234.5859375,802.5366300366301,803.040293040293,803.1410256410256,799.2124542124543,800.2869352869352
1624279234.59375,804.6520146520147,802.2344322344322,803.040293040293,801.4285714285714,795.1159951159951
1624279234.6015627,806.7673992673992,801.4285714285714,802.9395604395604,803.6446886446887,789.945054945055
1624279234.609375,808.8827838827839,800.6227106227107,802.8388278388279,805.860805860806,784.7741147741148
1624279234.6171875,810.9981684981685,799.8168498168499,802.7380952380953,808.0769230769231,779.6031746031747
1624279234.625,813.1135531135532,799.0109890109891,802.6373626373627,810.2930402930403,774.4322344322345
1624279234.6328125,803.6446886446887,801.0256410256411,799.8168498168498,798.003663003663,852.1978021978023
1624279234.640625,802.3351648351648,802.6597476597477,800.4436304436304,798.2163207163206,828.894993894994
1624279234.6484375,801.0256410256411,804.2938542938543,801.0704110704111,798.4289784289784,805.5921855921856
1624279234.65625,799.7161172161173,805.9279609279611,801.6971916971918,798.6416361416361,782.2893772893773
1624279234.6640625,798.4065934065934,807.5620675620677,802.3239723239724,798.8542938542938,758.986568986569
1624279234.671875,797.0970695970697,809.1961741961743,802.950752950753,799.0669515669516,735.6837606837606
1624279234.6796875,795.7875457875458,810.8302808302809,803.5775335775337,799.2796092796093,712.3809523809523
1624279234.6875,793.7728937728938,802.6373626373627,805.4578754578755,798.2051282051282,679.3406593406594
1624279234.6953125,794.8249898249899,802.2456247456248,804.8087098087099,798.6192511192511,707.4786324786326
1624279234.703125,795.8770858770858,801.8538868538869,804.1595441595442,799.033374033374,735.6166056166056
1624279234.7109375,796.9291819291819,801.462148962149,803.5103785103786,799.4474969474969,763.7545787545788
1624279234.71875,797.981277981278,801.0704110704111,802.861212861213,799.8616198616198,791.8925518925519
1624279234.7265625,799.033374033374,800.6786731786732,802.2120472120472,800.2757427757429,820.030525030525
1624279234.734375,800.0854700854701,800.2869352869353,801.5628815628816,800.6898656898658,848.1684981684982
1624279234.7421875,801.1375661375662,799.8951973951973,800.9137159137159,801.1039886039887,876.3064713064713
1624279234.7500002,802.1896621896622,799.5034595034595,800.2645502645503,801.5181115181116,904.4444444444443
1624279234.7578125,803.2417582417582,799.1117216117216,799.6153846153846,801.9322344322345,932.5824175824176
1624279234.765625,803.4432234432235,799.5434327577184,798.6800104657248,800.7953950811094,911.2990580847724
1624279234.7734375,803.6446886446887,799.9751439037153,797.7446363160649,799.6585557299844,890.0156985871271
1624279234.78125,803.8461538461539,800.4068550497121,796.809262166405,798.5217163788593,868.7323390894819
1624279234.7890625,804.047619047619,800.8385661957091,795.8738880167451,797.3848770277342,847.4489795918366
1624279234.796875,804.2490842490843,801.2702773417059,794.9385138670852,796.2480376766091,826.1656200941915
1624279234.8046875,804.4505494505495,801.7019884877028,794.0031397174254,795.1111983254841,804.8822605965462
1624279234.8125,804.6520146520147,802.1336996336996,793.0677655677655,793.974358974359,783.598901098901
1624279234.8203125,803.6350950636665,801.4765393336821,793.6002093144949,793.7057387057388,797.130647130647
1624279234.828125,802.6181754753184,800.8193790336647,794.1326530612245,793.4371184371184,810.6623931623931
1624279234.8359375,801.6012558869702,800.1622187336473,794.6650968079539,793.1684981684982,824.1941391941391
1624279234.84375,800.5843362986221,799.5050584336299,795.1975405546833,792.8998778998779,837.7258852258851
1624279234.8515625,799.567416710274,798.8478981336124,795.7299843014127,792.6312576312577,851.2576312576311
1624279234.859375,798.5504971219258,798.190737833595,796.2624280481423,792.3626373626373,864.7893772893772
1624279234.8671875,797.5335775335776,797.5335775335775,796.7948717948717,792.0940170940171,878.3211233211232
1624279234.875,791.3553113553113,798.7423687423689,796.996336996337,796.3247863247865,819.96336996337
1624279234.8828125,792.4633699633699,798.2498982498984,796.9627594627595,794.7914122914124,801.6971916971918
1624279234.890625,793.5714285714286,797.7574277574279,796.9291819291819,793.2580382580384,783.4310134310135
1624279234.8984373,794.6794871794871,797.2649572649573,796.8956043956044,791.7246642246644,765.1648351648353
1624279234.90625,795.7875457875457,796.7724867724868,796.8620268620269,790.1912901912902,746.8986568986569
1624279234.9140625,796.8956043956043,796.2800162800163,796.8284493284493,788.6579161579161,728.6324786324786
1624279234.921875,798.003663003663,795.7875457875458,796.7948717948718,787.1245421245421,710.3663003663004
1624279234.9296875,782.8937728937728,797.1978021978023,791.1538461538462,799.0109890109891,972.069597069597
1624279234.9375,785.5799755799756,797.432844932845,793.448310948311,800.1078551078551,939.1524216524216
1624279234.9453125,788.2661782661783,797.6678876678877,795.7427757427757,801.2047212047213,906.235246235246
1624279234.9531252,790.952380952381,797.9029304029305,798.0372405372405,802.3015873015873,873.3180708180707
1624279234.9609375,793.6385836385836,798.1379731379731,800.3317053317053,803.3984533984534,840.4008954008954
1624279234.96875,796.3247863247863,798.3730158730158,802.6261701261701,804.4953194953196,807.48371998372
1624279234.9765625,799.010989010989,798.6080586080585,804.9206349206348,805.5921855921856,774.5665445665445
1624279234.984375,799.1117216117216,800.4212454212454,802.6373626373627,798.9102564102565,738.1684981684981
1624279234.9921875,800.3708791208791,799.8504273504274,802.3687423687425,798.5241147741149,755.4945054945055
1624279235.0,801.6300366300367,799.2796092796093,802.1001221001221,798.1379731379732,772.8205128205128
1624279235.0078125,802.8891941391942,798.7087912087912,801.8315018315018,797.7518315018315,790.1465201465201
1624279235.015625,804.1483516483516,798.1379731379732,801.5628815628816,797.3656898656899,807.4725274725274
1624279235.0234375,805.4075091575093,797.5671550671551,801.2942612942613,796.9795482295483,824.7985347985348
1624279235.03125,806.6666666666667,796.996336996337,801.025641025641,796.5934065934066,842.1245421245421
1624279235.0390625,760.5311355311355,814.1208791208792,803.6446886446887,768.992673992674,893.2967032967033
1624279235.0468748,734.9114774114774,812.6098901098902,804.1819291819293,740.6868131868132,863.8492063492064
1624279235.0546875,709.2918192918193,811.0989010989011,804.7191697191698,712.3809523809524,834.4017094017094
1624279235.0625,683.6721611721612,809.5879120879122,805.2564102564104,684.0750915750916,804.9542124542124
1624279235.0703125,658.0525030525031,808.0769230769232,805.7936507936508,655.7692307692307,775.5067155067155
1624279235.078125,632.4328449328449,806.5659340659341,806.3308913308914,627.4633699633699,746.0592185592185
1624279235.0859375,606.8131868131868,805.0549450549452,806.868131868132,599.1575091575091,716.6117216117216
1624279235.09375,602.985347985348,822.985347985348,801.0256410256411,614.065934065934,818.3516483516484
1624279235.1015627,629.2317867317868,819.9074074074074,798.899063899064,640.4802604802604,840.2665852665853
1624279235.109375,655.4782254782255,816.8294668294668,796.7724867724869,666.8945868945868,862.1815221815222
1624279235.1171875,681.7246642246643,813.7515262515262,794.6459096459098,693.3089133089134,884.0964590964591
1624279235.125,707.971102971103,810.6735856735858,792.5193325193326,719.7232397232398,906.011396011396
1624279235.1328125,734.2175417175417,807.5956450956452,790.3927553927555,746.1375661375662,927.926332926333
1624279235.140625,760.4639804639805,804.5177045177046,788.2661782661784,772.5518925518926,949.84126984127
1624279235.1484375,850.1831501831502,801.4285714285714,796.996336996337,854.2124542124542,621.7216117216118
1624279235.15625,851.8620268620269,801.1868131868132,796.6874236874237,854.3333333333333,651.927960927961
1624279235.1640625,853.5409035409036,800.945054945055,796.3785103785104,854.4542124542124,682.1343101343101
1624279235.171875,855.2197802197803,800.7032967032967,796.0695970695971,854.5750915750916,712.3406593406594
1624279235.1796875,856.898656898657,800.4615384615385,795.7606837606837,854.6959706959707,742.5470085470085
1624279235.1875,858.5775335775337,800.2197802197802,795.4517704517705,854.8168498168498,772.7533577533577
1624279235.1953125,860.2564102564104,799.978021978022,795.1428571428571,854.9377289377289,802.9597069597069
1624279235.203125,859.9686028257458,799.7631257631258,796.2902494331065,855.2178615035758,807.5569509855223
1624279235.2109375,859.6807953950812,799.5482295482295,797.437641723356,855.4979940694226,812.1541950113377
1624279235.21875,859.3929879644166,799.3333333333334,798.5850340136054,855.7781266352695,816.7514390371532
1624279235.2265625,859.105180533752,799.1184371184371,799.7324263038549,856.0582592011164,821.3486830629687
1624279235.234375,858.8173731030874,798.9035409035409,800.8798185941043,856.3383917669632,825.9459270887842
1624279235.2421875,858.5295656724228,798.6886446886447,802.0272108843538,856.61852433281,830.5431711145995
1624279235.2499998,858.2417582417582,798.4737484737485,803.1746031746032,856.8986568986569,835.140415140415
1624279235.2578125,856.8890633176347,799.2412349555207,803.1266352694925,854.6297749869178,828.8278388278387
1624279235.265625,855.5363683935112,800.0087214372929,803.0786673643817,852.3608930751788,822.5152625152624
1624279235.2734375,854.1836734693877,800.7762079190651,803.0306994592709,850.0920111634397,816.2026862026861
1624279235.28125,852.8309785452643,801.5436944008372,802.9827315541602,847.8231292517007,809.8901098901099
1624279235.2890625,851.4782836211408,802.3111808826094,802.9347636490494,845.5542473399616,803.5775335775336
1624279235.296875,850.1255886970173,803.0786673643817,802.8867957439386,843.2853654282226,797.2649572649573
1624279235.3046875,848.7728937728938,803.8461538461538,802.8388278388278,841.0164835164835,790.952380952381
1624279235.3203125,843.1318681318681,805.2564102564103,801.3278388278388,834.6703296703297,801.9322344322345
1624279235.328125,840.3113553113553,805.9615384615386,800.5723443223443,831.4972527472528,807.4221611721612
1624279235.3359375,837.4908424908425,806.6666666666667,799.8168498168498,828.3241758241759,812.9120879120879
1624279235.34375,833.2216989359847,806.2061747776035,799.7592883307168,826.6500959358102,817.6417233560092
1624279235.3515625,828.9525553811268,805.74568288854,799.701726844584,824.9760160474447,822.3713587999302
1624279235.359375,824.683411826269,805.2851909994768,799.644165358451,823.301936159079,827.1009942438515
1624279235.3671875,820.4142682714111,804.8246991104135,799.5866038723182,821.6278562707134,831.8306296877726
1624279235.375,816.1451247165533,804.3642072213502,799.5290423861852,819.9537763823478,836.5602651316938
1624279235.3828125,811.8759811616953,803.9037153322868,799.4714809000524,818.2796964939822,841.2899005756149
1624279235.390625,807.6068376068375,803.4432234432235,799.4139194139194,816.6056166056165,846.0195360195361
1624279235.3984373,807.7795220652363,802.5030525030526,800.1238444095587,815.5886970172684,812.8641200069771
1624279235.40625,807.952206523635,801.5628815628816,800.8337694051979,814.5717774289203,779.7087039944183
1624279235.4140625,808.1248909820338,800.6227106227107,801.5436944008372,813.5548578405721,746.5532879818594
1624279235.421875,808.2975754404325,799.6825396825398,802.2536193964766,812.537938252224,713.3978719693006
1624279235.4296875,808.4702598988313,798.7423687423689,802.9635443921159,811.5210186638758,680.2424559567417
1624279235.4375,808.64294435723,797.8021978021978,803.6734693877551,810.5040990755277,647.0870399441828
1624279235.4453125,808.8156288156288,796.8620268620269,804.3833943833944,809.4871794871796,613.9316239316239
1624279235.4531252,807.0136345136345,797.6231176231177,803.7901912901913,809.957264957265,676.0388685388685
1624279235.4609375,805.2116402116402,798.3842083842085,803.1969881969882,810.4273504273505,738.1461131461131
1624279235.46875,803.4096459096459,799.1452991452992,802.6037851037852,810.897435897436,800.2533577533577
1624279235.4765625,801.6076516076516,799.9063899063899,802.0105820105821,811.3675213675215,862.3606023606023
1624279235.484375,799.8056573056574,800.6674806674807,801.417378917379,811.8376068376069,924.467846967847
1624279235.4921875,798.0036630036631,801.4285714285714,800.8241758241759,812.3076923076924,986.5750915750916
1624279235.5,796.1904761904763,797.8021978021978,800.2197802197802,794.1758241758242,867.9120879120879
1624279235.5078125,796.2576312576314,798.4233821733822,800.8409645909646,793.8400488400489,837.960927960928
1624279235.515625,796.3247863247864,799.0445665445666,801.462148962149,793.5042735042736,808.009768009768
1624279235.5234375,796.3919413919414,799.665750915751,802.0833333333333,793.1684981684982,778.0586080586081
1624279235.53125,796.4590964590965,800.2869352869353,802.7045177045177,792.8327228327229,748.1074481074481
1624279235.5390625,796.5262515262516,800.9081196581196,803.3257020757021,792.4969474969475,718.1562881562882
1624279235.5468748,796.5934065934066,801.5293040293041,803.9468864468864,792.1611721611722,688.2051282051282
1624279235.5546875,805.3235653235653,797.6678876678876,801.5628815628816,801.8315018315019,857.5702075702075
1624279235.5625,804.6445529778863,798.5670194003527,801.3464930131597,801.394993894994,852.6753493420159
1624279235.5703125,803.9655406322073,799.4661511328178,801.1301044634378,800.958485958486,847.7804911138244
1624279235.578125,803.2865282865283,800.3652828652829,800.9137159137159,800.521978021978,842.8856328856328
1624279235.5859375,802.6075159408493,801.264414597748,800.6973273639941,800.0854700854701,837.9907746574413
1624279235.59375,801.9285035951702,802.163546330213,800.4809388142721,799.6489621489621,833.0959164292497
1624279235.6015627,801.2494912494913,803.0626780626781,800.2645502645503,799.2124542124542,828.2010582010581
1624279235.609375,800.5704789038123,803.9618097951432,800.0481617148284,798.7759462759462,823.3061999728666
1624279235.6171875,799.8914665581333,804.8609415276082,799.8317731651065,798.3394383394383,818.411341744675
1624279235.625,799.2124542124543,805.7600732600733,799.6153846153846,797.9029304029303,813.5164835164835
1624279235.6328125,798.6245047469538,805.3304178814384,799.6935037751365,798.2914704343275,814.0920983778126
1624279235.640625,798.0365552814533,804.9007625028034,799.7716229348882,798.6800104657248,814.6677132391418
1624279235.6484375,797.4486058159528,804.4711071241685,799.8497420946401,799.0685504971219,815.2433281004709
1624279235.65625,796.8606563504524,804.0414517455334,799.9278612543918,799.4570905285191,815.8189429618001
1624279235.6640625,796.2727068849518,803.6117963668985,800.0059804141437,799.8456305599162,816.3945578231292
1624279235.671875,795.6847574194513,803.1821409882635,800.0840995738954,800.2341705913135,816.9701726844584
1624279235.6796875,795.0968079539508,802.7524856096286,800.1622187336473,800.6227106227107,817.5457875457874
1624279235.6875,797.1909496399293,802.3331090678031,800.5158107198923,801.6971916971918,817.3347287633001
1624279235.6953125,799.2850913259076,801.9137325259775,800.8694027061374,802.7716727716728,817.1236699808128
1624279235.703125,801.3792330118861,801.494355984152,801.2229946923825,803.8461538461539,816.9126111983254
1624279235.7109375,803.4733746978644,801.0749794423265,801.5765866786276,804.9206349206349,816.7015524158381
1624279235.71875,805.5675163838429,800.655602900501,801.9301786648726,805.9951159951161,816.4904936333508
1624279235.7265625,807.6616580698212,800.2362263586754,802.2837706511177,807.0695970695971,816.2794348508635
1624279235.734375,809.7557997557997,799.8168498168499,802.6373626373628,808.1440781440782,816.0683760683761
1624279235.7421875,798.4737484737484,807.8754578754579,798.7423687423687,796.7277167277167,794.1758241758242
1624279235.7500002,798.8990638990638,807.0695970695971,799.5929995929996,799.055759055759,773.4249084249085
1624279235.7578125,799.3243793243793,806.2637362637363,800.4436304436305,801.3838013838014,752.6739926739928
1624279235.765625,799.7496947496948,805.4578754578754,801.2942612942613,803.7118437118437,731.9230769230769
1624279235.7734375,800.1750101750101,804.6520146520146,802.1448921448922,806.039886039886,711.1721611721612
1624279235.78125,800.6003256003255,803.8461538461538,802.9955229955231,808.3679283679284,690.4212454212454
1624279235.7890625,801.025641025641,803.040293040293,803.8461538461539,810.6959706959707,669.6703296703297
1624279235.796875,800.891330891331,807.7411477411478,803.040293040293,810.02442002442,909.95115995116
1624279235.8046875,802.8083028083029,807.7533577533578,803.040293040293,809.7191697191697,891.4774114774116
1624279235.8125,804.7252747252749,807.7655677655678,803.040293040293,809.4139194139194,873.0036630036632
1624279235.8203125,806.6422466422467,807.7777777777778,803.040293040293,809.1086691086691,854.5299145299147
1624279235.828125,808.5592185592186,807.7899877899878,803.040293040293,808.8034188034188,836.0561660561661
1624279235.8359375,810.4761904761905,807.8021978021978,803.040293040293,808.4981684981685,817.5824175824176
1624279235.84375,812.3931623931625,807.8144078144078,803.040293040293,808.1929181929182,799.1086691086692
1624279235.8515625,814.3101343101343,807.8266178266178,803.040293040293,807.8876678876679,780.6349206349207
1624279235.859375,816.2271062271062,807.8388278388278,803.040293040293,807.5824175824176,762.1611721611722
1624279235.8671875,818.1440781440781,807.8510378510379,803.040293040293,807.2771672771673,743.6874236874237
1624279235.875,820.0610500610501,807.8632478632478,803.040293040293,806.971916971917,725.2136752136753
1624279235.8828125,821.978021978022,807.8754578754579,803.040293040293,806.6666666666667,706.7399267399268
1624279235.890625,805.941391941392,804.8131868131868,804.2490842490843,802.7985347985348,783.8608058608058
1624279235.8984373,803.1074481074481,804.7863247863248,802.2344322344322,802.8388278388278,785.9157509157509
1624279235.90625,800.2735042735043,804.7594627594627,800.2197802197802,802.8791208791208,787.9706959706959
1624279235.9140625,797.4395604395604,804.7326007326008,798.2051282051282,802.919413919414,790.0256410256411
1624279235.921875,794.6056166056167,804.7057387057388,796.1904761904763,802.959706959707,792.0805860805862
1624279235.9296875,791.7716727716728,804.6788766788767,794.1758241758242,803.0,794.1355311355312
1624279235.9375,788.9377289377289,804.6520146520147,792.1611721611722,803.040293040293,796.1904761904763
1624279235.9453125,804.920634920635,802.9059829059829,794.7130647130647,801.025641025641,860.6593406593406
1624279235.9531252,804.6967846967848,803.2641432641433,795.7203907203907,802.1672771672771,858.8909238909239
1624279235.9609375,804.4729344729346,803.6223036223037,796.7277167277167,803.3089133089132,857.1225071225072
1624279235.96875,804.2490842490844,803.980463980464,797.7350427350427,804.4505494505495,855.3540903540904
1624279235.9765625,804.0252340252341,804.3386243386243,798.7423687423687,805.5921855921856,853.5856735856737
1624279235.984375,803.801383801384,804.6967846967847,799.7496947496948,806.7338217338217,851.817256817257
1624279235.9921875,803.5775335775337,805.054945054945,800.7570207570208,807.8754578754579,850.0488400488402
1624279236.0,804.2490842490843,808.6813186813187,804.2490842490843,800.6227106227107,686.1904761904763
1624279236.0078125,801.2774725274726,807.5564713064713,803.3928571428571,799.732905982906,709.0064102564104
1624279236.015625,798.3058608058608,806.4316239316239,802.5366300366301,798.8431013431014,731.8223443223444
1624279236.0234375,795.3342490842491,805.3067765567766,801.6804029304029,797.9532967032967,754.6382783882784
1624279236.03125,792.3626373626374,804.1819291819293,800.8241758241758,797.0634920634922,777.4542124542126
1624279236.0390625,789.3910256410256,803.0570818070819,799.9679487179487,796.1736874236875,800.2701465201467
1624279236.0468748,786.419413919414,801.9322344322345,799.1117216117216,795.2838827838829,823.0860805860807
1624279236.0546875,788.314146171289,801.7451596023026,799.1740798883656,794.9912785627072,816.4425257282401
1624279236.0625,790.2088784231642,801.5580847723705,799.2364381650095,794.6986743415316,809.7989708703996
1624279236.0703125,792.1036106750392,801.3710099424386,799.2987964416535,794.4060701203559,803.1554160125589
1624279236.078125,793.9983429269145,801.1839351125066,799.3611547182975,794.1134658991803,796.5118611547184
1624279236.0859375,795.8930751787896,800.9968602825746,799.4235129949415,793.8208616780046,789.8683062968778
1624279236.09375,797.7878074306647,800.8097854526426,799.4858712715854,793.528257456829,783.2247514390373
1624279236.1015627,799.6825396825398,800.6227106227107,799.5482295482294,793.2356532356533,776.5811965811967
1624279236.109375,798.4238618524333,800.5651491365777,800.1622187336473,793.9686028257457,781.097854526426
1624279236.1171875,797.1651840223269,800.5075876504449,800.776207919065,794.7015524158383,785.6145124716554
1624279236.125,795.9065061922205,800.4500261643119,801.3901971044828,795.4345020059307,790.1311704168847
1624279236.1328125,794.6478283621142,800.3924646781791,802.0041862899005,796.167451596023,794.6478283621142
1624279236.140625,793.3891505320078,800.3349031920461,802.6181754753184,796.9004011861155,799.1644863073435
1624279236.1484375,792.1304727019013,800.2773417059133,803.2321646607361,797.633350776208,803.681144252573
1624279236.15625,790.8717948717949,800.2197802197803,803.8461538461539,798.3663003663004,808.1978021978023
1624279236.1640625,791.6843711843712,800.3317053317054,803.9692714692716,799.3713878713879,809.7602767602768
1624279236.171875,792.4969474969475,800.4436304436306,804.0923890923892,800.3764753764754,811.3227513227514
1624279236.1796875,793.3095238095239,800.5555555555557,804.2155067155068,801.3815628815629,812.885225885226
1624279236.1875,794.1221001221002,800.6674806674807,804.3386243386244,802.3866503866504,814.4477004477005
1624279236.1953125,794.9346764346765,800.7794057794058,804.4617419617421,803.3917378917379,816.0101750101751
1624279236.203125,795.7472527472528,800.8913308913309,804.5848595848597,804.3968253968254,817.5726495726497
1624279236.2109375,796.5598290598291,801.0032560032561,804.7079772079774,805.401912901913,819.1351241351241
1624279236.21875,797.3724053724054,801.1151811151811,804.831094831095,806.4070004070004,820.6975986975987
1624279236.2265625,798.1849816849817,801.2271062271062,804.9542124542127,807.4120879120879,822.2600732600732
1624279236.234375,798.997557997558,801.3390313390314,805.0773300773302,808.4171754171755,823.8225478225478
1624279236.2421875,799.8101343101343,801.4509564509565,805.2004477004479,809.4222629222629,825.3850223850224
1624279236.2499998,800.6227106227107,801.5628815628816,805.3235653235655,810.4273504273505,826.9474969474969
1624279236.2578125,790.1465201465202,802.2344322344322,803.040293040293,799.0109890109891,960.1831501831502
1624279236.265625,793.6721611721612,802.251221001221,804.047619047619,799.8168498168499,922.6098901098902
1624279236.2734375,797.1978021978022,802.2680097680097,805.054945054945,800.6227106227107,885.0366300366301
1624279236.28125,800.7234432234432,802.2847985347985,806.0622710622711,801.4285714285716,847.46336996337
1624279236.2890625,804.2490842490843,802.3015873015873,807.0695970695971,802.2344322344323,809.89010989011
1624279236.296875,807.7747252747253,802.3183760683761,808.0769230769231,803.0402930402931,772.31684981685
1624279236.3046875,811.3003663003662,802.3351648351648,809.0842490842491,803.8461538461539,734.7435897435898
1624279236.3125,804.8534798534799,803.6446886446886,794.7802197802198,802.6373626373627,1077.8388278388277
1624279236.3203125,801.5069190069191,803.8125763125763,795.3286528286528,800.8913308913309,1043.7240537240536
1624279236.328125,798.1603581603582,803.9804639804639,795.8770858770858,799.1452991452992,1009.6092796092796
1624279236.3359375,794.8137973137973,804.1483516483516,796.4255189255189,797.3992673992675,975.4945054945052
1624279236.34375,791.4672364672365,804.3162393162394,796.973951973952,795.6532356532357,941.3797313797312
1624279236.3515625,788.1206756206757,804.484126984127,797.522385022385,793.9072039072039,907.2649572649572
1624279236.359375,784.7741147741148,804.6520146520147,798.0708180708181,792.1611721611722,873.1501831501831
1624279236.3671875,788.059916274202,804.2634746206176,798.7951334379906,793.2980115122973,860.7600732600732
1624279236.375,791.3457177742891,803.8749345892204,799.519448805163,794.4348508634223,848.3699633699633
1624279236.3828125,794.6315192743764,803.4863945578232,800.2437641723355,795.5716902145474,835.9798534798534
1624279236.390625,797.9173207744636,803.097854526426,800.9680795395082,796.7085295656724,823.5897435897435
1624279236.3984373,801.2031222745509,802.7093144950288,801.6923949066806,797.8453689167975,811.1996336996336
1624279236.40625,804.488923774638,802.3207744636317,802.4167102738531,798.9822082679225,798.8095238095237
1624279236.4140625,807.7747252747253,801.9322344322345,803.1410256410256,800.1190476190476,786.4194139194138
1624279236.421875,807.1591371591371,802.5478225478226,802.1448921448922,800.4884004884004,777.1184371184371
1624279236.4296875,806.543549043549,803.1634106634108,801.1487586487586,800.8577533577534,767.8174603174602
1624279236.4375,805.927960927961,803.7789987789988,800.1526251526252,801.2271062271062,758.5164835164835
1624279236.4453125,805.3123728123728,804.394586894587,799.1564916564917,801.5964590964591,749.2155067155066
1624279236.4531252,804.6967846967847,805.0101750101751,798.1603581603582,801.965811965812,739.9145299145299
1624279236.4609375,804.0811965811965,805.6257631257632,797.1642246642247,802.3351648351648,730.613553113553
1624279236.46875,803.4656084656085,806.2413512413513,796.1680911680912,802.7045177045177,721.3125763125763
1624279236.4765625,802.8500203500204,806.8569393569394,795.1719576719577,803.0738705738706,712.0115995115996
1624279236.484375,802.2344322344322,807.4725274725275,794.1758241758242,803.4432234432235,702.7106227106227
1624279236.4921875,788.0647130647131,805.5250305250305,801.1599511599512,798.6752136752137,730.3785103785104
1624279236.5,787.4795046223618,804.6136403279261,800.5267748124892,797.437641723356,750.5250305250306
1624279236.5078125,786.8942961800105,803.7022501308215,799.893598465027,796.2000697714984,770.6715506715507
1624279236.515625,786.3090877376592,802.7908599337171,799.260422117565,794.9624978196407,790.8180708180709
1624279236.5234375,785.7238792953079,801.8794697366126,798.627245770103,793.724925867783,810.964590964591
1624279236.53125,785.1386708529566,800.9680795395082,797.9940694226409,792.4873539159253,831.1111111111112
1624279236.5390625,784.5534624106053,800.0566893424036,797.3608930751788,791.2497819640677,851.2576312576313
1624279236.5468748,783.968253968254,799.1452991452992,796.7277167277167,790.01221001221,871.4041514041514
1624279236.5546875,784.997964997965,799.3915343915344,798.3170533170533,790.3703703703703,838.1847781847782
1624279236.5625,786.0276760276761,799.6377696377697,799.9063899063899,790.7285307285307,804.965404965405
1624279236.5703125,787.0573870573871,799.884004884005,801.4957264957266,791.0866910866911,771.7460317460318
1624279236.578125,788.0870980870981,800.1302401302402,803.0850630850631,791.4448514448515,738.5266585266585
1624279236.5859375,789.1168091168091,800.3764753764754,804.6743996743996,791.8030118030118,705.3072853072853
1624279236.59375,790.1465201465202,800.6227106227107,806.2637362637363,792.1611721611722,672.0879120879121
1624279236.6015627,803.5775335775337,801.2942612942612,805.2564102564103,798.4737484737485,780.07326007326
1624279236.609375,803.6504447933021,800.9220303506017,805.2967032967033,799.1721611721612,794.8665620094191
1624279236.6171875,803.7233560090704,800.5497994069422,805.3369963369963,799.8705738705739,809.6598639455782
1624279236.625,803.7962672248387,800.1775684632827,805.3772893772893,800.5689865689866,824.4531658817373
1624279236.6328125,803.869178440607,799.8053375196232,805.4175824175825,801.2673992673994,839.2464678178964
1624279236.640625,803.9420896563754,799.4331065759637,805.4578754578755,801.965811965812,854.0397697540554
1624279236.6484375,804.0150008721437,799.0608756323041,805.4981684981685,802.6642246642248,868.8330716902145
1624279236.65625,804.0879120879121,798.6886446886447,805.5384615384615,803.3626373626374,883.6263736263736
1624279236.6640625,802.8571428571429,798.9133089133089,805.2014652014652,802.5274725274726,887.7533577533577
1624279236.671875,801.6263736263736,799.1379731379732,804.8644688644689,801.6923076923077,891.8803418803419
1624279236.6796875,800.3956043956044,799.3626373626373,804.5274725274726,800.8571428571429,896.007326007326
1624279236.6875,799.1648351648352,799.5873015873016,804.1904761904763,800.021978021978,900.1343101343101
1624279236.6953125,797.934065934066,799.8119658119658,803.8534798534799,799.1868131868132,904.2612942612944
1624279236.703125,796.7032967032967,800.0366300366301,803.5164835164835,798.3516483516485,908.3882783882784
1624279236.7109375,795.4725274725275,800.2612942612943,803.1794871794872,797.5164835164836,912.5152625152626
1624279236.71875,794.2417582417582,800.4859584859586,802.8424908424909,796.6813186813188,916.6422466422468
1624279236.7265625,793.0109890109891,800.7106227106227,802.5054945054945,795.8461538461539,920.7692307692308
1624279236.734375,791.7802197802198,800.935286935287,802.1684981684982,795.0109890109891,924.896214896215
1624279236.7421875,790.5494505494506,801.1599511599512,801.8315018315019,794.1758241758242,929.0231990231993
1624279236.7500002,792.7511773940346,801.6875981161696,801.6156462585035,795.8738880167452,915.3859236002094
1624279236.7578125,794.9529042386185,802.2152450723879,801.399790685505,797.5719518576661,901.7486481772196
1624279236.765625,797.1546310832025,802.7428920286063,801.1839351125066,799.2700156985871,888.1113727542299
1624279236.7734375,799.3563579277866,803.2705389848247,800.9680795395082,800.9680795395082,874.4740973312403
1624279236.78125,801.5580847723705,803.7981859410431,800.7522239665097,802.6661433804292,860.8368219082505
1624279236.7890625,803.7598116169545,804.3258328972614,800.5363683935112,804.3642072213501,847.1995464852607
1624279236.796875,805.9615384615385,804.8534798534798,800.3205128205128,806.0622710622711,833.5622710622711
1624279236.8046875,808.7652625152625,806.0286935286936,801.17673992674,806.498778998779,823.9758852258852
1624279236.8125,811.5689865689866,807.2039072039072,802.032967032967,806.935286935287,814.3894993894994
1624279236.8203125,814.3727106227107,808.3791208791208,802.8891941391942,807.3717948717949,804.8031135531136
1624279236.828125,817.1764346764347,809.5543345543346,803.7454212454213,807.8083028083028,795.2167277167277
1624279236.8359375,819.9801587301588,810.7295482295483,804.6016483516484,808.2448107448107,785.6303418803419
1624279236.84375,822.7838827838829,811.9047619047619,805.4578754578755,808.6813186813187,776.0439560439561
1624279236.8515625,800.8241758241759,805.860805860806,803.1410256410256,802.032967032967,792.3626373626373
1624279236.859375,797.9029304029305,805.0549450549452,800.5723443223443,800.1862026862027,804.3498168498168
1624279236.8671875,794.981684981685,804.2490842490843,798.0036630036631,798.3394383394383,816.3369963369963
1624279236.875,792.0604395604396,803.4432234432235,795.4349816849817,796.492673992674,828.3241758241759
1624279236.8828125,789.1391941391942,802.6373626373627,792.8663003663004,794.6459096459097,840.3113553113553
1624279236.890625,786.2179487179487,801.8315018315018,790.2976190476192,792.7991452991453,852.2985347985348
1624279236.8984373,783.2967032967033,801.025641025641,787.7289377289378,790.952380952381,864.2857142857143
1624279236.90625,817.948717948718,807.0695970695971,809.2857142857143,804.8534798534799,657.7838827838827
1624279236.9140625,816.3817663817664,806.6845746845747,808.878306878307,804.9922669922671,668.3630443630443
1624279236.921875,814.8148148148149,806.2995522995524,808.4708994708996,805.1310541310542,678.9422059422059
1624279236.9296875,813.2478632478633,805.9145299145299,808.063492063492,805.2698412698413,689.5213675213676
1624279236.9375,811.6809116809118,805.5295075295076,807.6560846560847,805.4086284086285,700.1005291005291
1624279236.9453125,810.1139601139602,805.1444851444852,807.2486772486773,805.5474155474155,710.6796906796907
1624279236.9531252,808.5470085470087,804.7594627594628,806.8412698412699,805.6862026862027,721.2588522588522
1624279236.9609375,806.980056980057,804.3744403744404,806.4338624338624,805.8249898249899,731.8380138380139
1624279236.96875,805.4131054131055,803.989417989418,806.026455026455,805.9637769637769,742.4171754171755
1624279236.9765625,803.8461538461539,803.6043956043957,805.6190476190476,806.1025641025641,752.996336996337
1624279236.984375,795.7875457875458,794.981684981685,810.2930402930403,799.4139194139194,790.1465201465202
1624279236.9921875,797.2873422873423,796.2352462352462,809.5095645095646,800.6227106227107,774.2083842083842
1624279237.0,798.7871387871388,797.4888074888075,808.7260887260887,801.8315018315018,758.2702482702483
1624279237.0078125,800.2869352869353,798.7423687423689,807.942612942613,803.040293040293,742.3321123321124
1624279237.015625,801.7867317867318,799.99592999593,807.1591371591372,804.2490842490843,726.3939763939765
1624279237.0234375,803.2865282865283,801.2494912494913,806.3756613756614,805.4578754578754,710.4558404558405
1624279237.03125,804.7863247863248,802.5030525030526,805.5921855921856,806.6666666666666,694.5177045177046
1624279237.0390625,803.347287633002,801.8506889935462,805.2468166753881,805.4386882958311,714.7217861503576
1624279237.0468748,801.908250479679,801.1983254840399,804.9014477585906,804.2107099249956,734.9258677830106
1624279237.0546875,800.4692133263562,800.5459619745335,804.5560788417931,802.9827315541601,755.1299494156638
1624279237.0625,799.0301761730333,799.893598465027,804.2107099249957,801.7547531833246,775.3340310483168
1624279237.0703125,797.5911390197105,799.2412349555207,803.8653410081982,800.5267748124891,795.5381126809698
1624279237.078125,796.1521018663875,798.5888714460143,803.5199720914007,799.2987964416536,815.7421943136228
1624279237.0859375,794.7130647130647,797.936507936508,803.1746031746032,798.0708180708181,835.9462759462758
1624279237.09375,795.04884004884,798.3106575963719,803.1170416884703,798.0516309087737,821.4311878597592
1624279237.1015627,795.3846153846154,798.6848072562359,803.0594802023375,798.0324437467294,806.9160997732425
1624279237.109375,795.7203907203907,799.0589569160999,803.0019187162045,798.0132565846851,792.401011686726
1624279237.1171875,796.056166056166,799.4331065759637,802.9443572300717,797.9940694226409,777.8859236002093
1624279237.125,796.3919413919414,799.8072562358277,802.8867957439387,797.9748822605966,763.3708355136927
1624279237.1328125,796.7277167277167,800.1814058956917,802.8292342578059,797.9556950985523,748.8557474271761
1624279237.140625,797.063492063492,800.5555555555557,802.7716727716729,797.936507936508,734.3406593406594
1624279237.1484375,797.2841444270016,799.8024594453167,802.7380952380953,797.2409733124019,765.7548403976976
1624279237.15625,797.504796790511,799.0493633350777,802.7045177045178,796.5454386882958,797.1690214547358
1624279237.1640625,797.7254491540206,798.2962672248387,802.6709401709402,795.8499040641898,828.5832025117741
1624279237.171875,797.9461015175301,797.5431711145997,802.6373626373627,795.1543694400838,859.9973835688122
1624279237.1796875,798.1667538810397,796.7900750043607,802.6037851037851,794.4588348159778,891.4115646258505
1624279237.1875,798.3874062445491,796.0369788941217,802.5702075702076,793.7633001918716,922.8257456828889
1624279237.1953125,798.6080586080586,795.2838827838827,802.53663003663,793.0677655677656,954.2399267399268
1624279237.203125,797.323717948718,795.4727564102564,801.8315018315018,791.6952838827839,922.3958333333336
1624279237.2109375,796.0393772893774,795.66163003663,801.1263736263736,790.3228021978023,890.5517399267401
1624279237.21875,794.7550366300367,795.8505036630037,800.4212454212453,788.9503205128206,858.7076465201466
1624279237.2265625,793.470695970696,796.0393772893773,799.7161172161171,787.5778388278388,826.8635531135532
1624279237.234375,792.1863553113554,796.2282509157509,799.010989010989,786.2053571428572,795.0194597069598
1624279237.2421875,790.9020146520147,796.4171245421246,798.3058608058607,784.8328754578755,763.1753663003662
1624279237.2499998,789.6176739926741,796.6059981684982,797.6007326007325,783.4603937728939,731.3312728937728
1624279237.2578125,788.3333333333335,796.7948717948718,796.8956043956043,782.0879120879122,699.4871794871794
1624279237.265625,787.5476190476192,797.1776556776557,797.5100732600732,782.974358974359,705.9340659340659
1624279237.2734375,786.7619047619049,797.5604395604396,798.124542124542,783.860805860806,712.3809523809524
1624279237.28125,785.9761904761906,797.9432234432235,798.7390109890109,784.7472527472528,718.8278388278388
1624279237.2890625,785.1904761904763,798.3260073260074,799.3534798534798,785.6336996336997,725.2747252747253
1624279237.296875,784.4047619047619,798.7087912087912,799.9679487179487,786.5201465201466,731.7216117216117
1624279237.3046875,783.6190476190477,799.0915750915751,800.5824175824175,787.4065934065934,738.1684981684982
1624279237.3125,782.8333333333334,799.474358974359,801.1968864468864,788.2930402930403,744.6153846153846
1624279237.3203125,782.047619047619,799.8571428571429,801.8113553113553,789.1794871794872,751.0622710622711
1624279237.328125,781.2619047619048,800.2399267399268,802.4258241758241,790.0659340659341,757.5091575091576
1624279237.3359375,780.4761904761905,800.6227106227107,803.040293040293,790.952380952381,763.956043956044
1624279237.34375,804.5848595848596,802.4358974358975,800.6898656898658,802.7045177045178,822.4481074481076
1624279237.3515625,803.0019187162044,801.716378859236,800.8529565672424,803.3664747950463,826.5829408686553
1624279237.359375,801.4189778475493,800.9968602825746,801.016047444619,804.0284318855748,830.717774289203
1624279237.3671875,799.8360369788941,800.2773417059132,801.1791383219955,804.6903889761033,834.8526077097507
1624279237.375,798.253096110239,799.5578231292517,801.3422291993721,805.3523460666318,838.9874411302984
1624279237.3828125,796.6701552415838,798.8383045525902,801.5053200767487,806.0143031571603,843.1222745508461
1624279237.390625,795.0872143729287,798.1187859759289,801.6684109541253,806.6762602476888,847.2571079713938
1624279237.3984373,793.5042735042734,797.3992673992674,801.8315018315019,807.3382173382173,851.3919413919415
1624279237.40625,793.011803011803,797.6678876678877,801.5628815628816,805.2116402116402,821.0378510378512
1624279237.4140625,792.5193325193325,797.936507936508,801.2942612942613,803.0850630850631,790.6837606837607
1624279237.421875,792.0268620268621,798.2051282051282,801.0256410256411,800.9584859584859,760.3296703296703
1624279237.4296875,791.5343915343916,798.4737484737485,800.7570207570208,798.8319088319088,729.97557997558
1624279237.4375,791.0419210419211,798.7423687423689,800.4884004884004,796.7053317053317,699.6214896214897
1624279237.4453125,790.5494505494506,799.0109890109891,800.2197802197802,794.5787545787546,669.2673992673992
1624279237.4531252,781.2820512820513,801.2271062271062,803.040293040293,789.1391941391942,714.5970695970695
1624279237.4609375,783.2295482295482,801.4957264957266,803.3760683760684,789.8107448107448,771.8467643467643
1624279237.46875,785.1770451770452,801.7643467643468,803.7118437118437,790.4822954822955,829.0964590964592
1624279237.4765625,787.1245421245421,802.032967032967,804.047619047619,791.1538461538462,886.3461538461539
1624279237.484375,789.072039072039,802.3015873015873,804.3833943833945,791.8253968253969,943.5958485958488
1624279237.4921875,791.0195360195361,802.5702075702077,804.7191697191698,792.4969474969475,1000.8455433455435
1624279237.5,792.967032967033,802.8388278388279,805.0549450549452,793.1684981684982,1058.0952380952383
1624279237.5078125,799.0915750915751,804.8937728937728,802.5567765567765,799.8974358974359,820.8498168498169
1624279237.515625,798.7087912087912,804.484126984127,802.8388278388278,799.8504273504274,813.7179487179487
1624279237.5234375,798.3260073260074,804.074481074481,803.1208791208791,799.8034188034188,806.5860805860806
1624279237.53125,797.9432234432235,803.6648351648352,803.4029304029305,799.7564102564103,799.4542124542124
1624279237.5390625,797.5604395604396,803.2551892551893,803.6849816849817,799.7094017094017,792.3223443223444
1624279237.5468748,797.1776556776557,802.8455433455433,803.967032967033,799.6623931623932,785.1904761904763
1624279237.5546875,796.7948717948718,802.4358974358975,804.2490842490843,799.6153846153846,778.0586080586081
1624279237.5625,811.9047619047619,801.4285714285714,796.5934065934066,816.7399267399268,1155.201465201465
1624279237.5703125,810.5392755392755,800.7794057794058,797.2425722425722,815.6878306878307,1110.3306878306876
1624279237.578125,809.1737891737891,800.1302401302402,797.8917378917379,814.6357346357347,1065.4599104599104
1624279237.5859375,807.8083028083029,799.4810744810745,798.5409035409035,813.5836385836386,1020.5891330891328
1624279237.59375,806.4428164428165,798.8319088319089,799.1900691900692,812.5315425315425,975.7183557183556
1624279237.6015627,805.0773300773301,798.1827431827431,799.8392348392349,811.4794464794466,930.8475783475784
1624279237.609375,803.7118437118437,797.5335775335775,800.4884004884005,810.4273504273505,885.9768009768009
1624279237.6171875,802.3463573463574,796.8844118844119,801.1375661375662,809.3752543752544,841.1060236060235
1624279237.625,800.980870980871,796.2352462352462,801.7867317867318,808.3231583231584,796.2352462352462
1624279237.6328125,799.6153846153846,795.5860805860806,802.4358974358975,807.2710622710623,751.3644688644688
1624279237.640625,799.3947322518751,795.8834815977673,803.097854526426,807.2039072039072,742.5719518576661
1624279237.6484375,799.1740798883657,796.180882609454,803.7598116169545,807.1367521367522,733.7794348508634
1624279237.65625,798.9534275248561,796.4782836211407,804.421768707483,807.0695970695971,724.9869178440607
1624279237.6640625,798.7327751613466,796.7756846328275,805.0837257980115,807.0024420024421,716.194400837258
1624279237.671875,798.512122797837,797.0730856445142,805.74568288854,806.935286935287,707.4018838304553
1624279237.6796875,798.2914704343276,797.3704866562009,806.4076399790686,806.868131868132,698.6093668236526
1624279237.6875,798.0708180708181,797.6678876678876,807.0695970695971,806.8009768009769,689.8168498168499
1624279237.6953125,797.3768823768823,798.6528286528286,806.1294261294262,808.032153032153,735.3703703703704
1624279237.703125,796.6829466829466,799.6377696377697,805.1892551892552,809.2633292633293,780.9238909238909
1624279237.7109375,795.9890109890109,800.6227106227107,804.2490842490843,810.4945054945056,826.4774114774115
1624279237.71875,795.2950752950753,801.6076516076516,803.3089133089134,811.7256817256817,872.030932030932
1624279237.7265625,794.6011396011396,802.5925925925927,802.3687423687423,812.9568579568579,917.5844525844524
1624279237.734375,793.9072039072039,803.5775335775337,801.4285714285714,814.1880341880342,963.1379731379732
1624279237.7421875,805.5921855921856,805.9951159951161,804.3833943833944,807.8754578754579,828.021978021978
1624279237.7500002,804.6911884411885,805.950345950346,804.1875254375254,807.3214285714286,820.752442002442
1624279237.7578125,803.7901912901913,805.9055759055759,803.9916564916565,806.7673992673992,813.482905982906
1624279237.765625,802.8891941391942,805.8608058608058,803.7957875457876,806.2133699633699,806.21336996337
1624279237.7734375,801.988196988197,805.8160358160359,803.5999185999186,805.6593406593406,798.943833943834
1624279237.78125,801.0871998371998,805.7712657712658,803.4040496540497,805.1053113553113,791.6742979242979
1624279237.7890625,800.1862026862027,805.7264957264957,803.2081807081806,804.551282051282,784.4047619047619
1624279237.796875,799.2852055352056,805.6817256817257,803.0123117623117,803.9972527472528,777.135225885226
1624279237.8046875,798.3842083842084,805.6369556369556,802.8164428164428,803.4432234432235,769.8656898656899
1624279237.8125,797.4832112332113,805.5921855921856,802.6205738705738,802.8891941391942,762.5961538461538
1624279237.8203125,796.5822140822141,805.5474155474155,802.4247049247049,802.3351648351648,755.3266178266178
1624279237.828125,795.6812169312169,805.5026455026455,802.228835978836,801.7811355311355,748.0570818070819
1624279237.8359375,794.7802197802198,805.4578754578754,802.032967032967,801.2271062271062,740.7875457875458
1624279237.84375,795.5112506541078,804.8246991104133,801.7739403453689,801.0716902145474,756.6227106227107
1624279237.8515625,796.2422815279958,804.1915227629513,801.5149136577708,800.9162742019885,772.4578754578754
1624279237.859375,796.9733124018838,803.5583464154893,801.2558869701727,800.7608581894297,788.2930402930402
1624279237.8671875,797.7043432757719,802.9251700680272,800.9968602825746,800.6054421768707,804.1282051282051
1624279237.875,798.4353741496599,802.2919937205652,800.7378335949766,800.4500261643119,819.9633699633699
1624279237.8828125,799.1664050235479,801.6588173731031,800.4788069073784,800.294610151753,835.7985347985347
1624279237.890625,799.8974358974359,801.0256410256411,800.2197802197803,800.1391941391942,851.6336996336995
1624279237.8984373,798.806424344886,801.366582135813,800.5297266835729,800.2383770076078,842.8746125669202
1624279237.90625,797.7154127923359,801.7075232459848,800.8396731473655,800.3375598760215,834.1155255001407
1624279237.9140625,796.6244012397859,802.0484643561567,801.1496196111582,800.436742744435,825.3564384333614
1624279237.921875,795.5333896872359,802.3894054663286,801.4595660749508,800.5359256128487,816.5973513665821
1624279237.9296875,794.4423781346859,802.7303465765004,801.7695125387434,800.6351084812624,807.8382642998026
1624279237.9375,793.3513665821358,803.0712876866723,802.0794590025359,800.734291349676,799.0791772330233
1624279237.9453125,792.2603550295859,803.4122287968443,802.3894054663286,800.8334742180896,790.320090166244
1624279237.9531252,791.1693434770358,803.7531699070162,802.6993519301212,800.9326570865032,781.5610030994646
1624279237.9609375,790.0783319244858,804.094111017188,803.0092983939138,801.0318399549169,772.8019160326852
1624279237.96875,788.9873203719358,804.4350521273599,803.3192448577064,801.1310228233306,764.0428289659059
1624279237.9765625,787.8963088193858,804.7759932375318,803.6291913214991,801.2302056917441,755.2837418991264
1624279237.984375,786.8052972668357,805.1169343477036,803.9391377852917,801.3293885601578,746.5246548323471
1624279237.9921875,785.7142857142858,805.4578754578755,804.2490842490843,801.4285714285714,737.7655677655678
1624279238.0,787.5677655677657,800.5421245421246,800.4615384615383,798.2051282051283,753.0769230769231
1624279238.0078125,788.937728937729,800.2869352869353,801.092796092796,797.3321123321124,756.4346764346765
1624279238.015625,790.3076923076924,800.0317460317461,801.7240537240536,796.4590964590965,759.7924297924299
1624279238.0234375,791.6776556776558,799.7765567765568,802.3553113553113,795.5860805860807,763.1501831501832
1624279238.03125,793.0476190476192,799.5213675213676,802.986568986569,794.7130647130648,766.5079365079365
1624279238.0390625,794.4175824175825,799.2661782661784,803.6178266178266,793.8400488400489,769.8656898656899
1624279238.0468748,795.7875457875458,799.0109890109891,804.2490842490843,792.967032967033,773.2234432234433
1624279238.0546875,786.7216117216117,796.8956043956044,798.4065934065934,796.0897435897436,848.7728937728939
1624279238.0625,787.6282051282051,797.1138583638584,797.2985347985348,795.9722222222223,822.0787545787547
1624279238.0703125,788.5347985347985,797.3321123321124,796.1904761904761,795.8547008547009,795.3846153846155
1624279238.078125,789.4413919413919,797.5503663003662,795.0824175824175,795.7371794871794,768.6904761904763
1624279238.0859375,790.3479853479854,797.7686202686202,793.974358974359,795.6196581196581,741.996336996337
1624279238.09375,791.2545787545788,797.9868742368742,792.8663003663004,795.5021367521367,715.3021978021978
1624279238.1015627,792.1611721611722,798.2051282051282,791.7582417582418,795.3846153846154,688.6080586080586
1624279238.109375,794.3772893772893,800.2197802197802,799.2124542124543,787.3260073260074,752.2710622710623
1624279238.1171875,792.8205128205128,800.8791208791208,799.3406593406594,787.2893772893773,775.3113553113553
1624279238.125,791.2637362637363,801.5384615384615,799.4688644688646,787.2527472527473,798.3516483516485
1624279238.1328125,789.7069597069597,802.1978021978022,799.5970695970697,787.2161172161173,821.3919413919415
1624279238.140625,788.1501831501831,802.8571428571429,799.7252747252747,787.1794871794872,844.4322344322345
1624279238.1484375,786.5934065934066,803.5164835164835,799.8534798534799,787.1428571428571,867.4725274725276
1624279238.15625,785.0366300366301,804.1758241758242,799.981684981685,787.1062271062272,890.5128205128207
1624279238.1640625,783.4798534798535,804.8351648351648,800.1098901098902,787.0695970695971,913.5531135531136
1624279238.171875,781.923076923077,805.4945054945056,800.2380952380953,787.032967032967,936.5934065934068
1624279238.1796875,780.3663003663004,806.1538461538462,800.3663003663004,786.9963369963369,959.6336996337
1624279238.1875,778.8095238095239,806.8131868131869,800.4945054945056,786.959706959707,982.673992673993
1624279238.1953125,777.2527472527473,807.4725274725275,800.6227106227107,786.9230769230769,1005.714285714286
1624279238.203125,699.2454212454212,814.4029304029303,808.117216117216,705.6923076923077,726.4029304029303
1624279238.2109375,714.1883830455258,812.9811616954473,805.7802197802197,719.9877027734171,754.6195709052852
1624279238.21875,729.1313448456306,811.5593929879644,803.4432234432234,734.2830978545264,782.8362114076399
1624279238.2265625,744.0743066457352,810.1376242804814,801.106227106227,748.5784929356358,811.0528519099947
1624279238.234375,759.0172684458398,808.7158555729984,798.7692307692308,762.8738880167452,839.2694924123496
1624279238.2421875,773.9602302459444,807.2940868655154,796.4322344322345,777.1692830978546,867.4861329147043
1624279238.2499998,788.9031920460492,805.8723181580325,794.0952380952382,791.4646781789639,895.7027734170591
1624279238.2578125,803.8461538461538,804.4505494505495,791.7582417582419,805.7600732600733,923.919413919414
1624279238.265625,808.7484737484738,804.1531484388628,792.7271934414792,811.1180882609455,909.260422117565
1624279238.2734375,813.6507936507936,803.8557474271761,793.6961451247166,816.4761032618176,894.601430315716
1624279238.28125,818.5531135531136,803.5583464154894,794.665096807954,821.8341182626897,879.942438513867
1624279238.2890625,823.4554334554334,803.2609454038026,795.6340484911914,827.1921332635618,865.2834467120182
1624279238.296875,828.3577533577534,802.9635443921159,796.6030001744288,832.5501482644339,850.6244549101692
1624279238.3046875,833.2600732600732,802.6661433804292,797.5719518576661,837.908163265306,835.9654631083203
1624279238.3125,838.1623931623932,802.3687423687425,798.5409035409035,843.2661782661781,821.3064713064713
1624279238.328125,834.9240265906933,801.7121150454484,798.5558268891602,840.1471984805318,801.1301044634378
1624279238.3359375,833.3048433048433,801.3838013838015,798.5632885632886,838.5877085877086,791.041921041921
1624279238.34375,831.6856600189934,801.0554877221545,798.5707502374169,837.0282186948854,780.9537376204042
1624279238.3515625,830.0664767331434,800.7271740605074,798.5782119115453,835.4687288020621,770.8655541988876
1624279238.359375,828.4472934472935,800.3988603988604,798.5856735856736,833.9092389092389,760.7773707773708
1624279238.3671875,826.8281101614435,800.0705467372135,798.5931352598019,832.3497490164157,750.6891873558541
1624279238.375,825.2089268755936,799.7422330755664,798.6005969339303,830.7902591235925,740.6010039343373
1624279238.3828125,823.5897435897436,799.4139194139194,798.6080586080586,829.2307692307693,730.5128205128206
1624279238.390625,843.7362637362637,803.6446886446886,800.6227106227107,829.8351648351648,853.4065934065934
1624279238.3984373,841.1675824175824,802.6877289377289,800.4716117216118,828.0891330891332,841.7887667887668
1624279238.40625,838.5989010989011,801.7307692307692,800.3205128205128,826.3431013431014,830.1709401709402
1624279238.4140625,836.0302197802198,800.7738095238095,800.169413919414,824.5970695970695,818.5531135531135
1624279238.421875,833.4615384615385,799.8168498168499,800.0183150183151,822.8510378510379,806.9352869352869
1624279238.4296875,830.8928571428572,798.8598901098901,799.8672161172161,821.1050061050062,795.3174603174602
1624279238.4375,828.3241758241759,797.9029304029305,799.7161172161173,819.3589743589744,783.6996336996336
1624279238.4453125,820.3663003663003,802.1538461538462,804.0879120879122,817.3846153846152,818.915750915751
1624279238.4531252,817.2867608581894,802.6066631780918,803.5449154020583,816.1316937031222,826.9513343799059
1624279238.4609375,814.2072213500784,803.0594802023373,803.0019187162045,814.8787720216291,834.9869178440607
1624279238.46875,811.1276818419675,803.512297226583,802.4589220303507,813.625850340136,843.0225013082156
1624279238.4765625,808.0481423338566,803.9651142508285,801.9159253444968,812.3729286586429,851.0580847723705
1624279238.484375,804.9686028257457,804.4179312750741,801.372928658643,811.1200069771498,859.0936682365254
1624279238.4921875,801.8890633176347,804.8707482993196,800.8299319727892,809.8670852956567,867.1292517006802
1624279238.5,798.8095238095239,805.3235653235653,800.2869352869353,808.6141636141637,875.1648351648352
1624279238.5078125,800.9105180533752,805.054945054945,801.1407639979069,807.9215070643643,865.7247514390372
1624279238.515625,803.0115122972267,804.7863247863247,801.9945927088785,807.2288505145648,856.2846677132391
1624279238.5234375,805.112506541078,804.5177045177045,802.8484214198501,806.5361939647654,846.8445839874411
1624279238.53125,807.2135007849294,804.2490842490843,803.7022501308215,805.843537414966,837.4045002616431
1624279238.5390625,809.3144950287807,803.980463980464,804.5560788417931,805.1508808651666,827.9644165358451
1624279238.5468748,811.4154892726322,803.7118437118437,805.4099075527647,804.4582243153671,818.524332810047
1624279238.5546875,813.5164835164835,803.4432234432235,806.2637362637363,803.7655677655678,809.084249084249
1624279238.5625,812.9792429792429,804.7863247863248,806.4652014652015,803.4432234432235,810.2258852258851
1624279238.5703125,812.4420024420025,806.1294261294262,806.6666666666667,803.1208791208792,811.3675213675214
1624279238.578125,811.9047619047619,807.4725274725274,806.868131868132,802.7985347985348,812.5091575091575
1624279238.5859375,811.3675213675214,808.8156288156288,807.0695970695971,802.4761904761905,813.6507936507936
1624279238.59375,810.8302808302809,810.1587301587301,807.2710622710623,802.1538461538462,814.7924297924299
1624279238.6015627,810.2930402930403,811.5018315018315,807.4725274725275,801.8315018315019,815.934065934066
1624279238.609375,789.1391941391942,797.1978021978023,796.7948717948718,795.5860805860806,768.1868131868132
1624279238.6171875,788.3836996336996,796.996336996337,796.8956043956044,794.0247252747253,775.5738705738706
1624279238.625,787.6282051282052,796.7948717948718,796.996336996337,792.4633699633699,782.960927960928
1624279238.6328125,786.8727106227107,796.5934065934066,797.0970695970697,790.9020146520147,790.3479853479854
1624279238.640625,786.1172161172161,796.3919413919414,797.1978021978023,789.3406593406594,797.7350427350428
1624279238.6484375,785.3617216117217,796.1904761904761,797.2985347985349,787.7793040293041,805.1221001221002
1624279238.65625,784.6062271062272,795.9890109890109,797.3992673992675,786.2179487179487,812.5091575091576
1624279238.6640625,787.3403976975405,796.8524332810047,797.6439037153324,787.3835688121402,799.6585557299844
1624279238.671875,790.074568288854,797.7158555729984,797.8885400313973,788.5491889063318,786.8079539508111
1624279238.6796875,792.8087388801674,798.5792778649922,798.1331763474622,789.7148090005232,773.9573521716379
1624279238.6875,795.5429094714809,799.4427001569858,798.3778126635269,790.8804290947148,761.1067503924647
1624279238.6953125,798.2770800627943,800.3061224489795,798.6224489795918,792.0460491889063,748.2561486132915
1624279238.703125,801.0112506541078,801.1695447409733,798.8670852956567,793.2116692830979,735.4055468341182
1624279238.7109375,803.7454212454212,802.032967032967,799.1117216117216,794.3772893772893,722.554945054945
1624279238.71875,802.171114599686,802.4992150706436,799.5923600209314,794.9126111983254,736.8158032443747
1624279238.7265625,800.5968079539508,802.9654631083203,800.0729984301413,795.4479330193616,751.0766614338042
1624279238.734375,799.0225013082156,803.4317111459968,800.5536368393512,795.9832548403976,765.3375196232339
1624279238.7421875,797.4481946624804,803.8979591836735,801.0342752485609,796.5185766614338,779.5983778126634
1624279238.7500002,795.8738880167452,804.3642072213501,801.5149136577708,797.0538984824699,793.8592360020931
1624279238.7578125,794.29958137101,804.8304552590267,801.9955520669806,797.5892203035061,808.1200941915226
1624279238.765625,792.7252747252749,805.2967032967033,802.4761904761905,798.1245421245421,822.3809523809523
1624279238.7734375,793.907203907204,803.6446886446887,801.8315018315018,797.936507936508,813.550061050061
1624279238.78125,795.0891330891332,801.992673992674,801.1868131868132,797.7484737484738,804.7191697191697
1624279238.7890625,796.2710622710624,800.3406593406594,800.5421245421246,797.5604395604396,795.8882783882784
1624279238.796875,797.4529914529916,798.6886446886448,799.8974358974359,797.3724053724054,787.057387057387
1624279238.8046875,798.6349206349207,797.0366300366301,799.2527472527472,797.1843711843712,778.2264957264957
1624279238.8125,799.8168498168499,795.3846153846155,798.6080586080586,796.996336996337,769.3956043956044
1624279238.8203125,792.0,809.0036630036631,799.4139194139195,798.1245421245421,726.6446886446887
1624279238.828125,791.6156663848972,809.5491687799381,799.5936883629192,798.254719639335,737.3502395040857
1624279238.8359375,791.2313327697943,810.0946745562131,799.773457311919,798.3848971541279,748.0557903634827
1624279238.84375,790.8469991546915,810.6401803324881,799.9532262609187,798.5150746689208,758.7613412228798
1624279238.8515625,790.4626655395887,811.1856861087631,800.1329952099184,798.6452521837138,769.4668920822768
1624279238.859375,790.0783319244858,811.7311918850381,800.3127641589181,798.7754296985066,780.1724429416738
1624279238.8671875,789.693998309383,812.2766976613132,800.4925331079178,798.9056072132995,790.8779938010708
1624279238.875,789.3096646942801,812.8222034375881,800.6723020569175,799.0357847280924,801.5835446604679
1624279238.8828125,788.9253310791772,813.3677092138631,800.8520710059172,799.1659622428853,812.2890955198649
1624279238.890625,788.5409974640744,813.9132149901382,801.0318399549169,799.2961397576781,822.9946463792619
1624279238.8984373,788.1566638489716,814.4587207664132,801.2116089039166,799.4263172724711,833.7001972386589
1624279238.90625,787.7723302338687,815.0042265426881,801.3913778529163,799.556494787264,844.4057480980559
1624279238.9140625,787.3879966187659,815.5497323189632,801.571146801916,799.6866723020569,855.111298957453
1624279238.921875,787.0036630036631,816.0952380952382,801.7509157509157,799.8168498168498,865.81684981685
1624279238.9296875,790.5494505494506,831.2454212454213,830.0366300366301,801.025641025641,650.7326007326008
1624279238.9375,794.192612942613,835.1404151404151,830.1373626373627,801.5460927960928,681.5735653235654
1624279238.9453125,797.8357753357755,839.0354090354091,830.2380952380953,802.0665445665446,712.4145299145299
1624279238.9531252,801.4789377289378,842.9304029304029,830.3388278388279,802.5869963369964,743.2554945054945
1624279238.9609375,805.1221001221002,846.8253968253968,830.4395604395604,803.1074481074481,774.0964590964592
1624279238.96875,808.7652625152626,850.7203907203907,830.540293040293,803.6278998779,804.9374236874237
1624279238.9765625,812.408424908425,854.6153846153845,830.6410256410256,804.1483516483518,835.7783882783883
1624279238.984375,812.413221698936,858.4144427001569,832.2815279958137,804.6999825571255,824.2133263561835
1624279238.9921875,812.4180184894471,862.2135007849294,833.9220303506017,805.2516134658993,812.6482644339787
1624279239.0,812.4228152799582,866.0125588697017,835.5625327053898,805.803244374673,801.083202511774
1624279239.0078125,812.4276120704692,869.8116169544741,837.203035060178,806.3548752834467,789.5181405895692
1624279239.015625,812.4324088609802,873.6106750392464,838.843537414966,806.9065061922205,777.9530786673644
1624279239.0234375,812.4372056514914,877.4097331240189,840.4840397697541,807.4581371009942,766.3880167451596
1624279239.03125,812.4420024420024,881.2087912087912,842.1245421245421,808.009768009768,754.8229548229548
1624279239.0390625,813.0559916274202,874.8482469911041,838.9298796441653,808.1776556776557,764.7906855049712
1624279239.0468748,813.6699808128379,868.4877027734171,835.7352171637887,808.3455433455433,774.7584161869876
1624279239.0546875,814.2839699982558,862.12715855573,832.5405546834119,808.513431013431,784.726146869004
1624279239.0625,814.8979591836735,855.7666143380429,829.3458922030351,808.6813186813188,794.6938775510205
1624279239.0703125,815.5119483690913,849.4060701203558,826.1512297226583,808.8492063492065,804.6616082330369
1624279239.078125,816.125937554509,843.0455259026688,822.9565672422816,809.0170940170941,814.6293389150533
1624279239.0859375,816.7399267399269,836.6849816849817,819.7619047619048,809.1849816849818,824.5970695970697
1624279239.09375,817.5457875457877,833.1065759637188,817.3731030873888,810.7631257631259,826.6405023547882
1624279239.1015627,818.3516483516485,829.528170242456,814.9843014128729,812.3412698412699,828.6839351125067
1624279239.109375,819.1575091575093,825.9497645211931,812.5954997383569,813.919413919414,830.7273678702252
1624279239.1171875,819.96336996337,822.3713587999302,810.2066980638409,815.497557997558,832.7708006279436
1624279239.125,820.7692307692308,818.7929530786673,807.8178963893249,817.0757020757021,834.8142333856621
1624279239.1328125,821.5750915750916,815.2145473574045,805.429094714809,818.6538461538461,836.8576661433806
1624279239.140625,822.3809523809524,811.6361416361416,803.040293040293,820.2319902319902,838.9010989010991
1624279239.1484375,821.1721611721612,807.9090354090354,803.8461538461538,821.0378510378509,838.330280830281
1624279239.15625,819.96336996337,804.1819291819291,804.6520146520146,821.8437118437118,837.7594627594628
1624279239.1640625,818.7545787545789,800.4548229548229,805.4578754578754,822.6495726495727,837.1886446886448
1624279239.171875,817.5457875457877,796.7277167277167,806.2637362637362,823.4554334554335,836.6178266178267
1624279239.1796875,804.2490842490843,801.025641025641,800.2197802197802,807.8754578754579,884.0293040293041
1624279239.1875,803.1746031746031,799.6825396825396,800.2645502645503,807.5844525844526,879.3508343508344
1624279239.1953125,802.1001221001221,798.3394383394383,800.3093203093204,807.2934472934473,874.6723646723647
1624279239.203125,801.0256410256411,796.996336996337,800.3540903540904,807.002442002442,869.9938949938951
1624279239.2109375,799.95115995116,795.6532356532357,800.3988603988604,806.7114367114367,865.3154253154254
1624279239.21875,798.8766788766789,794.3101343101343,800.4436304436305,806.4204314204314,860.6369556369557
1624279239.2265625,797.8021978021978,792.967032967033,800.4884004884005,806.1294261294262,855.958485958486
1624279239.234375,798.4317765567766,792.8159340659341,801.2522893772895,804.4253663003664,804.526098901099
1624279239.2421875,799.0613553113553,792.6648351648353,802.0161782661783,802.7213064713064,753.0937118437118
1624279239.2499998,799.690934065934,792.5137362637363,802.7800671550672,801.0172466422466,701.6613247863248
1624279239.2578125,800.3205128205128,792.3626373626374,803.5439560439561,799.3131868131868,650.2289377289378
1624279239.265625,799.577010291296,793.5618349904065,803.5679399965114,800.018315018315,680.3096110238969
1624279239.2734375,798.8335077620792,794.7610326181755,803.5919239490669,800.7234432234433,710.3902843188558
1624279239.28125,798.0900052328624,795.9602302459446,803.6159079016222,801.4285714285714,740.4709576138149
1624279239.2890625,797.3465027036457,797.1594278737136,803.6398918541776,802.1336996336996,770.5516309087739
1624279239.296875,796.6030001744289,798.3586255014827,803.6638758067329,802.8388278388278,800.6323042037329
1624279239.3046875,795.8594976452121,799.5578231292517,803.6878597592884,803.5439560439561,830.712977498692
1624279239.3125,795.1159951159952,800.7570207570208,803.7118437118437,804.2490842490843,860.793650793651
1624279239.3203125,798.6864061864063,799.6265771265771,803.566341066341,803.0738705738706,837.4013024013025
1624279239.328125,802.2568172568174,798.4961334961336,803.4208384208384,801.8986568986569,814.0089540089541
1624279239.3359375,805.8272283272283,797.3656898656899,803.2753357753359,800.7234432234433,790.6166056166057
1624279239.34375,809.3976393976394,796.2352462352462,803.1298331298332,799.5482295482296,767.2242572242573
1624279239.3515625,812.9680504680505,795.1048026048027,802.9843304843305,798.3730158730159,743.8319088319088
1624279239.359375,816.5384615384615,793.974358974359,802.8388278388279,797.1978021978023,720.4395604395604
1624279239.3671875,790.5494505494506,801.1599511599512,802.7716727716728,795.2503052503052,826.8131868131868
1624279239.375,792.0460491889064,800.6227106227107,802.656549799407,796.2576312576313,835.572126286412
1624279239.3828125,793.5426478283622,800.0854700854702,802.5414268271411,797.2649572649573,844.3310657596372
1624279239.390625,795.039246467818,799.5482295482296,802.4263038548753,798.2722832722833,853.0900052328624
1624279239.3984373,796.5358451072736,799.0109890109891,802.3111808826095,799.2796092796093,861.8489447060875
1624279239.40625,798.0324437467294,798.4737484737485,802.1960579103437,800.2869352869353,870.6078841793127
1624279239.4140625,799.5290423861852,797.9365079365081,802.0809349380778,801.2942612942613,879.366823652538
1624279239.421875,801.025641025641,797.3992673992675,801.965811965812,802.3015873015873,888.1257631257631
1624279239.4296875,800.7666143380429,797.3417059131345,801.903453689168,801.8458922030351,865.8110936682365
1624279239.4375,800.5075876504447,797.2841444270017,801.841095412524,801.3901971044829,843.49642421071
1624279239.4453125,800.2485609628467,797.2265829408688,801.7787371358801,800.9345020059307,821.1817547531833
1624279239.4531252,799.9895342752486,797.1690214547358,801.716378859236,800.4788069073784,798.8670852956567
1624279239.4609375,799.7305075876505,797.1114599686028,801.654020582592,800.0231118088261,776.5524158381301
1624279239.46875,799.4714809000524,797.05389848247,801.591662305948,799.567416710274,754.2377463806035
1624279239.4765625,799.2124542124543,796.996336996337,801.5293040293041,799.1117216117217,731.9230769230769
1624279239.484375,800.9500915750916,794.7550366300367,802.6625457875458,801.0256410256411,757.1062271062272
1624279239.4921875,802.6877289377289,792.5137362637363,803.7957875457876,802.9395604395605,782.2893772893773
1624279239.5,804.4253663003664,790.2724358974359,804.9290293040293,804.8534798534799,807.4725274725274
1624279239.5078125,806.1630036630037,788.0311355311355,806.0622710622711,806.7673992673994,832.6556776556777
1624279239.515625,806.3500784929356,789.945054945055,806.5227629513344,804.9973835688122,816.2218733647305
1624279239.5234375,806.5371533228677,791.8589743589744,806.9832548403978,803.2273678702251,799.7880690737834
1624279239.53125,806.7242281527996,793.7728937728938,807.443746729461,801.4573521716379,783.3542647828363
1624279239.5390625,806.9113029827316,795.6868131868132,807.9042386185243,799.6873364730508,766.9204604918891
1624279239.5468748,807.0983778126636,797.6007326007326,808.3647305075876,797.9173207744636,750.486656200942
1624279239.5546875,807.2854526425956,799.514652014652,808.825222396651,796.1473050758765,734.0528519099948
1624279239.5625,807.4725274725275,801.4285714285714,809.2857142857143,794.3772893772893,717.6190476190477
1624279239.5703125,807.2710622710623,805.8608058608058,810.0915750915751,796.5934065934066,1042.985347985348
1624279239.578125,800.4884004884005,804.7863247863248,810.2930402930403,794.4444444444445,938.6935286935288
1624279239.5859375,793.7057387057387,803.7118437118437,810.4945054945055,792.2954822954823,834.4017094017094
1624279239.59375,786.9230769230769,802.6373626373627,810.6959706959707,790.1465201465202,730.1098901098901
1624279239.6015627,751.0622710622711,816.5384615384615,803.6446886446887,767.985347985348,930.3663003663004
1624279239.609375,736.3217338217338,822.0787545787546,803.9636752136753,751.6666666666666,930.0473137973136
1624279239.6171875,721.5811965811967,827.6190476190476,804.2826617826618,735.3479853479854,929.7283272283272
1624279239.625,706.8406593406594,833.1593406593406,804.6016483516484,719.0293040293041,929.4093406593406
1624279239.6328125,692.1001221001221,838.6996336996338,804.9206349206349,702.7106227106227,929.090354090354
1624279239.640625,677.359584859585,844.2399267399268,805.2396214896214,686.3919413919415,928.7713675213674
1624279239.6484375,662.6190476190477,849.7802197802198,805.558608058608,670.0732600732601,928.4523809523808
1624279239.65625,665.97200418629,854.5290423861853,800.6227106227105,670.8071690214548,908.3490319204604
1624279239.6640625,669.3249607535323,859.2778649921507,795.6868131868132,671.5410779696495,888.2456828885399
1624279239.671875,672.6779173207746,864.0266875981163,790.7509157509157,672.2749869178441,868.1423338566195
1624279239.6796875,676.0308738880168,868.7755102040817,785.8150183150183,673.0088958660388,848.0389848246991
1624279239.6875,679.383830455259,873.5243328100472,780.8791208791208,673.7428048142334,827.9356357927787
1624279239.6953125,682.7367870225014,878.2731554160126,775.9432234432235,674.4767137624281,807.8322867608582
1624279239.703125,686.0897435897436,883.0219780219782,771.007326007326,675.2106227106227,787.7289377289378
1624279239.7109375,709.8122710622711,881.5781440781442,766.2057387057387,697.4557387057387,819.2918192918194
1624279239.71875,733.5347985347986,880.1343101343102,761.4041514041514,719.7008547008547,850.8547008547009
1624279239.7265625,757.2573260073261,878.6904761904763,756.6025641025642,741.9459706959707,882.4175824175825
1624279239.734375,780.9798534798535,877.2466422466423,751.8009768009769,764.1910866910866,913.980463980464
1624279239.7421875,804.702380952381,875.8028083028083,746.9993894993895,786.4362026862027,945.5433455433456
1624279239.7500002,828.4249084249085,874.3589743589744,742.1978021978023,808.6813186813187,977.1062271062272
1624279239.7578125,906.5934065934066,839.7069597069597,759.92673992674,878.3882783882784,897.5274725274724
1624279239.765625,907.0802808302808,834.4688644688645,763.3516483516485,883.3073870573871,869.3894993894993
1624279239.7734375,907.5671550671552,829.2307692307692,766.7765567765568,888.2264957264957,841.2515262515261
1624279239.78125,908.0540293040292,823.992673992674,770.2014652014652,893.1456043956044,813.113553113553
1624279239.7890625,908.5409035409036,818.7545787545788,773.6263736263737,898.0647130647131,784.97557997558
1624279239.796875,909.0277777777778,813.5164835164835,777.0512820512822,902.9838217338216,756.8376068376068
1624279239.8046875,909.514652014652,808.2783882783883,780.4761904761906,907.9029304029305,728.6996336996338
1624279239.8125,905.4709576138148,805.9615384615385,782.3613291470435,904.3197278911564,738.8016745159603
1624279239.8203125,901.4272632129776,803.6446886446887,784.2464678178965,900.7365253793826,748.9037153322869
1624279239.828125,897.3835688121403,801.3278388278388,786.1316064887494,897.1533228676086,759.0057561486134
1624279239.8359375,893.3398744113031,799.0109890109891,788.0167451596025,893.5701203558347,769.1077969649399
1624279239.84375,889.2961800104658,796.6941391941392,789.9018838304554,889.9869178440607,779.2098377812664
1624279239.8515625,885.2524856096286,794.3772893772895,791.7870225013083,886.4037153322868,789.311878597593
1624279239.859375,881.2087912087914,792.0604395604396,793.6721611721613,882.8205128205128,799.4139194139195
1624279239.8671875,876.3736263736265,791.1706349206349,794.4276556776558,877.985347985348,782.6923076923078
1624279239.875,871.5384615384617,790.2808302808303,795.1831501831502,873.1501831501831,765.970695970696
1624279239.8828125,866.7032967032968,789.3910256410256,795.9386446886447,868.3150183150183,749.2490842490843
1624279239.890625,861.868131868132,788.501221001221,796.6941391941392,863.4798534798535,732.5274725274726
1624279239.8984373,857.0329670329671,787.6114163614163,797.4496336996338,858.6446886446887,715.8058608058609
1624279239.90625,852.1978021978023,786.7216117216117,798.2051282051282,853.8095238095239,699.0842490842491
1624279239.921875,843.7054843304843,800.7905982905983,807.5676638176639,838.9766483516484,742.2061965811965
1624279239.9296875,840.5519943019943,800.958485958486,807.0584045584046,836.5338827838829,747.5534188034188
1624279239.9375,837.3985042735043,801.1263736263736,806.5491452991453,834.0911172161173,752.9006410256411
1624279239.9453125,834.2450142450143,801.2942612942613,806.039886039886,831.6483516483518,758.2478632478633
1624279239.9531252,831.0915242165242,801.462148962149,805.5306267806268,829.2055860805862,763.5950854700855
1624279239.9609375,827.9380341880342,801.6300366300366,805.0213675213676,826.7628205128206,768.9423076923077
1624279239.96875,824.7845441595442,801.7979242979243,804.5121082621083,824.3200549450551,774.28952991453
1624279239.9765625,821.6310541310542,801.9658119658119,804.0028490028491,821.8772893772895,779.6367521367522
1624279239.984375,818.4775641025642,802.1336996336996,803.4935897435898,819.434523809524,784.9839743589744
1624279239.9921875,815.3240740740741,802.3015873015872,802.9843304843305,816.9917582417584,790.3311965811967
1624279240.0,812.1705840455842,802.469474969475,802.4750712250712,814.5489926739929,795.6784188034189
1624279240.0078125,809.0170940170941,802.6373626373626,801.965811965812,812.1062271062273,801.0256410256411
1624279240.015625,809.2914704343276,802.6488749345892,802.9481946624804,812.7566718995291,808.2553636839352
1624279240.0234375,809.5658468515612,802.6603872318158,803.9305773591489,813.4071166928311,815.4850863422292
1624279240.03125,809.8402232687947,802.6718995290424,804.9129600558173,814.057561486133,822.7148090005234
1624279240.0390625,810.1145996860283,802.683411826269,805.8953427524856,814.7080062794349,829.9445316588175
1624279240.0468748,810.3889761032618,802.6949241234956,806.877725449154,815.3584510727368,837.1742543171116
1624279240.0546875,810.6633525204954,802.7064364207222,807.8601081458224,816.0088958660388,844.4039769754056
1624279240.0625,810.9377289377289,802.7179487179488,808.8424908424909,816.6593406593406,851.6336996336997
1624279240.0703125,808.1105006105006,803.1074481074482,809.017094017094,814.993894993895,819.0567765567766
1624279240.078125,805.2832722832723,803.4969474969475,809.1916971916972,813.3284493284493,786.4798534798535
1624279240.0859375,802.4560439560439,803.886446886447,809.3663003663004,811.6630036630037,753.9029304029305
1624279240.09375,799.6288156288157,804.2759462759464,809.5409035409035,809.997557997558,721.3260073260074
1624279240.1015627,796.8015873015873,804.6654456654456,809.7155067155068,808.3321123321124,688.7490842490843
1624279240.109375,793.974358974359,805.054945054945,809.8901098901099,806.6666666666667,656.1721611721612
1624279240.1171875,794.5787545787546,801.8315018315018,797.6007326007326,809.2857142857142,856.0256410256411
1624279240.125,787.493894993895,798.1379731379731,800.6394993894994,803.5103785103785,828.0051892551893
1624279240.1328125,780.4090354090354,794.4444444444445,803.6782661782662,797.7350427350427,799.9847374847376
1624279240.140625,773.3241758241759,790.7509157509157,806.717032967033,791.9597069597069,771.9642857142858
1624279240.1484375,766.2393162393163,787.057387057387,809.7557997557997,786.1843711843711,743.943833943834
1624279240.15625,759.1544566544567,783.3638583638584,812.7945665445665,780.4090354090354,715.9233821733823
1624279240.1640625,752.0695970695971,779.6703296703297,815.8333333333333,774.6336996336996,687.9029304029305
1624279240.171875,747.1672771672772,776.5811965811967,817.6129426129426,773.4345020059305,693.7981859410431
1624279240.1796875,742.2649572649573,773.4920634920635,819.3925518925519,772.2353043781616,699.6934414791558
1624279240.1875,737.3626373626374,770.4029304029305,821.1721611721612,771.0361067503925,705.5886970172685
1624279240.1953125,732.4603174603175,767.3137973137974,822.9517704517704,769.8369091226234,711.483952555381
1624279240.203125,727.5579975579976,764.2246642246644,824.7313797313797,768.6377114948543,717.3792080934937
1624279240.2109375,722.6556776556777,761.1355311355312,826.510989010989,767.4385138670854,723.2744636316064
1624279240.21875,717.7533577533578,758.0463980463982,828.2905982905983,766.2393162393163,729.1697191697191
1624279240.2265625,726.5506715506716,761.4489214489215,826.6341066341066,771.7908017908018,729.3487993487993
1624279240.234375,735.3479853479854,764.851444851445,824.977614977615,777.3422873422874,729.5278795278795
1624279240.2421875,744.1452991452992,768.2539682539683,823.3211233211233,782.8937728937728,729.7069597069597
1624279240.2499998,752.942612942613,771.6564916564917,821.6646316646317,788.4452584452583,729.88603988604
1624279240.2578125,761.7399267399268,775.0590150590151,820.00814000814,793.9967439967439,730.0651200651201
1624279240.265625,770.5372405372406,778.4615384615385,818.3516483516484,799.5482295482294,730.2442002442003
1624279240.2734375,783.8339438339439,781.8192918192918,815.934065934066,805.860805860806,756.8376068376068
1624279240.28125,785.7590557590557,782.7874440374441,814.0201465201466,805.9111721611722,774.6448921448921
1624279240.2890625,787.6841676841677,783.7555962555963,812.1062271062272,805.9615384615385,792.4521774521774
1624279240.296875,789.6092796092796,784.7237484737485,810.1923076923077,806.0119047619048,810.2594627594626
1624279240.3046875,791.5343915343915,785.6919006919007,808.2783882783883,806.0622710622711,828.066748066748
1624279240.3125,793.4595034595035,786.660052910053,806.3644688644689,806.1126373626373,845.8740333740333
1624279240.3203125,795.3846153846154,787.6282051282052,804.4505494505495,806.1630036630036,863.6813186813185
1624279240.328125,796.4322344322344,790.7912087912088,803.6043956043957,804.974358974359,880.4835164835165
1624279240.3359375,794.1758241758241,791.4224664224664,802.3687423687425,805.3907203907204,894.3711843711844
1624279240.34375,791.919413919414,792.0537240537241,801.1330891330892,805.8070818070819,908.2588522588524
1624279240.3515625,789.6630036630037,792.6849816849817,799.897435897436,806.2234432234433,922.1465201465204
1624279240.359375,787.4065934065934,793.3162393162393,798.6617826617827,806.6398046398047,936.034188034188
1624279240.3671875,785.1501831501832,793.9474969474969,797.4261294261295,807.0561660561661,949.921855921856
1624279240.375,782.893772893773,794.5787545787546,796.1904761904763,807.4725274725275,963.809523809524
1624279240.390625,799.5258445258445,794.3772893772895,799.95115995116,801.7419617419617,902.116402116402
1624279240.3984373,799.6377696377697,794.5787545787547,801.025641025641,802.4582824582824,877.7614977614977
1624279240.40625,799.7496947496948,794.7802197802199,802.100122100122,803.1746031746031,853.4065934065934
1624279240.4140625,799.8616198616198,794.9816849816851,803.1746031746031,803.8909238909239,829.051689051689
1624279240.421875,799.973544973545,795.1831501831504,804.2490842490843,804.6072446072445,804.6967846967847
1624279240.4296875,800.0854700854701,795.3846153846156,805.3235653235653,805.3235653235653,780.3418803418804
1624279240.4375,800.8241758241759,795.0392464678181,804.4649398220827,804.5225013082155,794.1614338042909
1624279240.4453125,801.5628815628816,794.6938775510206,803.6063143206001,803.7214372928659,807.9809872667016
1624279240.4531252,802.3015873015873,794.3485086342231,802.7476888191175,802.9203732775161,821.8005407291122
1624279240.4609375,803.040293040293,794.0031397174255,801.8890633176347,802.1193092621664,835.6200941915229
1624279240.46875,803.7789987789988,793.657770800628,801.0304378161521,801.3182452468167,849.4396476539334
1624279240.4765625,804.5177045177045,793.3124018838305,800.1718123146695,800.517181231467,863.259201116344
1624279240.484375,805.2564102564103,792.967032967033,799.3131868131869,799.7161172161173,877.0787545787547
1624279240.4921875,802.8947903947904,793.8400488400489,799.643365893366,800.0462962962963,854.4642857142858
1624279240.5,800.5331705331705,794.7130647130648,799.973544973545,800.3764753764754,831.849816849817
1624279240.5078125,798.1715506715507,795.5860805860807,800.3037240537241,800.7066544566544,809.2353479853481
1624279240.515625,795.8099308099308,796.4590964590965,800.6339031339031,801.0368335368336,786.6208791208792
1624279240.5234375,793.4483109483109,797.3321123321124,800.9640822140822,801.3670126170126,764.0064102564104
1624279240.53125,791.0866910866911,798.2051282051283,801.2942612942612,801.6971916971917,741.3919413919415
1624279240.5390625,790.9811616954474,797.6582940868656,801.4573521716378,800.968079539508,757.1781789638933
1624279240.5468748,790.8756323042037,797.1114599686028,801.6204430490144,800.2389673818245,772.9644165358452
1624279240.5546875,790.77010291296,796.5646258503401,801.783533926391,799.5098552241409,788.750654107797
1624279240.5625,790.6645735217163,796.0177917320775,801.9466248037677,798.7807430664574,804.5368916797488
1624279240.5703125,790.5590441304727,795.4709576138148,802.1097156811443,798.0516309087737,820.3231292517006
1624279240.578125,790.4535147392289,794.9241234955521,802.2728065585209,797.3225187510902,836.1093668236525
1624279240.5859375,790.3479853479853,794.3772893772893,802.4358974358975,796.5934065934066,851.8956043956043
1624279240.59375,793.6721611721612,796.492673992674,803.1410256410256,797.5335775335775,819.3421855921855
1624279240.6015627,796.9963369963369,798.6080586080586,803.8461538461539,798.4737484737485,786.7887667887668
1624279240.609375,800.3205128205128,800.7234432234432,804.5512820512821,799.4139194139194,754.235347985348
1624279240.6171875,803.6446886446887,802.8388278388278,805.2564102564103,800.3540903540903,721.6819291819291
1624279240.625,806.9688644688645,804.9542124542124,805.9615384615386,801.2942612942613,689.1285103785103
1624279240.6328125,810.2930402930403,807.0695970695971,806.6666666666667,802.2344322344322,656.5750915750916
1624279240.640625,795.5860805860806,793.4706959706959,800.2197802197802,800.3205128205128,789.6428571428571
1624279240.6484375,793.9631664631664,794.4164631664631,799.7944647944648,798.6024623524623,773.6767399267399
1624279240.65625,792.3402523402524,795.3622303622303,799.3691493691493,796.884411884412,757.7106227106227
1624279240.6640625,790.7173382173382,796.3079975579976,798.9438339438339,795.1663614163615,741.7445054945056
1624279240.671875,789.0944240944241,797.2537647537648,798.5185185185185,793.448310948311,725.7783882783883
1624279240.6796875,787.47150997151,798.199531949532,798.0932030932031,791.7302604802607,709.8122710622711
1624279240.6875,785.8485958485959,799.1452991452992,797.6678876678876,790.0122100122102,693.8461538461539
1624279240.6953125,804.2490842490843,780.8791208791209,801.8315018315019,791.3553113553114,496.007326007326
1624279240.703125,802.986568986569,783.0683760683761,801.7777777777778,793.2356532356533,561.7521367521367
1624279240.7109375,801.7240537240538,785.2576312576313,801.7240537240538,795.1159951159951,627.4969474969475
1624279240.71875,800.4615384615386,787.4468864468865,801.6703296703297,796.996336996337,693.2417582417582
1624279240.7265625,799.1990231990233,789.6361416361417,801.6166056166057,798.876678876679,758.986568986569
1624279240.734375,797.936507936508,791.8253968253969,801.5628815628817,800.7570207570208,824.7313797313798
1624279240.7421875,796.6739926739928,794.014652014652,801.5091575091576,802.6373626373627,890.4761904761905
1624279240.7500002,810.6959706959707,799.0109890109891,795.3846153846154,801.4285714285714,682.1611721611722
1624279240.7578125,810.5616605616606,799.3131868131869,795.7203907203907,802.5198412698413,710.5845543345544
1624279240.765625,810.4273504273505,799.6153846153846,796.056166056166,803.6111111111112,739.0079365079366
1624279240.7734375,810.2930402930403,799.9175824175825,796.3919413919414,804.702380952381,767.4313186813188
1624279240.78125,810.1587301587301,800.2197802197803,796.7277167277167,805.7936507936508,795.8547008547009
1624279240.7890625,810.02442002442,800.521978021978,797.063492063492,806.8849206349207,824.2780830280832
1624279240.796875,809.8901098901099,800.8241758241759,797.3992673992674,807.9761904761906,852.7014652014653
1624279240.8046875,806.3644688644689,800.5723443223444,797.1222527472528,807.548076923077,875.1900183150184
1624279240.8125,802.8388278388279,800.3205128205128,796.8452380952381,807.1199633699634,897.6785714285716
1624279240.8203125,799.3131868131868,800.0686813186812,796.5682234432234,806.6918498168499,920.1671245421246
1624279240.828125,795.7875457875458,799.8168498168498,796.2912087912088,806.2637362637363,942.6556776556776
1624279240.8359375,799.9175824175825,800.6898656898657,797.7098595848596,807.6404151404151,912.9227716727715
1624279240.84375,804.047619047619,801.5628815628816,799.1285103785103,809.017094017094,883.1898656898657
1624279240.8515625,808.1776556776557,802.4358974358975,800.5471611721612,810.393772893773,853.4569597069597
1624279240.859375,812.3076923076924,803.3089133089134,801.965811965812,811.7704517704518,823.7240537240536
1624279240.8671875,810.8110936682366,802.5414268271412,801.7355660212803,810.4657247514391,823.6089307517879
1624279240.875,809.3144950287808,801.7739403453689,801.5053200767487,809.1609977324263,823.493807779522
1624279240.8828125,807.817896389325,801.0064538635968,801.275074132217,807.8562707134136,823.3786848072561
1624279240.890625,806.3212977498692,800.2389673818245,801.0448281876853,806.5515436944008,823.2635618349904
1624279240.8984373,804.8246991104135,799.4714809000524,800.8145822431536,805.2468166753881,823.1484388627246
1624279240.90625,803.3281004709577,798.7039944182801,800.584336298622,803.9420896563753,823.0333158904587
1624279240.9140625,801.8315018315019,797.936507936508,800.3540903540903,802.6373626373626,822.9181929181929
1624279240.921875,801.0256410256411,798.4929356357928,800.7953950811093,803.9037153322867,818.9272632129774
1624279240.9296875,800.2197802197803,799.0493633350776,801.2366998081284,805.1700680272108,814.936333507762
1624279240.9375,799.4139194139195,799.6057910343625,801.6780045351474,806.4364207221349,810.9454038025466
1624279240.9453125,798.6080586080586,800.1622187336474,802.1193092621664,807.7027734170591,806.9544740973313
1624279240.9531252,797.8021978021978,800.7186464329322,802.5606139891854,808.9691261119832,802.9635443921159
1624279240.9609375,796.996336996337,801.275074132217,803.0019187162045,810.2354788069074,798.9726146869004
1624279240.96875,796.1904761904763,801.8315018315019,803.4432234432235,811.5018315018315,794.981684981685
1624279240.9765625,809.4871794871794,797.3992673992674,803.2417582417582,807.4725274725274,709.3589743589744
1624279240.984375,809.7605965463108,797.5,802.6085818942962,807.947409733124,723.9076399790686
1624279240.9921875,810.0340136054422,797.6007326007326,801.9754055468342,808.4222919937205,738.4563055991628
1624279241.0,810.3074306645735,797.7014652014652,801.3422291993721,808.8971742543171,753.004971219257
1624279241.0078125,810.5808477237049,797.8021978021977,800.70905285191,809.3720565149137,767.5536368393512
1624279241.015625,810.8542647828363,797.9029304029303,800.0758765044479,809.8469387755102,782.1023024594454
1624279241.0234375,811.1276818419676,798.003663003663,799.4427001569859,810.3218210361067,796.6509680795396
1624279241.03125,811.401098901099,798.1043956043956,798.8095238095239,810.7967032967033,811.1996336996338
1624279241.0390625,810.5112942612943,797.9868742368742,799.1788766788767,810.3769841269841,788.8202075702076
1624279241.0468748,809.6214896214897,797.8693528693528,799.5482295482296,809.957264957265,766.4407814407815
1624279241.0546875,808.731684981685,797.7518315018315,799.9175824175825,809.5375457875458,744.0613553113553
1624279241.0625,807.8418803418804,797.6343101343101,800.2869352869353,809.1178266178266,721.6819291819291
