timestamp,RAW_TP9,RAW_AF7,RAW_AF8,RAW_TP10,AUX_RIGHT
1624461914.203125,878.6718220051554,793.8027404694071,799.5855379188712,881.902726902727,750.0250983584317
1624461914.2109375,879.4478361145028,794.414597747931,799.5780762447429,882.7309727309727,771.775878442545
1624461914.21875,880.2238502238503,795.026455026455,799.5706145706145,883.5592185592185,793.5266585266585
1624461914.2265625,880.9998643331977,795.6383123049789,799.5631528964861,884.3874643874643,815.2774386107719
1624461914.234375,881.7758784425451,796.2501695835028,799.5556912223577,885.2157102157101,837.0282186948853
1624461914.2421875,882.5518925518926,796.8620268620267,799.5482295482294,886.043956043956,858.7789987789987
1624461914.2499998,877.8286528286528,797.9253154253153,800.4995929995929,881.7796092796092,854.6265771265771
1624461914.2578125,873.1054131054132,798.9886039886039,801.4509564509564,877.5152625152625,850.4741554741554
1624461914.265625,868.3821733821735,800.0518925518925,802.4023199023198,873.2509157509157,846.3217338217337
1624461914.2734375,863.6589336589337,801.115181115181,803.3536833536833,868.986568986569,842.1693121693121
1624461914.28125,858.935693935694,802.1784696784697,804.3050468050468,864.7222222222223,838.0168905168905
1624461914.2890625,854.2124542124543,803.2417582417582,805.2564102564103,860.4578754578755,833.8644688644688
1624461914.3046875,859.1595441595442,793.1125356125357,795.6756206756207,866.3451363451363,858.0738705738705
1624461914.3125,860.4802604802605,793.8624338624339,796.3695563695564,863.9723239723239,832.7228327228327
1624461914.3203125,861.8009768009767,794.6123321123322,797.063492063492,861.5995115995115,807.3717948717949
1624461914.328125,863.121693121693,795.3622303622304,797.7574277574278,859.2266992266992,782.0207570207571
1624461914.3359375,864.4424094424094,796.1121286121287,798.4513634513635,856.8538868538868,756.6697191697192
1624461914.34375,865.7631257631257,796.8620268620269,799.1452991452992,854.4810744810744,731.3186813186813
1624461914.3515625,864.4759869759869,797.958892958893,798.484940984941,852.3880748880748,729.6062271062272
1624461914.359375,863.1888481888482,799.055759055759,797.8245828245829,850.2950752950752,727.893772893773
1624461914.3671875,861.9017094017095,800.1526251526252,797.1642246642248,848.2020757020757,726.1813186813188
1624461914.375,860.6145706145707,801.2494912494913,796.5038665038666,846.1090761090761,724.4688644688645
1624461914.3828125,859.3274318274318,802.3463573463573,795.8435083435083,844.0160765160765,722.7564102564103
1624461914.390625,858.0402930402931,803.4432234432234,795.1831501831502,841.9230769230769,721.0439560439561
1624461914.3984373,825.4700854700855,804.7863247863248,796.5262515262516,821.3736263736265,800.0183150183151
1624461914.40625,696.2637362637363,840.5128205128206,833.6630036630037,717.6190476190476,682.5641025641025
1624461914.4140625,692.4862637362637,841.1172161172161,833.3608058608058,711.2225274725274,690.9249084249084
1624461914.421875,688.7087912087912,841.7216117216118,833.0586080586081,704.8260073260074,699.2857142857142
1624461914.4296875,684.9313186813188,842.3260073260074,832.7564102564103,698.4294871794872,707.6465201465202
1624461914.4375,681.1538461538462,842.930402930403,832.4542124542124,692.032967032967,716.007326007326
1624461914.4453125,677.3763736263736,843.5347985347986,832.1520146520147,685.6364468864468,724.3681318681319
1624461914.4531252,673.5989010989011,844.1391941391942,831.8498168498169,679.2399267399267,732.7289377289378
1624461914.4609375,669.8214285714287,844.7435897435898,831.5476190476192,672.8434065934066,741.0897435897436
1624461914.46875,666.0439560439561,845.3479853479854,831.2454212454213,666.4468864468864,749.4505494505495
1624461914.4765625,548.1196581196581,917.7411477411478,849.9145299145299,562.893772893773,910.6227106227108
1624461914.484375,554.3650793650793,914.94301994302,848.951973951974,565.3337403337404,892.7146927146929
1624461914.4921875,560.6105006105006,912.1448921448922,847.9894179894179,567.7737077737078,874.8066748066749
1624461914.5,566.8559218559219,909.3467643467644,847.026862026862,570.2136752136753,856.898656898657
1624461914.5078125,573.1013431013431,906.5486365486366,846.064306064306,572.6536426536427,838.9906389906391
1624461914.515625,579.3467643467643,903.7505087505089,845.10175010175,575.0936100936101,821.0826210826211
1624461914.5234375,585.5921855921856,900.9523809523812,844.139194139194,577.5335775335775,803.1746031746032
1624461914.53125,608.3353683353683,888.3943833943836,838.0952380952381,605.0447700447701,801.7419617419619
1624461914.5390625,631.0785510785511,875.836385836386,832.051282051282,632.5559625559625,800.3093203093204
1624461914.5468748,653.8217338217339,863.2783882783883,826.0073260073259,660.067155067155,798.8766788766789
1624461914.5546875,676.5649165649166,850.7203907203908,819.9633699633699,687.5783475783476,797.4440374440375
1624461914.5625,699.3080993080994,838.1623931623933,813.919413919414,715.0895400895402,796.0113960113961
1624461914.5703125,722.0512820512821,825.6043956043957,807.8754578754579,742.6007326007326,794.5787545787546
1624461914.578125,844.2735042735044,779.8046398046399,785.1770451770452,845.0793650793652,752.9426129426129
1624461914.5859375,853.8207163207164,776.5756003256005,783.4366096866097,853.2834757834759,759.1432641432641
1624461914.59375,863.3679283679285,773.3465608465609,781.6961741961742,861.4875864875866,765.3439153439153
1624461914.6015627,872.9151404151405,770.1175213675215,779.9557387057387,869.6916971916972,771.5445665445666
1624461914.609375,882.4623524623524,766.888481888482,778.2153032153033,877.8958078958079,777.7452177452177
1624461914.6171875,892.0095645095645,763.6594424094425,776.4748677248677,886.0999185999186,783.9458689458689
1624461914.625,901.5567765567764,760.430402930403,774.7344322344322,894.3040293040293,790.1465201465202
1624461914.640625,922.2069597069598,773.021978021978,791.1538461538462,907.5,683.2440476190477
1624461914.6484375,918.882783882784,772.8205128205128,790.1465201465202,906.7948717948718,677.6785714285714
1624461914.65625,915.558608058608,772.6190476190476,789.1391941391942,906.0897435897436,672.1130952380953
1624461914.6640625,912.2344322344322,772.4175824175825,788.1318681318681,905.3846153846154,666.547619047619
1624461914.671875,908.9102564102564,772.2161172161173,787.1245421245421,904.6794871794872,660.9821428571429
1624461914.6796875,905.5860805860806,772.014652014652,786.1172161172161,903.9743589743588,655.4166666666667
1624461914.6875,902.2619047619048,771.8131868131868,785.1098901098901,903.2692307692308,649.8511904761905
1624461914.6953125,898.9377289377289,771.6117216117216,784.1025641025641,902.5641025641024,644.2857142857143
1624461914.703125,887.4542124542124,770.6043956043957,789.9450549450551,875.7692307692308,773.6263736263736
1624461914.7109375,883.7494912494913,771.0409035409036,791.4784289784291,875.2431827431828,773.7606837606837
1624461914.71875,880.0447700447701,771.4774114774115,793.0118030118031,874.7171347171347,773.894993894994
1624461914.7265625,876.3400488400489,771.9139194139194,794.5451770451771,874.1910866910868,774.0293040293041
1624461914.734375,872.6353276353276,772.3504273504274,796.0785510785512,873.6650386650388,774.1636141636142
1624461914.7421875,868.9306064306064,772.7869352869352,797.6119251119252,873.1389906389907,774.2979242979244
1624461914.7500002,865.2258852258852,773.2234432234432,799.1452991452992,872.6129426129427,774.4322344322345
1624461914.7578125,859.394586894587,771.6117216117216,797.2761497761499,865.5168905168906,780.946275946276
1624461914.765625,853.5632885632886,770.0,795.4070004070005,858.4208384208384,787.4603174603175
1624461914.7734375,847.7319902319903,768.3882783882784,793.5378510378512,851.3247863247864,793.974358974359
1624461914.78125,841.900691900692,766.7765567765567,791.6687016687017,844.2287342287343,800.4884004884005
1624461914.7890625,836.0693935693936,765.1648351648352,789.7995522995524,837.1326821326821,807.002442002442
1624461914.796875,830.2380952380953,763.5531135531136,787.930402930403,830.0366300366301,813.5164835164835
1624461914.8046875,845.7509157509157,780.6776556776557,813.5164835164835,836.080586080586,997.2527472527476
1624461914.8125,844.9002849002849,781.1365486365487,816.2922262922264,836.2596662596662,963.9438339438342
1624461914.8203125,844.049654049654,781.5954415954416,819.0679690679691,836.4387464387464,930.6349206349208
1624461914.828125,843.1990231990233,782.0543345543346,821.8437118437118,836.6178266178266,897.3260073260075
1624461914.8359375,842.3483923483924,782.5132275132275,824.6194546194547,836.7969067969068,864.0170940170941
1624461914.84375,841.4977614977615,782.9721204721204,827.3951973951976,836.975986975987,830.7081807081807
1624461914.8515625,840.6471306471307,783.4310134310134,830.1709401709403,837.1550671550672,797.3992673992674
1624461914.859375,840.7590557590557,786.2962962962963,829.924704924705,838.2071632071633,788.982498982499
1624461914.8671875,840.8709808709809,789.1615791615792,829.6784696784697,839.2592592592592,780.5657305657306
1624461914.875,840.982905982906,792.0268620268621,829.4322344322345,840.3113553113553,772.1489621489623
1624461914.8828125,841.0948310948311,794.8921448921449,829.1859991859992,841.3634513634514,763.7321937321938
1624461914.890625,841.2067562067563,797.7574277574278,828.9397639397639,842.4155474155474,755.3154253154254
1624461914.8984373,841.3186813186813,800.6227106227107,828.6935286935286,843.4676434676435,746.898656898657
1624461914.90625,834.8717948717949,794.1758241758242,807.4725274725275,825.2014652014652,571.3553113553114
1624461914.9140625,834.1330891330891,794.86975986976,807.3829873829875,824.5075295075295,611.6931216931217
1624461914.921875,833.3943833943835,795.5636955636957,807.2934472934473,823.8135938135938,652.030932030932
1624461914.9296875,832.6556776556777,796.2576312576314,807.2039072039072,823.1196581196582,692.3687423687423
1624461914.9375,831.9169719169719,796.951566951567,807.1143671143672,822.4257224257225,732.7065527065527
1624461914.9453125,831.1782661782662,797.6455026455027,807.0248270248271,821.7317867317868,773.044363044363
1624461914.9531252,830.4395604395604,798.3394383394384,806.935286935287,821.037851037851,813.3821733821733
1624461914.9609375,828.240231990232,796.4199226699227,806.3700651200652,820.0529100529101,809.8957061457061
1624461914.96875,826.0409035409035,794.5004070004071,805.8048433048433,819.0679690679691,806.4092389092389
1624461914.9765625,823.8415750915751,792.5808913308914,805.2396214896215,818.0830280830281,802.9227716727717
1624461914.984375,821.6422466422467,790.6613756613757,804.6743996743998,817.0980870980871,799.4363044363043
1624461914.9921875,819.4429181929182,788.7418599918601,804.1091778591779,816.1131461131462,795.9498371998371
1624461915.0,817.2435897435898,786.8223443223444,803.5439560439561,815.1282051282052,792.4633699633699
1624461915.0078125,815.6150793650795,787.1749084249085,802.9899267399268,814.2551892551893,786.1004273504274
1624461915.015625,813.9865689865691,787.5274725274726,802.4358974358975,813.3821733821734,779.7374847374847
1624461915.0234375,812.3580586080586,787.8800366300367,801.8818681318681,812.5091575091576,773.3745421245421
1624461915.03125,810.7295482295483,788.2326007326008,801.3278388278388,811.6361416361417,767.0115995115996
1624461915.0390625,809.101037851038,788.5851648351648,800.7738095238095,810.7631257631258,760.6486568986569
1624461915.0468748,807.4725274725275,788.9377289377289,800.2197802197802,809.8901098901099,754.2857142857143
1624461915.0546875,821.3736263736264,792.1611721611722,808.6141636141637,814.1208791208792,837.6251526251527
1624461915.0625,821.0714285714286,791.914936914937,807.1479446479447,813.0799755799757,833.4727309727311
1624461915.0703125,820.7692307692308,791.6687016687017,805.6817256817257,812.039072039072,829.3203093203094
1624461915.078125,820.467032967033,791.4224664224664,804.2155067155068,810.9981684981685,825.1678876678877
1624461915.0859375,820.1648351648352,791.1762311762312,802.7492877492878,809.957264957265,821.0154660154661
1624461915.09375,819.8626373626374,790.929995929996,801.2830687830688,808.9163614163614,816.8630443630445
1624461915.1015627,819.5604395604396,790.6837606837607,799.8168498168498,807.8754578754579,812.7106227106228
1624461915.109375,820.0976800976802,791.2956179622847,799.7496947496948,808.6813186813187,796.3247863247864
1624461915.1171875,820.6349206349207,791.9074752408086,799.6825396825396,809.4871794871794,779.93894993895
1624461915.125,821.1721611721612,792.5193325193326,799.6153846153846,810.2930402930402,763.5531135531136
1624461915.1328125,821.7094017094017,793.1311897978565,799.5482295482295,811.098901098901,747.1672771672772
1624461915.140625,822.2466422466423,793.7430470763804,799.4810744810745,811.9047619047619,730.7814407814408
1624461915.1484375,822.7838827838829,794.3549043549043,799.4139194139194,812.7106227106227,714.3956043956044
1624461915.15625,823.3211233211233,794.9667616334283,799.3467643467644,813.5164835164835,698.009768009768
1624461915.1640625,823.8583638583639,795.5786189119522,799.2796092796093,814.3223443223443,681.6239316239316
1624461915.171875,824.3956043956044,796.1904761904761,799.2124542124543,815.1282051282051,665.2380952380952
1624461915.1796875,826.2087912087911,811.098901098901,806.8681318681319,836.080586080586,658.7912087912089
1624461915.1875,824.8768823768823,810.6512006512006,807.57326007326,833.6406186406186,665.3052503052504
1624461915.1953125,823.5449735449735,810.2035002035002,808.2783882783883,831.2006512006511,671.8192918192918
1624461915.203125,822.2130647130647,809.7557997557997,808.9835164835165,828.7606837606837,678.3333333333334
1624461915.2109375,820.8811558811559,809.3080993080993,809.6886446886447,826.3207163207163,684.8473748473749
1624461915.21875,819.549247049247,808.8603988603988,810.393772893773,823.8807488807488,691.3614163614163
1624461915.2265625,818.2173382173382,808.4126984126984,811.0989010989011,821.4407814407814,697.8754578754579
1624461915.234375,818.5754985754986,810.1027676027676,811.4850427350427,821.5471102971103,724.8885836385837
1624461915.2421875,818.933658933659,811.7928367928369,811.8711843711844,821.6534391534391,751.9017094017095
1624461915.2499998,819.2918192918194,813.482905982906,812.257326007326,821.759768009768,778.9148351648353
1624461915.2578125,819.6499796499796,815.1729751729752,812.6434676434676,821.8660968660969,805.9279609279611
1624461915.265625,820.00814000814,816.8630443630444,813.0296092796093,821.9724257224257,832.9410866910869
1624461915.2734375,820.3663003663004,818.5531135531136,813.4157509157509,822.0787545787546,859.9542124542127
1624461915.28125,820.6282051282052,819.1071428571429,812.9607753357753,822.1106532356532,851.2760989010991
1624461915.2890625,820.8901098901099,819.6611721611722,812.5057997557998,822.1425518925519,842.5979853479855
1624461915.296875,821.1520146520147,820.2152014652015,812.0508241758241,822.1744505494505,833.9198717948719
1624461915.3046875,821.4139194139194,820.7692307692308,811.5958485958486,822.2063492063492,825.2417582417584
1624461915.3125,821.6758241758242,821.3232600732601,811.140873015873,822.2382478632478,816.5636446886448
1624461915.3203125,821.9377289377289,821.8772893772893,810.6858974358975,822.2701465201465,807.8855311355312
1624461915.328125,822.1996336996338,822.4313186813187,810.2309218559219,822.3020451770452,799.2074175824177
1624461915.3359375,822.4615384615386,822.985347985348,809.7759462759464,822.3339438339439,790.5293040293042
1624461915.34375,822.7234432234433,823.5393772893773,809.3209706959708,822.3658424908425,781.8511904761906
1624461915.3515625,822.9853479853481,824.0934065934066,808.8659951159951,822.3977411477412,773.173076923077
1624461915.359375,823.2472527472528,824.6474358974359,808.4110195360196,822.4296398046398,764.4949633699634
1624461915.3671875,823.5091575091576,825.2014652014652,807.956043956044,822.4615384615385,755.8168498168499
1624461915.375,811.1996336996338,812.6098901098901,796.4926739926741,815.5311355311355,877.1794871794871
1624461915.3828125,811.8320105820106,809.2689255189255,795.7931420431421,813.941798941799,862.6292226292226
1624461915.390625,812.4643874643875,805.927960927961,795.0936100936101,812.3524623524623,848.0789580789581
1624461915.3984373,813.0967643467644,802.5869963369963,794.3940781440781,810.7631257631258,833.5286935286936
1624461915.40625,813.7291412291413,799.2460317460317,793.6945461945462,809.1737891737893,818.978428978429
1624461915.4140625,814.3615181115182,795.9050671550672,792.9950142450142,807.5844525844526,804.4281644281645
1624461915.421875,814.9938949938951,792.5641025641025,792.2954822954822,805.9951159951161,789.8778998779
1624461915.4296875,816.5608465608466,793.9743589743589,796.2352462352462,805.7041107041108,797.4440374440375
1624461915.4375,818.1277981277982,795.3846153846154,800.1750101750101,805.4131054131054,805.0101750101751
1624461915.4453125,819.6947496947498,796.7948717948718,804.114774114774,805.1221001221002,812.5763125763126
1624461915.4531252,821.2617012617013,798.2051282051282,808.054538054538,804.8310948310949,820.1424501424501
1624461915.4609375,822.8286528286528,799.6153846153845,811.9943019943021,804.5400895400895,827.7085877085877
1624461915.46875,824.3956043956044,801.025641025641,815.934065934066,804.2490842490843,835.2747252747253
1624461915.4765625,807.6739926739926,810.6959706959708,818.7545787545788,801.2271062271063,948.2967032967032
1624461915.484375,801.7979242979243,806.0958485958487,817.1092796092796,799.7161172161173,917.4053724053724
1624461915.4921875,795.9218559218559,801.4957264957267,815.4639804639805,798.2051282051283,886.5140415140414
1624461915.5,790.0457875457876,796.8956043956046,813.8186813186813,796.6941391941392,855.6227106227105
1624461915.5078125,786.0332722832723,793.621794871795,811.4178876678877,795.6700244200244,847.7991452991453
1624461915.515625,782.0207570207571,790.3479853479855,809.017094017094,794.6459096459097,839.9755799755799
1624461915.5234375,778.0082417582418,787.0741758241759,806.6163003663004,793.6217948717949,832.1520146520146
1624461915.53125,773.9957264957264,783.8003663003664,804.2155067155068,792.5976800976802,824.3284493284493
1624461915.5390625,769.9832112332113,780.5265567765568,801.814713064713,791.5735653235654,816.5048840048839
1624461915.5468748,765.9706959706959,777.2527472527473,799.4139194139194,790.5494505494506,808.6813186813187
1624461915.5546875,782.4908424908425,810.5616605616606,809.0842490842491,779.1330891330891,811.3675213675215
1624461915.5625,776.6483516483516,817.9375254375254,810.7631257631258,771.4326414326415,797.7742165242166
1624461915.5703125,770.8058608058608,825.3133903133904,812.4420024420025,763.7321937321938,784.1809116809118
1624461915.578125,764.96336996337,832.6892551892553,814.1208791208792,756.031746031746,770.5876068376069
1624461915.5859375,759.1208791208792,840.0651200651201,815.7997557997559,748.3312983312984,756.9943019943021
1624461915.59375,753.2783882783883,847.4409849409851,817.4786324786326,740.6308506308508,743.4009971509972
1624461915.6015627,747.4358974358975,854.81684981685,819.1575091575093,732.930402930403,729.8076923076924
1624461915.609375,727.6475376475377,865.5056980056982,821.955636955637,717.014652014652,731.7607855107856
1624461915.6171875,707.8591778591779,876.1945461945463,824.7537647537648,701.0989010989011,733.7138787138788
1624461915.625,688.0708180708182,886.8833943833945,827.5518925518926,685.1831501831502,735.666971916972
1624461915.6328125,668.2824582824584,897.5722425722425,830.3500203500204,669.2673992673992,737.6200651200651
1624461915.640625,648.4940984940986,908.2610907610908,833.1481481481482,653.3516483516482,739.5731583231583
1624461915.6484375,628.7057387057388,918.9499389499388,835.9462759462759,637.4358974358973,741.5262515262515
1624461915.65625,637.2248386534102,913.232164660736,832.3390894819466,644.3049014477585,753.9403453689167
1624461915.6640625,645.7439386010815,907.5143903715332,828.7319030176172,651.1739054596197,766.3544392115821
1624461915.671875,654.2630385487529,901.7966160823304,825.124716553288,658.0429094714809,778.7685330542473
1624461915.6796875,662.7821384964243,896.0788417931275,821.5175300889587,664.911913483342,791.1826268969127
1624461915.6875,671.3012384440957,890.3610675039247,817.9103436246294,671.7809174952032,803.5967207395779
1624461915.6953125,679.820338391767,884.6432932147218,814.3031571603,678.6499215070644,816.0108145822433
1624461915.703125,688.3394383394384,878.925518925519,810.6959706959707,685.5189255189256,828.4249084249085
1624461915.7109375,716.3039275539277,863.9611314611316,806.8009768009767,711.9220594220594,808.3623321123322
1624461915.71875,744.2684167684168,848.996743996744,802.9059829059829,738.3251933251934,788.2997557997559
1624461915.7265625,772.232905982906,834.0323565323565,799.0109890109891,764.7283272283273,768.2371794871796
1624461915.734375,800.1973951973953,819.0679690679691,795.1159951159951,791.1314611314612,748.1746031746032
1624461915.7421875,828.1618844118846,804.1035816035817,791.2210012210012,817.534595034595,728.1120268620269
1624461915.7500002,856.1263736263737,789.1391941391942,787.3260073260074,843.9377289377289,708.0494505494506
1624461915.7578125,866.0989010989011,784.1025641025641,789.4749694749695,864.6886446886448,697.6739926739928
1624461915.765625,876.0714285714287,779.0659340659341,791.6239316239316,885.4395604395605,687.2985347985348
1624461915.7734375,886.0439560439561,774.0293040293041,793.7728937728938,906.1904761904764,676.9230769230769
1624461915.7890625,896.2291412291413,777.9242979242979,802.1225071225072,896.005291005291,757.4308099308099
1624461915.796875,893.5205535205536,777.3870573870574,802.4135124135124,892.2669922669924,759.9715099715099
1624461915.8046875,890.8119658119658,776.8498168498169,802.7045177045177,888.5286935286936,762.5122100122101
1624461915.8125,888.1033781033782,776.3125763125763,802.9955229955231,884.7903947903948,765.0529100529101
1624461915.8203125,885.3947903947904,775.7753357753359,803.2865282865284,881.0520960520961,767.5936100936101
1624461915.828125,882.6862026862027,775.2380952380953,803.5775335775337,877.3137973137973,770.1343101343101
1624461915.8359375,879.3508343508344,774.8575498575499,803.5999185999187,875.4558404558404,758.1359381359381
1624461915.84375,876.015466015466,774.4770044770046,803.6223036223038,873.5978835978835,746.1375661375662
1624461915.8515625,872.6800976800976,774.0964590964592,803.6446886446888,871.7399267399267,734.1391941391942
1624461915.859375,869.3447293447292,773.7159137159138,803.6670736670737,869.8819698819699,722.1408221408221
1624461915.8671875,866.0093610093609,773.3353683353685,803.6894586894588,868.024013024013,710.1424501424502
1624461915.875,862.6739926739925,772.954822954823,803.7118437118438,866.1660561660561,698.1440781440782
1624461915.8828125,857.032967032967,792.1611721611722,805.8608058608058,840.5128205128206,791.3553113553114
1624461915.890625,849.7802197802198,788.6153846153846,804.934065934066,839.6263736263736,782.5311355311355
1624461915.8984373,842.5274725274725,785.0695970695971,804.007326007326,838.7399267399268,773.7069597069598
1624461915.90625,835.2747252747253,781.5238095238096,803.0805860805862,837.8534798534798,764.8827838827839
1624461915.9140625,828.0219780219779,777.9780219780221,802.1538461538462,836.967032967033,756.0586080586081
1624461915.921875,820.7692307692307,774.4322344322345,801.2271062271063,836.080586080586,747.2344322344322
1624461915.9296875,812.9120879120879,777.6556776556777,787.5274725274726,824.7985347985348,919.4871794871792
1624461915.9375,811.8935693935695,777.6780626780627,788.2997557997559,822.2242572242571,905.8323158323158
1624461915.9453125,810.8750508750509,777.7004477004477,789.0720390720392,819.6499796499796,892.1774521774521
1624461915.9531252,809.8565323565324,777.7228327228327,789.8443223443223,817.0757020757021,878.5225885225884
1624461915.9609375,808.8380138380139,777.7452177452177,790.6166056166056,814.5014245014245,864.8677248677249
1624461915.96875,807.8194953194953,777.7676027676027,791.3888888888889,811.9271469271469,851.2128612128613
1624461915.9765625,806.8009768009769,777.7899877899878,792.1611721611722,809.3528693528693,837.5579975579976
1624461915.984375,807.7411477411478,781.5730565730565,794.1086691086691,809.7334147334147,845.1465201465202
1624461915.9921875,808.6813186813188,785.3561253561254,796.0561660561661,810.11396011396,852.7350427350427
1624461916.0,809.6214896214897,789.1391941391942,798.0036630036631,810.4945054945055,860.3235653235654
1624461916.0078125,810.5616605616606,792.9222629222629,799.95115995116,810.8750508750509,867.9120879120879
1624461916.015625,811.5018315018316,796.7053317053318,801.898656898657,811.2555962555962,875.5006105006105
1624461916.0234375,812.4420024420025,800.4884004884005,803.8461538461539,811.6361416361416,883.089133089133
1624461916.03125,808.6813186813188,799.7944647944648,805.0549450549452,812.1509971509971,877.9405779405779
1624461916.0390625,804.9206349206349,799.1005291005292,806.2637362637363,812.6658526658526,872.7920227920229
1624461916.0468748,801.1599511599511,798.4065934065935,807.4725274725275,813.1807081807082,867.6434676434677
1624461916.0546875,797.3992673992674,797.7126577126578,808.6813186813188,813.6955636955637,862.4949124949126
1624461916.0625,793.6385836385837,797.0187220187222,809.8901098901099,814.2104192104192,857.3463573463575
1624461916.0703125,789.8778998778998,796.3247863247865,811.0989010989011,814.7252747252747,852.1978021978024
1624461916.078125,817.948717948718,788.9377289377289,804.2490842490843,835.6776556776557,750.2564102564103
1624461916.0859375,819.0064102564103,789.8443223443223,805.7768620268621,833.0753968253969,754.5711233211233
1624461916.09375,820.0641025641027,790.7509157509157,807.3046398046398,830.473137973138,758.8858363858365
1624461916.1015627,821.1217948717949,791.6575091575091,808.8324175824175,827.8708791208792,763.2005494505495
1624461916.109375,822.1794871794872,792.5641025641025,810.3601953601953,825.2686202686202,767.5152625152625
1624461916.1171875,823.2371794871796,793.4706959706959,811.8879731379732,822.6663614163614,771.8299755799757
1624461916.125,824.2948717948718,794.3772893772893,813.4157509157509,820.0641025641025,776.1446886446887
1624461916.1328125,826.3934676434676,797.58954008954,815.6710419210419,822.8230565730565,779.7542735042736
1624461916.140625,828.4920634920635,800.8017908017908,817.9263329263329,825.5820105820106,783.3638583638584
1624461916.1484375,830.5906593406594,804.0140415140415,820.1816239316239,828.3409645909646,786.9734432234433
1624461916.15625,832.6892551892552,807.2262922262922,822.436914936915,831.0999185999186,790.5830280830281
1624461916.1640625,834.7878510378509,810.438542938543,824.6922059422059,833.8588726088727,794.192612942613
1624461916.171875,836.8864468864468,813.6507936507937,826.9474969474969,836.6178266178267,797.8021978021978
1624461916.1796875,833.0082417582418,814.4482600732601,824.9244505494505,836.1813186813188,810.4441391941393
1624461916.1875,829.1300366300366,815.2457264957266,822.9014041514042,835.7448107448108,823.0860805860807
1624461916.1953125,825.2518315018315,816.0431929181929,820.8783577533578,835.3083028083029,835.7280219780221
1624461916.203125,821.3736263736264,816.8406593406593,818.8553113553114,834.8717948717949,848.3699633699636
1624461916.2109375,820.0417175417176,814.7868335368335,816.6671754171755,830.4619454619456,822.7503052503054
1624461916.21875,818.7098087098087,812.7330077330078,814.4790394790396,826.0520960520961,797.1306471306473
1624461916.2265625,817.3778998778998,810.6791819291819,812.2909035409036,821.6422466422466,771.5109890109891
1624461916.234375,816.0459910459911,808.6253561253561,810.1027676027676,817.2323972323973,745.8913308913309
1624461916.2421875,814.7140822140823,806.5715303215304,807.9146316646317,812.8225478225479,720.2716727716728
1624461916.2499998,813.3821733821734,804.5177045177046,805.7264957264957,808.4126984126984,694.6520146520146
1624461916.2578125,814.512617012617,805.9839234839235,806.9240944240944,812.7553927553928,683.4706959706959
1624461916.265625,815.6430606430607,807.4501424501425,808.1216931216932,817.0980870980871,672.2893772893773
1624461916.2734375,816.7735042735044,808.9163614163615,809.3192918192918,821.4407814407814,661.1080586080586
1624461916.28125,817.9039479039479,810.3825803825804,810.5168905168905,825.7834757834758,649.9267399267399
1624461916.2890625,819.0343915343916,811.8487993487993,811.7144892144893,830.1261701261701,638.7454212454212
1624461916.296875,820.1648351648353,813.3150183150183,812.9120879120879,834.4688644688645,627.5641025641025
1624461916.3046875,845.5494505494505,798.6080586080586,811.5018315018315,840.3113553113553,917.4725274725276
1624461916.3125,842.493894993895,797.2649572649573,810.0915750915751,838.509361009361,886.3125763125763
1624461916.3203125,839.4383394383394,795.9218559218559,808.6813186813187,836.7073667073668,855.1526251526252
1624461916.328125,836.3827838827839,794.5787545787546,807.2710622710622,834.9053724053724,823.992673992674
1624461916.3359375,833.3272283272283,793.2356532356533,805.8608058608058,833.1033781033781,792.8327228327228
1624461916.34375,830.2716727716728,791.892551892552,804.4505494505495,831.3013838013838,761.6727716727717
1624461916.3515625,827.2161172161173,790.5494505494506,803.040293040293,829.4993894993895,730.5128205128204
1624461916.359375,826.7460317460318,792.0772283272283,803.2081807081807,828.6823361823361,745.4548229548229
1624461916.3671875,826.2759462759464,793.6050061050062,803.3760683760684,827.8652828652829,760.3968253968254
1624461916.375,825.8058608058609,795.132783882784,803.5439560439561,827.0482295482295,775.3388278388279
1624461916.3828125,825.3357753357755,796.6605616605617,803.7118437118438,826.2311762311762,790.2808302808303
1624461916.390625,824.86568986569,798.1883394383394,803.8797313797314,825.4141229141229,805.2228327228328
1624461916.3984373,824.3956043956046,799.7161172161173,804.0476190476192,824.5970695970695,820.1648351648353
1624461916.40625,824.0150590150591,801.2774725274726,805.4914529914531,824.8992673992674,832.1520146520147
1624461916.4140625,823.6345136345137,802.8388278388279,806.935286935287,825.2014652014652,844.1391941391943
1624461916.421875,823.2539682539684,804.4001831501832,808.3791208791209,825.503663003663,856.1263736263737
1624461916.4296875,822.873422873423,805.9615384615385,809.8229548229549,825.8058608058608,868.1135531135532
1624461916.4375,822.4928774928776,807.5228937728938,811.2667887667887,826.1080586080586,880.1007326007327
1624461916.4453125,822.1123321123322,809.0842490842491,812.7106227106227,826.4102564102565,892.0879120879122
1624461916.4531252,820.6109366823653,809.5735217163789,811.9047619047619,825.3597592883308,883.712715855573
1624461916.4609375,819.1095412523985,810.0627943485086,811.0989010989011,824.3092621664051,875.337519623234
1624461916.46875,817.6081458224315,810.5520669806384,810.2930402930403,823.2587650444794,866.9623233908949
1624461916.4765625,816.1067503924647,811.0413396127682,809.4871794871794,822.2082679225537,858.5871271585557
1624461916.484375,814.6053549624978,811.530612244898,808.6813186813187,821.157770800628,850.2119309262166
1624461916.4921875,813.103959532531,812.0198848770277,807.8754578754579,820.1072736787023,841.8367346938776
1624461916.5,811.6025641025641,812.5091575091575,807.0695970695971,819.0567765567766,833.4615384615385
1624461916.5078125,810.3993691493691,813.8410663410664,804.6296296296297,815.6710419210419,827.6973951973952
1624461916.515625,809.1961741961742,815.1729751729752,802.1896621896623,812.2853072853073,821.9332519332519
1624461916.5234375,807.9929792429792,816.5048840048839,799.7496947496948,808.8995726495727,816.1691086691087
1624461916.53125,806.7897842897843,817.8367928367928,797.3097273097274,805.513838013838,810.4049654049654
1624461916.5390625,805.5865893365893,819.1687016687017,794.86975986976,802.1281033781033,804.6408221408221
1624461916.5468748,804.3833943833944,820.5006105006105,792.4297924297925,798.7423687423687,798.8766788766789
1624461916.5546875,804.6464183964184,821.3512413512414,790.8572446072446,799.1061253561254,802.4079161579161
1624461916.5625,804.9094424094425,822.2018722018722,789.2846967846968,799.469881969882,805.9391534391534
1624461916.5703125,805.1724664224664,823.052503052503,787.7121489621491,799.8336385836385,809.4703907203907
1624461916.578125,805.4354904354905,823.9031339031338,786.1396011396012,800.1973951973952,813.001628001628
1624461916.5859375,805.6985144485145,824.7537647537647,784.5670533170533,800.5611518111518,816.5328652828653
1624461916.59375,805.9615384615386,825.6043956043956,782.9945054945055,800.9249084249084,820.0641025641025
1624461916.6015627,808.3287545787547,823.4218559218559,785.260989010989,802.1169108669109,806.9856532356532
1624461916.609375,810.6959706959708,821.2393162393162,787.5274725274725,803.3089133089132,793.9072039072039
1624461916.6171875,813.0631868131869,819.0567765567765,789.7939560439561,804.5009157509157,780.8287545787546
1624461916.625,815.430402930403,816.8742368742369,792.0604395604396,805.6929181929182,767.7503052503052
1624461916.6328125,817.7976190476192,814.6916971916971,794.3269230769231,806.8849206349206,754.6718559218559
1624461916.640625,820.1648351648353,812.5091575091575,796.5934065934066,808.0769230769231,741.5934065934066
1624461916.6484375,793.4706959706959,820.7692307692307,818.5531135531136,789.5421245421246,775.7417582417584
1624461916.65625,784.1529304029303,824.0850122100121,819.568833943834,780.0228937728939,776.6063797313799
1624461916.6640625,774.8351648351648,827.4007936507936,820.5845543345544,770.5036630036631,777.4710012210013
1624461916.671875,765.5173992673992,830.7165750915751,821.6002747252747,760.9844322344322,778.3356227106228
1624461916.6796875,756.1996336996338,834.0323565323565,822.6159951159951,751.4652014652015,779.2002442002442
1624461916.6875,746.8818681318681,837.3481379731379,823.6317155067155,741.9459706959708,780.0648656898658
1624461916.6953125,737.5641025641025,840.6639194139194,824.6474358974359,732.42673992674,780.9294871794873
1624461916.703125,728.246336996337,843.9797008547009,825.6631562881563,722.9075091575091,781.7941086691087
1624461916.7109375,718.9285714285714,847.2954822954823,826.6788766788767,713.3882783882784,782.6587301587302
1624461916.71875,709.610805860806,850.6112637362637,827.6945970695971,703.8690476190477,783.5233516483516
1624461916.7265625,700.2930402930403,853.9270451770452,828.7103174603175,694.3498168498169,784.3879731379732
1624461916.734375,690.9752747252749,857.2428266178267,829.7260378510379,684.830586080586,785.2525946275946
1624461916.7421875,681.6575091575093,860.5586080586081,830.7417582417582,675.3113553113553,786.1172161172161
1624461916.7500002,665.7249694749696,866.8543956043957,831.2957875457876,660.5036630036631,764.4261294261294
1624461916.7578125,649.7924297924299,873.1501831501832,831.8498168498169,645.6959706959707,742.7350427350427
1624461916.765625,633.8598901098901,879.4459706959708,832.4038461538462,630.8882783882784,721.0439560439561
1624461916.7734375,617.9273504273505,885.7417582417582,832.9578754578754,616.0805860805862,699.3528693528693
1624461916.78125,601.9948107448108,892.0375457875458,833.5119047619047,601.2728937728938,677.6617826617826
1624461916.7890625,586.0622710622711,898.3333333333334,834.065934065934,586.4652014652015,655.9706959706959
1624461918.5703125,819.023199023199,815.1282051282051,825.8730158730159,817.2771672771673,782.4908424908426
1624461918.578125,817.3219373219373,814.4566544566544,822.0675620675621,814.8148148148149,778.909238909239
1624461918.5859375,815.6206756206756,813.7851037851037,818.2621082621083,812.3524623524623,775.3276353276354
1624461918.59375,813.919413919414,813.113553113553,814.4566544566544,809.8901098901099,771.7460317460318
1624461918.6015627,812.2181522181522,812.4420024420025,810.6512006512006,807.4277574277575,768.1644281644282
1624461918.609375,810.5168905168905,811.7704517704518,806.8457468457468,804.9654049654049,764.5828245828246
1624461918.6171875,808.8156288156288,811.0989010989011,803.040293040293,802.5030525030525,761.001221001221
1624461918.625,805.9363553113553,810.0160256410256,808.228021978022,806.5407509157509,763.8553113553114
1624461918.6328125,803.0570818070818,808.9331501831502,813.4157509157509,810.5784493284493,766.7094017094017
1624461918.640625,800.1778083028082,807.8502747252747,818.6034798534798,814.6161477411478,769.563492063492
1624461918.6484375,797.2985347985348,806.7673992673992,823.7912087912088,818.6538461538462,772.4175824175825
1624461918.65625,800.9864672364672,803.9972527472528,825.4141229141229,818.8944851444852,776.0887260887262
1624461918.6640625,804.6743996743996,801.2271062271062,827.0370370370371,819.1351241351241,779.7598697598698
1624461918.671875,808.3623321123321,798.4569597069597,828.6599511599511,819.3757631257631,783.4310134310135
1624461918.6796875,812.0502645502646,795.6868131868132,830.2828652828653,819.6164021164021,787.1021571021571
1624461918.6875,815.738196988197,792.9166666666667,831.9057794057794,819.857041107041,790.7733007733008
1624461918.6953125,819.4261294261295,790.1465201465202,833.5286935286936,820.09768009768,794.4444444444445
1624461918.703125,818.9448514448516,790.885225885226,830.9656084656085,819.8066748066748,782.9497354497355
1624461918.7109375,818.4635734635735,791.6239316239316,828.4025234025235,819.5156695156695,771.4550264550264
1624461918.71875,817.9822954822955,792.3626373626373,825.8394383394384,819.2246642246641,759.9603174603175
1624461918.7265625,817.5010175010176,793.1013431013431,823.2763532763532,818.9336589336589,748.4656084656085
1624461918.734375,817.0197395197397,793.8400488400489,820.7132682132682,818.6426536426536,736.9708994708994
1624461918.7421875,816.5384615384617,794.5787545787546,818.1501831501831,818.3516483516484,725.4761904761905
1624461918.7500002,822.3809523809523,808.2783882783883,822.3809523809524,816.3369963369964,836.2820512820513
1624461918.7578125,819.4597069597069,806.431623931624,821.8437118437118,816.7399267399269,849.7466422466422
1624461918.765625,816.5384615384614,804.5848595848596,821.3064713064713,817.1428571428572,863.2112332112332
1624461918.7734375,813.617216117216,802.7380952380953,820.7692307692307,817.5457875457876,876.6758241758241
1624461918.78125,810.6959706959707,800.891330891331,820.2319902319903,817.948717948718,890.140415140415
1624461918.7890625,807.7747252747253,799.0445665445666,819.6947496947497,818.3516483516485,903.605006105006
1624461918.796875,804.8534798534798,797.1978021978023,819.1575091575091,818.7545787545788,917.069597069597
1624461918.8046875,815.7326007326008,811.098901098901,815.5311355311355,835.8791208791208,753.882783882784
1624461918.8125,815.9172771672772,811.8711843711843,814.9603174603175,833.2264957264957,752.6236263736265
1624461918.8203125,816.1019536019536,812.6434676434676,814.3894993894994,830.5738705738705,751.364468864469
1624461918.828125,816.28663003663,813.4157509157509,813.8186813186813,827.9212454212454,750.1053113553114
1624461918.8359375,816.4713064713064,814.1880341880342,813.2478632478633,825.2686202686203,748.8461538461539
1624461918.84375,816.6559829059829,814.9603174603175,812.6770451770452,822.6159951159951,747.5869963369964
1624461918.8515625,816.8406593406593,815.7326007326008,812.1062271062272,819.96336996337,746.327838827839
1624461918.859375,824.1941391941392,816.2026862026862,809.6214896214897,818.7545787545788,717.6862026862028
1624461918.8671875,831.547619047619,816.6727716727717,807.1367521367522,817.5457875457876,689.0445665445666
1624461918.875,838.901098901099,817.1428571428571,804.6520146520147,816.3369963369963,660.4029304029305
1624461918.8828125,824.6642246642247,806.1294261294261,814.5909645909646,819.1575091575091,801.2942612942612
1624461918.890625,823.1420431420431,803.8013838013837,815.6206756206757,820.6349206349206,786.6768416768416
1624461918.8984373,821.6198616198616,801.4733414733414,816.6503866503867,822.1123321123321,772.059422059422
1624461918.90625,820.09768009768,799.1452991452991,817.6800976800978,823.5897435897436,757.4420024420024
1624461918.9140625,818.5754985754986,796.8172568172569,818.7098087098087,825.0671550671551,742.8245828245829
1624461918.921875,817.0533170533171,794.4892144892145,819.7395197395198,826.5445665445666,728.2071632071633
1624461918.9296875,815.5311355311355,792.1611721611722,820.7692307692308,828.021978021978,713.5897435897436
1624461918.9375,826.5445665445665,810.4273504273505,825.6043956043956,827.0818070818071,962.197802197802
1624461918.9453125,825.5660212803069,808.5470085470085,823.1868131868132,826.1416361416362,942.4733996162566
1624461918.9531252,824.5874760160474,806.6666666666667,820.7692307692307,825.2014652014652,922.7489970347112
1624461918.9609375,823.6089307517879,804.7863247863248,818.3516483516484,824.2612942612943,903.0245944531656
1624461918.96875,822.6303854875282,802.905982905983,815.934065934066,823.3211233211233,883.3001918716203
1624461918.9765625,821.6518402232687,801.0256410256411,813.5164835164836,822.3809523809524,863.5757892900749
1624461918.984375,820.6732949590091,799.1452991452993,811.0989010989011,821.4407814407814,843.8513867085295
1624461918.9921875,819.6947496947496,797.2649572649574,808.6813186813188,820.5006105006105,824.1269841269841
1624461919.0,817.6417233560089,796.7660910518055,806.8393511250655,818.5435199720914,806.8009768009767
1624461919.0078125,815.5886970172684,796.2672248386535,804.9973835688122,816.5864294435723,789.4749694749695
1624461919.015625,813.5356706785277,795.7683586255016,803.1554160125589,814.6293389150533,772.1489621489621
1624461919.0234375,811.4826443397872,795.2694924123497,801.3134484563057,812.6722483865341,754.8229548229548
1624461919.03125,809.4296180010465,794.7706261991977,799.4714809000524,810.715157858015,737.4969474969474
1624461919.0390625,807.3765916623059,794.2717599860458,797.6295133437991,808.7580673294959,720.1709401709402
1624461919.0468748,805.3235653235653,793.7728937728939,795.7875457875458,806.8009768009769,702.8449328449328
1624461919.0546875,801.8091168091167,800.9249084249085,793.5714285714286,808.2336182336182,742.1530321530321
1624461919.0625,798.2946682946683,808.0769230769231,791.3553113553114,809.6662596662597,781.4611314611315
1624461919.0703125,794.7802197802198,815.2289377289377,789.1391941391942,811.0989010989011,820.7692307692307
1624461919.078125,793.4658991801849,818.4379905808477,781.1861154718298,801.8890633176347,814.2072213500785
1624461919.0859375,792.15157858015,821.6470434327576,773.2330368044654,792.6792255363684,807.6452119309262
1624461919.09375,790.8372579801152,824.8560962846676,765.2799581371011,783.469387755102,801.083202511774
1624461919.1015627,789.5229373800803,828.0651491365777,757.3268794697366,774.2595499738356,794.5211930926216
1624461919.109375,788.2086167800454,831.2742019884877,749.3738008023722,765.0497121925692,787.9591836734694
1624461919.1171875,786.8942961800105,834.4832548403976,741.4207221350078,755.839874411303,781.3971742543171
1624461919.125,785.5799755799757,837.6923076923076,733.4676434676435,746.6300366300366,774.8351648351648
1624461919.1328125,791.4000814000815,835.9462759462759,733.0199430199431,753.076923076923,773.894993894994
1624461919.140625,797.2201872201872,834.2002442002441,732.5722425722425,759.5238095238095,772.9548229548229
1624461919.1484375,803.040293040293,832.4542124542124,732.1245421245421,765.9706959706959,772.014652014652
1624461919.15625,808.2783882783883,835.8119658119658,770.0,794.5787545787547,821.3064713064714
1624461919.1640625,810.5616605616606,833.9092389092389,773.021978021978,799.2796092796094,789.2511192511193
1624461919.171875,812.8449328449328,832.006512006512,776.0439560439561,803.980463980464,757.1957671957673
1624461919.1796875,815.1282051282051,830.1037851037852,779.065934065934,808.6813186813188,725.1404151404151
1624461919.1875,817.4114774114774,828.2010582010582,782.0879120879121,813.3821733821735,693.0850630850631
1624461919.1953125,819.6947496947497,826.2983312983313,785.1098901098901,818.0830280830281,661.029711029711
1624461919.203125,821.978021978022,824.3956043956044,788.1318681318681,822.7838827838829,628.974358974359
1624461919.2109375,841.3186813186813,826.0073260073261,798.003663003663,816.5384615384615,703.7179487179487
1624461919.21875,839.3711843711844,823.1868131868133,799.95115995116,820.1984126984127,768.9255189255189
1624461919.2265625,837.4236874236875,820.3663003663004,801.8986568986569,823.8583638583639,834.1330891330891
1624461919.234375,835.4761904761906,817.5457875457876,803.8461538461539,827.518315018315,899.3406593406593
1624461919.2421875,832.964590964591,816.1041921041922,805.1265771265772,827.5653235653235,883.4114774114773
1624461919.2499998,830.4529914529916,814.6625966625967,806.4070004070005,827.6123321123321,867.4822954822954
1624461919.2578125,827.941391941392,813.2210012210013,807.6874236874238,827.6593406593406,851.5531135531135
1624461919.265625,825.4297924297924,811.7794057794058,808.9678469678471,827.7063492063492,835.6239316239315
1624461919.2734375,822.918192918193,810.3378103378104,810.2482702482703,827.7533577533577,819.6947496947496
1624461919.28125,820.4065934065934,808.8962148962149,811.5286935286936,827.8003663003662,803.7655677655678
1624461919.2890625,817.8949938949938,807.4546194546195,812.8091168091169,827.8473748473748,787.8363858363858
1624461919.296875,815.3833943833944,806.013024013024,814.0895400895402,827.8943833943833,771.9072039072039
1624461919.3046875,812.8717948717948,804.5714285714287,815.3699633699634,827.9413919413919,755.978021978022
1624461919.3125,817.1428571428571,810.4945054945056,807.0695970695971,816.1355311355312,817.7472527472528
1624461919.3203125,816.7063492063492,812.3412698412699,806.935286935287,816.723137973138,806.1630036630037
1624461919.328125,816.2698412698413,814.1880341880342,806.8009768009769,817.310744810745,794.5787545787546
1624461919.3359375,815.8333333333334,816.0347985347985,806.6666666666667,817.8983516483518,782.9945054945056
1624461919.34375,815.3968253968254,817.8815628815629,806.5323565323565,818.4859584859586,771.4102564102565
1624461919.3515625,814.9603174603176,819.7283272283272,806.3980463980464,819.0735653235655,759.8260073260074
1624461919.359375,814.5238095238096,821.5750915750915,806.2637362637363,819.6611721611723,748.2417582417582
1624461919.3671875,816.4713064713065,818.8888888888888,809.3528693528693,814.5238095238096,717.4847374847375
1624461919.375,818.4188034188035,816.2026862026862,812.4420024420025,809.386446886447,686.7277167277167
1624461919.3828125,820.3663003663004,813.5164835164835,815.5311355311355,804.2490842490843,655.9706959706959
1624461919.390625,812.8449328449328,814.0537240537241,802.5030525030526,793.2356532356533,768.9255189255191
1624461919.3984373,811.4458689458689,815.5255392755394,802.710113960114,796.6157916157917,792.7431827431828
1624461919.40625,810.046805046805,816.9973544973545,802.9171754171755,799.99592999593,816.5608465608467
1624461919.4140625,808.6477411477412,818.4691697191697,803.1242368742369,803.3760683760684,840.3785103785104
1624461919.421875,807.2486772486773,819.940984940985,803.3312983312983,806.7562067562068,864.1961741961742
1624461919.4296875,805.8496133496134,821.4128001628003,803.5383597883598,810.1363451363452,888.013838013838
1624461919.4375,804.4505494505495,822.8846153846155,803.7454212454212,813.5164835164835,911.8315018315018
1624461919.4453125,807.6404151404151,819.7115384615386,802.0833333333333,813.6284086284086,882.6862026862027
1624461919.4531252,810.8302808302809,816.5384615384617,800.4212454212454,813.7403337403338,853.5409035409035
1624461919.4609375,814.0201465201466,813.3653846153848,798.7591575091575,813.8522588522588,824.3956043956043
1624461919.46875,817.2100122100122,810.1923076923077,797.0970695970695,813.9641839641839,795.2503052503052
1624461919.4765625,820.399877899878,807.0192307692308,795.4349816849817,814.0761090761091,766.1050061050062
1624461919.484375,823.5897435897436,803.8461538461539,793.7728937728938,814.1880341880342,736.959706959707
1624461919.4921875,824.2612942612943,804.416971916972,794.8473748473748,811.8264143264144,731.3522588522588
1624461919.5,824.932844932845,804.98778998779,795.9218559218559,809.4647944647945,725.7448107448107
1624461919.5078125,825.6043956043957,805.5586080586081,796.996336996337,807.1031746031747,720.1373626373627
1624461919.515625,826.2759462759464,806.1294261294262,798.0708180708181,804.7415547415548,714.5299145299145
1624461919.5234375,826.947496947497,806.7002442002442,799.1452991452991,802.3799348799349,708.9224664224664
1624461919.53125,827.6190476190477,807.2710622710623,800.2197802197802,800.0183150183151,703.3150183150183
1624461919.5390625,822.1794871794872,807.0695970695971,806.868131868132,814.5238095238096,852.6007326007326
1624461919.5468748,819.3253968253969,805.927960927961,804.7695360195361,813.7683150183151,851.3415750915751
1624461919.5546875,816.4713064713065,804.7863247863248,802.6709401709403,813.0128205128206,850.0824175824176
1624461919.5625,813.6172161172162,803.6446886446886,800.5723443223444,812.2573260073261,848.8232600732601
1624461919.5703125,810.7631257631258,802.5030525030525,798.4737484737485,811.5018315018316,847.5641025641027
1624461919.578125,807.9090354090355,801.3614163614163,796.3751526251527,810.746336996337,846.3049450549452
1624461919.5859375,805.0549450549452,800.2197802197802,794.2765567765568,809.9908424908425,845.0457875457877
1624461919.59375,804.3330280830282,800.8409645909646,793.1349206349207,809.4200244200244,852.5503663003664
1624461919.6015627,803.6111111111112,801.462148962149,791.9932844932845,808.8492063492064,860.0549450549452
1624461919.609375,802.8891941391942,802.0833333333334,790.8516483516484,808.2783882783883,867.5595238095239
1624461919.6171875,802.1672771672772,802.7045177045178,789.7100122100122,807.7075702075701,875.0641025641025
1624461919.625,801.4453601953603,803.3257020757021,788.568376068376,807.1367521367521,882.5686813186813
1624461919.6328125,800.7234432234433,803.9468864468865,787.4267399267399,806.565934065934,890.07326007326
1624461919.640625,802.5198412698413,806.4148351648353,788.0815018315018,806.6498778998779,855.6898656898657
1624461919.6484375,804.3162393162394,808.882783882784,788.7362637362637,806.7338217338217,821.3064713064713
1624461919.65625,806.1126373626373,811.3507326007327,789.3910256410256,806.8177655677655,786.9230769230769
1624461919.6640625,807.9090354090354,813.8186813186813,790.0457875457876,806.9017094017094,752.5396825396825
1624461919.671875,809.7054334554334,816.2866300366301,790.7005494505495,806.9856532356532,718.1562881562882
1624461919.6796875,811.5018315018315,818.7545787545788,791.3553113553114,807.0695970695971,683.7728937728938
1624461919.6875,818.9560439560439,807.6739926739926,794.1758241758242,812.5091575091576,792.3626373626374
1624461919.6953125,814.0,806.1025641025641,794.8205128205128,811.0183150183151,738.5714285714287
1624461919.703125,809.0439560439561,804.5311355311355,795.4652014652015,809.5274725274726,684.7802197802198
1624461919.7109375,804.0879120879121,802.959706959707,796.1098901098901,808.0366300366301,630.989010989011
1624461919.71875,799.1318681318681,801.3882783882784,796.7545787545788,806.5457875457876,577.1978021978023
1624461919.7265625,794.1758241758242,799.8168498168499,797.3992673992674,805.054945054945,523.4065934065934
1624461919.734375,798.3394383394384,811.5018315018315,798.8766788766789,817.1428571428572,770.4029304029305
1624461919.7421875,801.3558201058202,809.806166056166,801.3670126170126,817.6297313797314,790.6837606837607
1624461919.7500002,804.3722018722019,808.1105006105006,803.8573463573464,818.1166056166056,810.964590964591
1624461919.7578125,807.3885836385837,806.4148351648352,806.34768009768,818.6034798534799,831.2454212454213
1624461919.765625,810.4049654049654,804.7191697191697,808.8380138380138,819.0903540903541,851.5262515262516
1624461919.7734375,813.4213471713472,803.0235042735043,811.3283475783476,819.5772283272283,871.8070818070819
1624461919.78125,816.4377289377289,801.3278388278388,813.8186813186813,820.0641025641025,892.0879120879122
1624461919.7890625,818.1669719169719,803.191391941392,813.768315018315,819.4093406593406,860.3235653235654
1624461919.796875,819.8962148962149,805.054945054945,813.7179487179487,818.7545787545788,828.5592185592186
1624461919.8046875,821.6254578754579,806.9184981684982,813.6675824175825,818.0998168498169,796.7948717948718
1624461919.8125,823.3547008547008,808.7820512820514,813.6172161172161,817.445054945055,765.030525030525
1624461919.8203125,825.0839438339439,810.6456043956044,813.5668498168498,816.7902930402931,733.2661782661783
1624461919.828125,826.8131868131868,812.5091575091576,813.5164835164835,816.1355311355312,701.5018315018315
1624461919.8359375,815.0274725274726,829.835164835165,818.7545787545788,814.8260073260074,740.6868131868132
1624461919.84375,803.6195054945056,834.3513431013432,819.6164021164021,804.1399572649573,734.9030830280831
1624461919.8515625,792.2115384615386,838.8675213675215,820.4782254782256,793.4539072039072,729.119352869353
1624461919.859375,780.8035714285714,843.3836996336997,821.3400488400489,782.7678571428571,723.3356227106227
1624461919.8671875,769.3956043956044,847.899877899878,822.2018722018722,772.0818070818071,717.5518925518926
1624461919.875,757.9876373626374,852.4160561660563,823.0636955636957,761.3957570207571,711.7681623931625
1624461919.8828125,746.5796703296703,856.9322344322345,823.925518925519,750.709706959707,705.9844322344322
1624461919.890625,735.1717032967033,861.4484126984128,824.7873422873423,740.0236568986569,700.2007020757021
1624461919.8984373,723.7637362637363,865.964590964591,825.6491656491658,729.3376068376068,694.416971916972
1624461919.90625,712.3557692307693,870.4807692307693,826.5109890109891,718.6515567765568,688.6332417582419
1624461919.9140625,700.9478021978023,874.9969474969475,827.3728123728124,707.9655067155068,682.8495115995117
1624461919.921875,689.5398351648352,879.5131257631258,828.2346357346358,697.2794566544567,677.0657814407815
1624461919.9296875,678.1318681318681,884.0293040293041,829.0964590964592,686.5934065934066,671.2820512820514
1624461919.9375,661.1192511192511,894.6174196174196,836.3044363044364,668.2153032153033,701.7032967032968
1624461919.9453125,644.1066341066341,905.2055352055352,843.5124135124136,649.8371998371998,732.1245421245422
1624461919.9531252,627.0940170940171,915.7936507936508,850.7203907203907,631.4590964590964,762.5457875457876
1624461919.9609375,610.0814000814,926.3817663817664,857.928367928368,613.080993080993,792.967032967033
1624461919.96875,593.0687830687831,936.969881969882,865.1363451363452,594.7028897028897,823.3882783882784
1624461919.9765625,576.056166056166,947.5579975579976,872.3443223443223,576.3247863247863,853.8095238095239
1624461919.984375,544.3589743589744,911.4285714285714,876.3736263736264,570.5494505494505,851.7948717948718
1624461919.9921875,569.4078144078144,893.6660561660561,865.8302808302809,590.8974358974359,850.3174603174604
1624461920.0,594.4566544566545,875.9035409035409,855.2869352869353,611.2454212454212,848.8400488400488
1624461920.0078125,619.5054945054945,858.1410256410256,844.7435897435898,631.5934065934066,847.3626373626373
1624461920.015625,649.2887667887668,849.763431013431,835.7951770451772,661.2423687423687,841.5705128205128
1624461920.0234375,679.0720390720392,841.3858363858363,826.8467643467644,690.8913308913309,835.7783882783883
1624461920.03125,708.8553113553114,833.0082417582418,817.8983516483518,720.5402930402931,829.9862637362637
1624461920.0390625,738.6385836385837,824.6306471306472,808.9499389499391,750.1892551892553,824.1941391941392
1624461920.0468748,768.421855921856,816.2530525030525,800.0015262515263,779.8382173382174,818.4020146520147
1624461920.0546875,798.2051282051283,807.8754578754579,791.0531135531137,809.4871794871796,812.6098901098902
1624461920.0625,815.430402930403,806.9688644688645,788.9209401709403,823.925518925519,819.1071428571429
1624461920.0703125,832.6556776556778,806.0622710622711,786.7887667887669,838.3638583638584,825.6043956043957
1624461920.078125,849.8809523809525,805.1556776556777,784.6565934065935,852.802197802198,832.1016483516485
1624461920.0859375,867.1062271062272,804.2490842490843,782.5244200244201,867.2405372405374,838.5989010989011
1624461920.09375,884.3315018315019,803.3424908424909,780.3922466422467,881.6788766788768,845.0961538461538
1624461920.1015627,901.5567765567766,802.4358974358975,778.2600732600733,896.1172161172162,851.5934065934066
1624461920.109375,930.970695970696,784.7069597069598,766.3736263736264,901.3553113553114,703.7179487179487
1624461920.1171875,927.2659747659748,780.8231583231584,767.8286528286528,903.034188034188,738.4483109483109
1624461920.125,923.5612535612536,776.939356939357,769.2836792836792,904.7130647130648,773.1786731786732
1624461920.1328125,919.8565323565324,773.0555555555557,770.7387057387057,906.3919413919416,807.9090354090354
1624461920.140625,916.1518111518112,769.1717541717542,772.1937321937322,908.0708180708182,842.6393976393975
1624461920.1484375,912.44708994709,765.2879527879528,773.6487586487586,909.7496947496948,877.3697598697597
1624461920.15625,908.7423687423689,761.4041514041514,775.1037851037851,911.4285714285716,912.100122100122
1624461920.171875,908.4289784289784,761.1803011803012,776.6931216931217,910.2197802197804,886.4245014245014
1624461920.1796875,908.2722832722832,761.0683760683761,777.4877899877899,909.6153846153848,873.5866910866911
1624461920.1875,908.115588115588,760.956450956451,778.2824582824583,909.0109890109892,860.7488807488808
1624461920.1953125,907.958892958893,760.8445258445258,779.0771265771266,908.4065934065936,847.9110704110705
1624461920.203125,907.8021978021978,760.7326007326008,779.8717948717949,907.802197802198,835.0732600732601
1624461920.2109375,909.81684981685,761.941391941392,775.2380952380953,902.967032967033,891.2820512820513
1624461920.21875,906.9963369963372,759.5238095238095,776.5274725274726,898.6959706959707,862.3516483516484
1624461920.2265625,904.1758241758243,757.1062271062272,777.8168498168499,894.4249084249085,833.4212454212454
1624461920.234375,901.3553113553114,754.6886446886447,779.1062271062272,890.1538461538462,804.4908424908425
1624461920.2421875,898.5347985347986,752.2710622710623,780.3956043956044,885.882783882784,775.5604395604396
1624461920.2499998,895.7142857142858,749.8534798534798,781.6849816849817,881.6117216117217,746.6300366300367
1624461920.2578125,884.5665445665446,774.835164835165,803.9804639804639,879.1941391941392,870.3296703296704
1624461920.265625,873.5531135531136,778.5510785510786,799.9063899063899,870.4192104192105,839.93080993081
1624461920.2734375,862.5396825396826,782.2669922669922,795.8323158323158,861.6442816442817,809.5319495319495
1624461920.28125,851.5262515262516,785.9829059829059,791.7582417582418,852.869352869353,779.1330891330891
1624461920.2890625,849.4444444444446,786.6544566544566,788.3557183557184,851.0113960113961,764.1351241351241
1624461920.296875,847.3626373626374,787.3260073260072,784.953194953195,849.1534391534392,749.1371591371592
1624461920.3046875,845.2808302808303,787.9975579975579,781.5506715506715,847.2954822954823,734.1391941391942
1624461920.3125,843.1990231990233,788.6691086691086,778.1481481481482,845.4375254375256,719.1412291412291
1624461920.3203125,841.1172161172162,789.3406593406593,774.7456247456248,843.5795685795687,704.1432641432642
1624461920.328125,839.0354090354091,790.01221001221,771.3431013431014,841.7216117216118,689.1452991452992
1624461920.3359375,840.5911680911681,789.598087098087,773.2010582010582,840.8821733821735,709.1687016687017
1624461920.34375,842.1469271469272,789.1839641839641,775.0590150590151,840.0427350427351,729.1921041921042
1624461920.3515625,843.7026862026862,788.7698412698412,776.916971916972,839.2032967032967,749.2155067155068
1624461920.359375,845.2584452584454,788.3557183557184,778.7749287749288,838.3638583638584,769.2389092389092
1624461920.3671875,846.8142043142044,787.9415954415955,780.6328856328856,837.5244200244201,789.2623117623117
1624461920.375,848.3699633699634,787.5274725274726,782.4908424908425,836.6849816849817,809.2857142857142
1624461920.3828125,817.948717948718,789.1391941391942,795.3846153846155,841.7216117216117,983.3516483516486
1624461920.390625,819.5828245828246,788.8146113146113,798.966218966219,838.968253968254,944.7262922262923
1624461920.3984373,821.2169312169312,788.4900284900285,802.5478225478226,836.2148962148963,906.1009361009362
1624461920.40625,822.851037851038,788.1654456654458,806.1294261294262,833.4615384615386,867.4755799755801
1624461920.4140625,824.4851444851446,787.8408628408629,809.7110297110297,830.7081807081807,828.850223850224
1624461920.421875,826.1192511192512,787.51628001628,813.2926332926334,827.954822954823,790.2248677248679
1624461920.4296875,827.7533577533578,787.1916971916972,816.8742368742369,825.2014652014653,751.5995115995116
1624461920.4375,828.939763939764,787.3483923483924,819.0679690679691,826.9642857142858,748.6223036223037
1624461920.4453125,830.1261701261702,787.5050875050875,821.2617012617013,828.7271062271063,745.6450956450957
1624461920.4531252,831.3125763125763,787.6617826617828,823.4554334554334,830.4899267399269,742.6678876678877
1624461920.4609375,832.4989824989825,787.818477818478,825.6491656491656,832.2527472527473,739.6906796906798
1624461920.46875,833.6853886853887,787.9751729751731,827.8428978428979,834.0155677655678,736.7134717134718
1624461920.4765625,834.8717948717949,788.1318681318683,830.0366300366301,835.7783882783883,733.7362637362638
1624461920.484375,837.916157916158,792.922262922263,829.3874643874644,836.3436100936101,747.950752950753
1624461920.4921875,840.9605209605211,797.7126577126578,828.7382987382988,836.9088319088319,762.1652421652423
1624461920.5,844.0048840048842,802.5030525030526,828.0891330891332,837.4740537240536,776.3797313797314
1624461920.5078125,847.0492470492471,807.2934472934473,827.4399674399675,838.0392755392755,790.5942205942206
1624461920.515625,850.0936100936102,812.0838420838421,826.7908017908019,838.6044973544973,804.8087098087099
1624461920.5234375,853.1379731379733,816.8742368742369,826.1416361416362,839.1697191697191,819.023199023199
1624461920.53125,848.1461131461133,816.6503866503867,823.8024013024014,836.2204924704924,826.0464997964998
1624461920.5390625,843.1542531542533,816.4265364265365,821.4631664631665,833.2712657712658,833.0698005698006
1624461920.5468748,838.1623931623933,816.2026862026862,819.1239316239316,830.3220390720392,840.0931013431014
1624461920.5546875,833.1705331705332,815.9788359788361,816.7846967846968,827.3728123728124,847.1164021164022
1624461920.5625,828.1786731786732,815.7549857549859,814.4454619454621,824.4235856735858,854.139702889703
1624461920.5703125,823.1868131868132,815.5311355311356,812.1062271062272,821.4743589743591,861.1630036630038
1624461920.578125,822.0931449502879,812.5571254142684,811.5018315018316,820.4526425954998,828.9525553811269
1624461920.5859375,820.9994767137624,809.583115297401,810.8974358974359,819.4309262166406,796.7421070992501
1624461920.59375,819.9058084772371,806.6091051805338,810.2930402930403,818.4092098377813,764.5316588173732
1624461920.6015627,818.8121402407116,803.6350950636665,809.6886446886447,817.3874934589221,732.3212105354963
1624461920.609375,817.7184720041863,800.6610849467993,809.0842490842491,816.3657770800628,700.1107622536194
1624461920.6171875,816.6248037676609,797.6870748299319,808.4798534798534,815.3440607012036,667.9003139717427
1624461920.625,815.5311355311355,794.7130647130647,807.8754578754579,814.3223443223443,635.6898656898658
1624461920.6328125,814.8595848595849,796.1457061457061,818.038258038258,819.3813593813594,685.2950752950753
1624461920.640625,814.1880341880343,797.5783475783476,828.2010582010583,824.4403744403744,734.9002849002849
1624461920.6484375,813.5164835164836,799.010989010989,838.3638583638585,829.4993894993895,784.5054945054944
1624461920.65625,840.1098901098901,800.2197802197802,864.6886446886447,839.7069597069598,702.3076923076924
1624461920.6640625,837.4505494505495,802.8388278388278,861.1428571428571,839.5457875457876,714.1135531135532
1624461920.671875,834.7912087912088,805.4578754578754,857.5970695970695,839.3846153846155,725.919413919414
1624461920.6796875,832.1318681318681,808.0769230769231,854.0512820512821,839.2234432234433,737.7252747252747
1624461920.6875,829.4725274725274,810.6959706959707,850.5054945054945,839.0622710622712,749.5311355311355
1624461920.6953125,826.8131868131868,813.3150183150183,846.959706959707,838.901098901099,761.3369963369963
1624461920.703125,818.956043956044,793.974358974359,830.0366300366301,837.6923076923077,913.4432234432236
1624461920.7109375,818.8888888888889,793.7728937728938,828.5592185592186,834.5360195360196,876.8605006105007
1624461920.71875,818.8217338217339,793.5714285714286,827.0818070818071,831.3797313797314,840.2777777777779
1624461920.7265625,818.7545787545788,793.3699633699634,825.6043956043957,828.2234432234433,803.6950549450551
1624461920.734375,818.6874236874237,793.1684981684982,824.1269841269841,825.0671550671551,767.1123321123322
1624461920.7421875,818.6202686202687,792.967032967033,822.6495726495726,821.910866910867,730.5296092796093
1624461920.7500002,818.5531135531136,792.7655677655678,821.1721611721612,818.7545787545788,693.9468864468865
1624461920.7578125,815.2065527065528,792.1499796499796,817.9263329263329,818.956043956044,728.134411884412
1624461920.765625,811.8599918599919,791.5343915343915,814.6805046805047,819.1575091575091,762.3219373219374
1624461920.7734375,808.513431013431,790.9188034188035,811.4346764346765,819.3589743589744,796.5094627594628
1624461920.78125,805.1668701668702,790.3032153032153,808.1888481888482,819.5604395604396,830.6969881969884
1624461920.7890625,801.8203093203093,789.6876271876272,804.9430199430199,819.7619047619047,864.8845136345138
1624461920.796875,798.4737484737485,789.072039072039,801.6971916971917,819.9633699633699,899.0720390720393
1624461920.8046875,799.3019943019943,793.011803011803,802.1001221001221,818.2397232397232,874.0679690679692
1624461920.8125,800.1302401302402,796.951566951567,802.5030525030525,816.5160765160765,849.0638990638993
1624461920.8203125,800.9584859584859,800.8913308913309,802.9059829059829,814.7924297924299,824.0598290598292
1624461920.828125,801.7867317867317,804.8310948310948,803.3089133089134,813.0687830687831,799.0557590557592
1624461920.8359375,802.6149776149775,808.7708587708588,803.7118437118437,811.3451363451363,774.0516890516892
1624461920.84375,803.4432234432234,812.7106227106227,804.1147741147741,809.6214896214897,749.0476190476192
1624461920.8515625,802.9731379731379,817.6800976800977,795.6532356532357,803.4656084656085,767.851037851038
1624461920.859375,802.5030525030525,822.6495726495726,787.1916971916972,797.3097273097274,786.6544566544568
1624461920.8671875,802.032967032967,827.6190476190477,778.7301587301588,791.1538461538462,805.4578754578756
1624461920.875,801.5628815628816,832.5885225885227,770.2686202686203,784.997964997965,824.2612942612943
1624461920.8828125,801.0927960927961,837.5579975579976,761.8070818070819,778.8420838420839,843.0647130647131
1624461920.890625,800.6227106227107,842.5274725274726,753.3455433455434,772.6862026862027,861.868131868132
1624461920.8984373,803.6894586894587,841.900691900692,756.0989010989011,777.8795278795279,835.3642653642654
1624461920.90625,806.7562067562068,841.2739112739114,758.852258852259,783.0728530728531,808.860398860399
1624461920.9140625,809.8229548229549,840.6471306471308,761.6056166056167,788.2661782661783,782.3565323565324
1624461920.921875,812.8897028897029,840.0203500203501,764.3589743589744,793.4595034595035,755.8526658526658
1624461920.9296875,815.9564509564509,839.3935693935695,767.1123321123322,798.6528286528287,729.3487993487994
1624461920.9375,819.023199023199,838.7667887667889,769.8656898656899,803.8461538461539,702.8449328449328
1624461920.9453125,831.2454212454213,815.1282051282052,773.6263736263736,806.2637362637363,1326.849816849817
1624461920.9531252,829.3919413919415,815.6923076923077,773.3846153846154,808.8424908424909,1212.014652014652
1624461920.9609375,827.5384615384615,816.2564102564103,773.1428571428571,811.4212454212454,1097.1794871794873
1624461920.96875,825.6849816849817,816.8205128205129,772.901098901099,814.0,982.3443223443224
1624461920.9765625,823.8315018315018,817.3846153846155,772.6593406593407,816.5787545787546,867.5091575091575
1624461920.984375,821.978021978022,817.948717948718,772.4175824175825,819.1575091575091,752.6739926739926
1624461920.9921875,817.5457875457874,818.7545787545787,780.0732600732603,814.7252747252747,791.892551892552
1624461921.0,817.1652421652421,816.9413919413919,781.841676841677,814.1208791208792,810.2035002035003
1624461921.0078125,816.7846967846967,815.1282051282051,783.6100936100937,813.5164835164835,828.5144485144486
1624461921.015625,816.4041514041514,813.3150183150183,785.3785103785106,812.9120879120879,846.825396825397
1624461921.0234375,816.0236060236061,811.5018315018315,787.1469271469273,812.3076923076924,865.1363451363453
1624461921.03125,815.6430606430607,809.6886446886447,788.915343915344,811.7032967032967,883.4472934472936
1624461921.0390625,815.2625152625154,807.8754578754579,790.6837606837607,811.0989010989011,901.758241758242
1624461921.0468748,815.1729751729753,807.6739926739926,789.2511192511192,812.3748473748474,878.4554334554336
1624461921.0546875,815.0834350834352,807.4725274725275,787.8184778184778,813.6507936507937,855.1526251526253
1624461921.0625,814.9938949938951,807.2710622710623,786.3858363858365,814.92673992674,831.849816849817
1624461921.0703125,814.9043549043549,807.0695970695971,784.953194953195,816.2026862026862,808.5470085470087
1624461921.078125,814.8148148148149,806.868131868132,783.5205535205534,817.4786324786326,785.2442002442003
1624461921.0859375,814.7252747252747,806.6666666666667,782.0879120879121,818.7545787545788,761.941391941392
1624461921.09375,809.6214896214897,802.1001221001221,792.4297924297925,807.2039072039073,787.7289377289377
1624461921.1015627,810.3154253154254,803.5327635327635,793.1684981684982,807.2262922262923,782.3341473341474
1624461921.109375,811.009361009361,804.965404965405,793.907203907204,807.2486772486773,776.9393569393569
1624461921.1171875,811.7032967032967,806.3980463980464,794.6459096459098,807.2710622710623,771.5445665445666
1624461921.125,812.3972323972324,807.8306878306878,795.3846153846155,807.2934472934473,766.1497761497762
1624461921.1328125,813.091168091168,809.2633292633293,796.1233211233211,807.3158323158323,760.7549857549858
1624461921.140625,813.7851037851037,810.6959706959707,796.8620268620269,807.3382173382173,755.3601953601955
1624461921.1484375,814.4118844118843,814.92673992674,797.7798127798128,807.3158323158323,769.5522995522997
1624461921.15625,815.038665038665,819.1575091575091,798.6975986975988,807.2934472934473,783.7444037444038
1624461921.1640625,815.6654456654458,823.3882783882784,799.6153846153848,807.2710622710623,797.9365079365081
1624461921.171875,816.2922262922264,827.6190476190477,800.5331705331706,807.2486772486773,812.1286121286123
1624461921.1796875,816.919006919007,831.8498168498169,801.4509564509565,807.2262922262923,826.3207163207164
1624461921.1875,817.5457875457877,836.0805860805862,802.3687423687425,807.2039072039073,840.5128205128207
1624461921.1953125,807.2039072039073,835.006105006105,797.891737891738,805.950345950346,766.9108669108671
1624461921.203125,796.8620268620269,833.931623931624,793.4147334147334,804.6967846967848,693.3089133089134
1624461921.2109375,786.5201465201466,832.8571428571429,788.9377289377289,803.4432234432235,619.7069597069598
1624461921.21875,808.4126984126984,822.1123321123322,796.8620268620269,811.7704517704518,724.3345543345544
1624461921.2265625,809.0842490842491,819.940984940985,796.884411884412,811.927146927147,735.3703703703703
1624461921.234375,809.7557997557998,817.7696377696378,796.906796906797,812.0838420838421,746.4061864061864
1624461921.2421875,810.4273504273503,815.5982905982906,796.929181929182,812.2405372405373,757.4420024420024
1624461921.2499998,811.098901098901,813.4269434269435,796.951566951567,812.3972323972324,768.4778184778183
1624461921.2578125,811.7704517704517,811.2555962555963,796.973951973952,812.5539275539276,779.5136345136344
1624461921.265625,812.4420024420024,809.0842490842491,796.996336996337,812.7106227106227,790.5494505494504
1624461921.2734375,811.3227513227513,808.2783882783883,797.8245828245829,812.5986975986976,780.6328856328855
1624461921.28125,810.2035002035002,807.4725274725275,798.6528286528287,812.4867724867725,770.7163207163206
1624461921.2890625,809.084249084249,806.6666666666667,799.4810744810745,812.3748473748474,760.7997557997558
1624461921.296875,807.9649979649979,805.8608058608058,800.3093203093204,812.2629222629223,750.8831908831909
1624461921.3046875,806.8457468457468,805.054945054945,801.1375661375662,812.1509971509971,740.966625966626
1624461921.3125,805.7264957264957,804.2490842490843,801.965811965812,812.039072039072,731.0500610500611
1624461921.3203125,805.4298941798942,803.0570818070818,802.5646113146114,810.9254171754171,755.2538665038666
1624461921.328125,805.1332926332926,801.8650793650794,803.1634106634107,809.8117623117623,779.457671957672
1624461921.3359375,804.8366910866912,800.6730769230769,803.7622100122101,808.6981074481075,803.6614774114773
1624461921.34375,804.5400895400896,799.4810744810744,804.3610093610095,807.5844525844526,827.8652828652828
1624461921.3515625,804.2434879934881,798.289072039072,804.9598087098087,806.4707977207977,852.0690883190882
1624461921.359375,803.9468864468865,797.0970695970695,805.5586080586081,805.3571428571429,876.2728937728937
1624461921.3671875,804.8702686202687,795.0992063492063,803.6614774114774,803.9636752136753,848.3867521367521
1624461921.375,805.7936507936508,793.1013431013431,801.7643467643468,802.5702075702076,820.5006105006104
1624461921.3828125,806.717032967033,791.1034798534798,799.8672161172161,801.17673992674,792.6144688644688
1624461921.390625,807.6404151404151,789.1056166056165,797.9700854700855,799.7832722832724,764.7283272283272
1624461921.3984373,808.5637973137973,787.1077533577534,796.0729548229548,798.3898046398047,736.8421855921855
1624461921.40625,809.4871794871794,785.1098901098901,794.1758241758241,796.996336996337,708.9560439560439
1624461921.4140625,804.4505494505495,792.967032967033,792.7655677655678,797.3992673992675,739.1758241758242
1624461921.421875,805.5809930809932,795.0936100936101,791.9708994708994,797.4664224664226,739.500407000407
1624461921.4296875,806.7114367114368,797.2201872201872,791.1762311762312,797.5335775335776,739.8249898249899
1624461921.4375,807.8418803418804,799.3467643467643,790.3815628815629,797.6007326007327,740.1495726495727
1624461921.4453125,808.972323972324,801.4733414733415,789.5868945868946,797.6678876678878,740.4741554741555
1624461921.4531252,810.1027676027677,803.5999185999186,788.7922262922264,797.7350427350428,740.7987382987383
1624461921.4609375,811.2332112332114,805.7264957264957,787.997557997558,797.802197802198,741.1233211233211
1624461921.46875,811.3003663003665,806.2637362637363,789.4301994301994,800.6450956450958,744.7720797720798
1624461921.4765625,811.3675213675215,806.8009768009767,790.8628408628409,803.4879934879937,748.4208384208384
1624461921.484375,811.4346764346766,807.3382173382173,792.2954822954823,806.3308913308915,752.0695970695972
1624461921.4921875,811.5018315018317,807.8754578754579,793.7281237281237,809.1737891737893,755.7183557183558
1624461921.5,811.5689865689867,808.4126984126983,795.1607651607652,812.0166870166871,759.3671143671145
1624461921.5078125,811.6361416361418,808.9499389499389,796.5934065934066,814.859584859585,763.0158730158731
1624461921.515625,812.7298098726671,810.6192220477934,799.0301761730333,815.2625152625154,760.1569858712717
1624461921.5234375,813.8234781091925,812.2885051456481,801.4669457526601,815.6654456654458,757.2980987266702
1624461921.53125,814.9171463457178,813.9577882435026,803.9037153322868,816.0683760683762,754.4392115820688
1624461921.5390625,816.0108145822433,815.6270713413571,806.3404849119134,816.4713064713065,751.5803244374674
1624461921.5468748,817.1044828187686,817.2963544392117,808.7772544915401,816.874236874237,748.721437292866
1624461921.5546875,818.1981510552939,818.9656375370663,811.2140240711669,817.2771672771673,745.8625501482645
1624461921.5625,819.2918192918193,820.6349206349208,813.6507936507936,817.6800976800978,743.0036630036631
1624461921.5703125,823.2427757427757,818.2621082621084,819.549247049247,818.2061457061458,752.8418803418804
1624461921.578125,827.1937321937321,815.889295889296,825.4477004477004,818.7321937321937,762.6800976800977
1624461921.5859375,831.1446886446886,813.5164835164836,831.3461538461538,819.2582417582416,772.518315018315
1624461921.59375,828.9453601953602,811.3003663003664,829.7847985347985,819.0735653235653,773.5088522588522
1624461921.6015627,826.7460317460317,809.0842490842491,828.2234432234432,818.8888888888888,774.4993894993895
1624461921.609375,824.5467032967033,806.868131868132,826.6620879120878,818.7042124542124,775.4899267399267
1624461921.6171875,822.3473748473749,804.6520146520147,825.1007326007326,818.5195360195361,776.4804639804639
1624461921.625,820.1480463980464,802.4358974358975,823.5393772893773,818.3348595848596,777.4710012210012
1624461921.6328125,817.948717948718,800.2197802197802,821.978021978022,818.1501831501832,778.4615384615385
1624461921.640625,834.4688644688645,815.1282051282052,823.5897435897436,823.5897435897436,900.5494505494506
1624461921.6484375,834.952380952381,815.6117216117217,824.7985347985349,824.2344322344322,872.5054945054945
1624461921.65625,835.4358974358975,816.0952380952382,826.007326007326,824.8791208791209,844.4615384615385
1624461921.6640625,835.919413919414,816.5787545787546,827.2161172161173,825.5238095238095,816.4175824175825
1624461921.671875,836.4029304029305,817.0622710622711,828.4249084249084,826.1684981684982,788.3736263736264
1624461921.6796875,836.886446886447,817.5457875457876,829.6336996336996,826.8131868131868,760.3296703296703
1624461921.6875,826.9474969474969,821.3064713064714,829.3650793650794,825.2014652014653,855.4212454212453
1624461921.6953125,825.4285132856561,820.8715623001339,826.3686842258271,822.8030699459272,835.4761904761904
1624461921.703125,823.9095296238154,820.4366532937962,823.3722890865748,820.4046746903891,815.5311355311355
1624461921.7109375,822.3905459619746,820.0017442874587,820.3758939473225,818.006279434851,795.5860805860806
1624461921.71875,820.8715623001337,819.5668352811211,817.3794988080704,815.6078841793128,775.6410256410256
1624461921.7265625,819.352578638293,819.1319262747835,814.3831036688181,813.2094889237748,755.6959706959708
1624461921.734375,817.8335949764522,818.697017268446,811.3867085295658,810.8110936682366,735.7509157509159
1624461921.7421875,813.1299992524483,815.7839949166481,808.7409359348136,807.7582791358302,754.9908424908425
1624461921.7500002,808.4264035284444,812.8709725648503,806.0951633400614,804.7054646034238,774.2307692307693
1624461921.7578125,803.7228078044405,809.9579502130524,803.4493907453092,801.6526500710174,793.4706959706959
1624461921.765625,799.0192120804365,807.0449278612545,800.803618150557,798.5998355386112,812.7106227106227
1624461921.7734375,794.3156163564327,804.1319055094566,798.1578455558048,795.5470210062048,831.9505494505494
1624461921.78125,789.6120206324288,801.2188831576588,795.5120729610526,792.4942064737984,851.1904761904761
1624461921.7890625,784.9084249084249,798.3058608058609,792.8663003663004,789.441391941392,870.4304029304028
1624461921.796875,785.7142857142857,798.7367724867726,793.6217948717949,786.313085063085,862.9594017094016
1624461921.8046875,786.5201465201466,799.1676841676842,794.3772893772893,783.1847781847782,855.4884004884004
1624461921.8125,787.3260073260074,799.598595848596,795.1327838827839,780.0564713064713,848.0173992673992
1624461921.8203125,788.1318681318681,800.0295075295077,795.8882783882784,776.9281644281643,840.5463980463979
1624461921.828125,788.937728937729,800.4604192104193,796.6437728937728,773.7998575498575,833.0753968253968
1624461921.8359375,789.7435897435898,800.891330891331,797.3992673992674,770.6715506715506,825.6043956043956
1624461921.84375,791.7246642246644,803.868538868539,798.3562271062272,774.5889295889294,819.9633699633699
1624461921.8515625,793.7057387057388,806.8457468457469,799.3131868131868,778.5063085063084,814.3223443223443
1624461921.859375,795.6868131868132,809.8229548229549,800.2701465201465,782.4236874236874,808.6813186813188
1624461921.8671875,797.6678876678877,812.8001628001628,801.2271062271062,786.3410663410663,803.0402930402931
1624461921.875,799.6489621489623,815.7773707773707,802.184065934066,790.2584452584451,797.3992673992675
1624461921.8828125,801.6300366300367,818.7545787545787,803.1410256410256,794.1758241758241,791.7582417582419
1624461921.890625,804.1707366707367,817.5457875457874,802.9003866503866,794.6682946682946,795.0936100936102
1624461921.8984373,806.7114367114367,816.3369963369963,802.6597476597476,795.1607651607651,798.4289784289786
1624461921.90625,809.2521367521367,815.1282051282051,802.4191086691087,795.6532356532357,801.7643467643468
1624461921.9140625,811.7928367928369,813.9194139194138,802.1784696784697,796.1457061457062,805.0997150997151
1624461921.921875,814.3335368335369,812.7106227106227,801.9378306878307,796.6381766381767,808.4350834350835
1624461921.9296875,816.8742368742369,811.5018315018315,801.6971916971917,797.1306471306472,811.7704517704518
1624461921.9375,809.9908424908425,815.0130821559393,803.0834641548927,792.8375196232339,795.1255886970173
1624461921.9453125,803.1074481074481,818.5243328100471,804.4697366125937,788.5443921158206,778.4807256235828
1624461921.9531252,796.2240537240538,822.0355834641549,805.8560090702947,784.2512646084074,761.8358625501482
1624461921.9609375,789.3406593406593,825.5468341182627,807.2422815279958,779.9581371009942,745.1909994767137
1624461921.96875,782.4572649572649,829.0580847723705,808.6285539856968,775.665009593581,728.5461364032792
1624461921.9765625,775.5738705738705,832.5693354264783,810.0148264433979,771.3718820861677,711.9012733298447
1624461921.984375,768.6904761904761,836.0805860805862,811.4010989010989,767.0787545787545,695.2564102564102
1624461921.9921875,750.7097069597069,844.6764346764347,813.9697802197802,749.791921041921,707.3107448107447
1624461922.0,732.7289377289377,853.2722832722833,816.5384615384615,732.5050875050874,719.3650793650793
1624461922.0078125,714.7481684981685,861.868131868132,819.1071428571429,715.218253968254,731.419413919414
1624461922.015625,696.7673992673992,870.4639804639805,821.6758241758241,697.9314204314205,743.4737484737485
1624461922.0234375,678.78663003663,879.0598290598291,824.2445054945055,680.644586894587,755.5280830280831
1624461922.03125,660.8058608058608,887.6556776556777,826.8131868131868,663.3577533577535,767.5824175824176
1624461922.0390625,643.1776556776557,887.3870573870574,840.3113553113553,650.9452584452586,777.0512820512821
1624461922.0468748,625.5494505494505,887.1184371184371,853.8095238095239,638.5327635327636,786.5201465201466
1624461922.0546875,607.9212454212454,886.8498168498169,867.3076923076924,626.1202686202687,795.989010989011
1624461922.0625,590.2930402930403,886.5811965811967,880.8058608058608,613.7077737077739,805.4578754578755
1624461922.0703125,572.6648351648352,886.3125763125763,894.3040293040293,601.2952787952789,814.92673992674
1624461922.078125,555.0366300366301,886.0439560439561,907.8021978021978,588.882783882784,824.3956043956044
1624461922.0859375,622.5274725274726,858.6446886446886,881.007326007326,667.8571428571429,966.4285714285716
1624461922.09375,675.5352055352056,844.2287342287342,865.1363451363452,713.7688237688238,928.7993487993488
1624461922.1015627,728.5429385429386,829.8127798127798,849.2653642653643,759.6805046805047,891.1701261701262
1624461922.109375,781.5506715506716,815.3968253968254,833.3943833943835,805.5921855921856,853.5409035409035
1624461922.1171875,797.2537647537648,807.0919820919821,829.9135124135124,816.1803011803012,837.502035002035
1624461922.125,812.956857956858,798.7871387871388,826.4326414326415,826.7684167684168,821.4631664631664
1624461922.1328125,828.6599511599512,790.4822954822955,822.9517704517705,837.3565323565324,805.4242979242979
1624461922.140625,844.3630443630444,782.1774521774522,819.4708994708994,847.944647944648,789.3854293854295
1624461922.1484375,860.0661375661376,773.8726088726089,815.9900284900285,858.5327635327636,773.3465608465609
1624461922.15625,875.7692307692308,765.5677655677656,812.5091575091575,869.1208791208792,757.3076923076924
1624461922.1640625,882.014652014652,765.1648351648352,798.2051282051282,869.5238095238095,693.040293040293
1624461922.171875,880.6446886446887,765.8901098901099,798.2857142857142,873.4725274725274,743.4871794871794
1624461922.1796875,879.2747252747253,766.6153846153846,798.3663003663004,877.4212454212454,793.9340659340659
1624461922.1875,877.9047619047619,767.3406593406593,798.4468864468864,881.3699633699633,844.3809523809523
1624461922.1953125,876.5347985347985,768.065934065934,798.5274725274726,885.3186813186813,894.8278388278388
1624461922.203125,875.1648351648352,768.7912087912088,798.6080586080586,889.2673992673992,945.2747252747253
1624461922.21875,890.1628001628002,761.3146113146114,796.7053317053317,876.1161986161985,892.7818477818479
1624461922.2265625,889.0435490435491,765.3215303215304,796.8172568172567,878.2763532763532,874.3365893365894
1624461922.234375,887.9242979242979,769.3284493284493,796.9291819291818,880.436507936508,855.8913308913309
1624461922.2421875,886.8050468050468,773.3353683353683,797.041107041107,882.5966625966626,837.4460724460724
1624461922.2499998,885.6857956857957,777.3422873422874,797.1530321530321,884.7568172568172,819.000814000814
1624461922.2578125,884.5665445665446,781.3492063492064,797.2649572649572,886.9169719169719,800.5555555555555
1624461922.265625,883.436100936101,782.3453398453398,799.5706145706145,887.3422873422874,810.3042328042328
1624461922.2734375,882.3056573056574,783.3414733414734,801.8762718762719,887.7676027676027,820.0529100529101
1624461922.28125,881.1752136752137,784.3376068376069,804.1819291819291,888.1929181929181,829.8015873015872
1624461922.2890625,880.0447700447701,785.3337403337404,806.4875864875864,888.6182336182336,839.5502645502645
1624461922.296875,878.9143264143265,786.3298738298738,808.7932437932438,889.0435490435491,849.2989417989418
1624461922.3046875,877.7838827838829,787.3260073260074,811.0989010989011,889.4688644688645,859.047619047619
1624461922.3125,885.2380952380952,795.9890109890109,814.5238095238096,867.7106227106228,813.3150183150183
1624461922.3203125,877.6719576719577,796.9627594627594,812.8337403337404,864.319291819292,813.2366707366707
1624461922.328125,870.10582010582,797.936507936508,811.1436711436712,860.9279609279611,813.1583231583231
1624461922.3359375,862.5396825396825,798.9102564102564,809.453601953602,857.5366300366302,813.0799755799756
1624461922.34375,854.973544973545,799.8840048840049,807.7635327635327,854.1452991452992,813.001628001628
1624461922.3515625,847.4074074074074,800.8577533577534,806.0734635734635,850.7539682539683,812.9232804232804
1624461922.359375,839.8412698412699,801.8315018315019,804.3833943833943,847.3626373626374,812.8449328449328
1624461922.3671875,842.1133496133497,803.8797313797314,806.2189662189661,841.2515262515263,751.6218966218966
1624461922.375,844.3854293854295,805.927960927961,808.054538054538,835.1404151404151,690.3988603988604
1624461922.3828125,846.6575091575093,807.9761904761905,809.8901098901099,829.0293040293041,629.1758241758241
1624461922.390625,845.0122100122101,806.565934065934,809.9068986568986,828.1059218559219,648.7515262515262
1624461922.3984373,843.3669108669109,805.1556776556777,809.9236874236874,827.1825396825398,668.3272283272283
1624461922.40625,841.7216117216117,803.7454212454213,809.9404761904761,826.2591575091576,687.9029304029305
1624461922.4140625,840.0763125763126,802.3351648351648,809.957264957265,825.3357753357753,707.4786324786324
1624461922.421875,838.4310134310134,800.9249084249084,809.9740537240538,824.4123931623932,727.0543345543346
1624461922.4296875,836.7857142857142,799.514652014652,809.9908424908425,823.489010989011,746.6300366300367
1624461922.4375,827.6190476190477,815.934065934066,802.3687423687423,821.7094017094017,832.9914529914531
1624461922.4453125,826.2927350427351,813.415750915751,801.8762718762719,822.2746235246236,830.3332315832317
1624461922.4531252,824.9664224664225,810.8974358974359,801.3838013838014,822.8398453398454,827.6750101750102
1624461922.4609375,823.6401098901099,808.3791208791209,800.8913308913309,823.4050671550672,825.0167887667889
1624461922.46875,822.3137973137974,805.860805860806,800.3988603988605,823.9702889702891,822.3585673585675
1624461922.4765625,820.9874847374848,803.3424908424909,799.90638990639,824.535510785511,819.700345950346
1624461922.484375,819.6611721611722,800.8241758241759,799.4139194139195,825.1007326007327,817.0421245421246
1624461922.4921875,822.3753561253561,805.7376882376883,803.3089133089134,827.535103785104,793.2188644688645
1624461922.5,825.0895400895402,810.6512006512007,807.2039072039073,829.9694749694751,769.3956043956044
1624461922.5078125,827.8037240537241,815.5647130647131,811.0989010989013,832.4038461538462,745.5723443223444
1624461922.515625,830.517908017908,820.4782254782256,814.9938949938951,834.8382173382174,721.7490842490843
1624461922.5234375,833.232091982092,825.391737891738,818.8888888888889,837.2725885225886,697.9258241758241
1624461922.53125,835.9462759462759,830.3052503052504,822.7838827838829,839.7069597069598,674.1025641025641
1624461922.5390625,833.3831908831909,829.8071835571836,824.3116605616606,837.8601953601953,689.9679487179487
1624461922.5468748,830.8201058201058,829.3091168091169,825.8394383394384,836.013431013431,705.8333333333334
1624461922.5546875,828.2570207570208,828.8110500610501,827.3672161172162,834.1666666666667,721.698717948718
1624461922.5625,825.6939356939357,828.3129833129834,828.894993894994,832.3199023199023,737.5641025641025
1624461922.5703125,823.1308506308507,827.8149165649166,830.4227716727717,830.4731379731379,753.4294871794872
1624461922.578125,820.5677655677656,827.3168498168499,831.9505494505495,828.6263736263736,769.2948717948718
1624461922.5859375,821.7597680097681,825.789072039072,829.5497557997559,829.465811965812,773.0051892551893
1624461922.59375,822.9517704517705,824.2612942612943,827.1489621489623,830.3052503052503,776.7155067155068
1624461922.6015627,824.1437728937728,822.7335164835165,824.7481684981685,831.1446886446886,780.4258241758242
1624461922.609375,825.3357753357753,821.2057387057387,822.3473748473749,831.984126984127,784.1361416361417
1624461922.6171875,826.5277777777778,819.677960927961,819.9465811965813,832.8235653235654,787.8464590964592
1624461922.625,827.7197802197802,818.1501831501831,817.5457875457877,833.6630036630037,791.5567765567766
1624461922.6328125,827.6582214082214,817.51221001221,817.0533170533172,830.7753357753357,778.0026455026456
1624461922.640625,827.5966625966626,816.8742368742369,816.5608465608467,827.8876678876679,764.4485144485145
1624461922.6484375,827.5351037851037,816.2362637362637,816.0683760683762,825.0,750.8943833943833
1624461922.65625,827.473544973545,815.5982905982905,815.5759055759056,822.1123321123321,737.3402523402523
1624461922.6640625,827.4119861619862,814.9603174603175,815.0834350834351,819.2246642246643,723.7861212861212
1624461922.671875,827.3504273504274,814.3223443223443,814.5909645909646,816.3369963369963,710.2319902319902
1624461922.6796875,825.7387057387058,814.7924297924297,815.038665038665,818.5754985754986,724.1330891330891
1624461922.6875,824.1269841269842,815.2625152625153,815.4863654863656,820.8140008140008,738.034188034188
1624461922.6953125,822.5152625152625,815.7326007326008,815.934065934066,823.0525030525031,751.935286935287
1624461922.703125,820.9035409035409,816.2026862026862,816.3817663817664,825.2910052910054,765.836385836386
1624461922.7109375,819.2918192918194,816.6727716727718,816.8294668294669,827.5295075295076,779.7374847374848
1624461922.71875,817.6800976800978,817.1428571428572,817.2771672771673,829.7680097680098,793.6385836385838
1624461922.7265625,817.5457875457876,792.1611721611722,830.8424908424909,830.4395604395604,1040.3663003663
1624461922.734375,816.2161172161173,792.5641025641027,829.5934065934066,827.2161172161173,995.9633699633696
1624461922.7421875,814.886446886447,792.967032967033,828.3443223443223,823.992673992674,951.5604395604394
1624461922.7500002,813.5567765567765,793.3699633699634,827.0952380952382,820.7692307692308,907.1575091575093
1624461922.7578125,812.2271062271062,793.7728937728938,825.8461538461539,817.5457875457876,862.7545787545788
1624461922.765625,810.8974358974359,794.1758241758242,824.5970695970697,814.3223443223444,818.3516483516485
1624461922.7734375,812.7106227106227,799.8168498168499,821.978021978022,813.919413919414,618.0952380952381
1624461922.78125,815.6117216117216,799.4945054945056,819.6813186813187,812.6703296703297,628.6520146520146
1624461922.7890625,818.5128205128206,799.1721611721612,817.3846153846154,811.4212454212454,639.2087912087911
1624461922.796875,821.4139194139194,798.8498168498169,815.0879120879122,810.1721611721612,649.7655677655678
1624461922.8046875,824.3150183150184,798.5274725274725,812.7912087912089,808.9230769230769,660.3223443223443
1624461922.8125,827.2161172161173,798.2051282051282,810.4945054945056,807.6739926739926,670.8791208791208
1624461922.8203125,810.9981684981685,800.6227106227107,810.3937728937728,818.0494505494506,890.8791208791209
1624461922.828125,810.2762515262516,801.0704110704111,809.4368131868132,818.0102767602768,892.1998371998372
1624461922.8359375,809.5543345543346,801.5181115181116,808.4798534798534,817.971102971103,893.5205535205536
1624461922.84375,808.8324175824175,801.965811965812,807.5228937728938,817.9319291819293,894.8412698412699
1624461922.8515625,808.1105006105006,802.4135124135124,806.5659340659341,817.8927553927554,896.1619861619863
1624461922.859375,807.3885836385837,802.861212861213,805.6089743589744,817.8535816035816,897.4827024827026
1624461922.8671875,806.6666666666666,803.3089133089134,804.6520146520147,817.8144078144078,898.8034188034189
1624461922.875,806.9184981684981,803.8349613349613,803.4264346764347,814.6637159137159,899.8667073667075
1624461922.8828125,807.1703296703297,804.3610093610095,802.2008547008547,811.513024013024,900.929995929996
1624461922.890625,807.4221611721612,804.8870573870574,800.9752747252749,808.3623321123321,901.9932844932846
1624461922.8984373,807.6739926739926,805.4131054131054,799.7496947496949,805.2116402116402,903.056573056573
1624461922.90625,807.9258241758242,805.9391534391535,798.5241147741149,802.0609483109483,904.1198616198616
1624461922.9140625,808.1776556776557,806.4652014652015,797.2985347985349,798.9102564102565,905.18315018315
1624461922.921875,806.3588726088726,806.476393976394,796.3975376475378,799.3523606023607,881.8019943019942
1624461922.9296875,804.5400895400896,806.4875864875866,795.4965404965405,799.7944647944648,858.4208384208384
1624461922.9375,802.7213064713065,806.498778998779,794.5955433455434,800.236568986569,835.0396825396825
1624461922.9453125,800.9025234025235,806.5099715099715,793.6945461945463,800.6786731786732,811.6585266585266
1624461922.9531252,799.0837403337405,806.521164021164,792.7935490435491,801.1207773707774,788.2773707773708
1624461922.9609375,797.2649572649574,806.5323565323565,791.892551892552,801.5628815628816,764.8962148962149
1624461922.96875,799.2348392348393,806.3756613756614,795.4070004070005,803.6223036223037,757.8673178673179
1624461922.9765625,801.2047212047213,806.2189662189662,798.9214489214489,805.6817256817258,750.8384208384209
1624461922.984375,803.1746031746032,806.0622710622711,802.4358974358975,807.7411477411479,743.8095238095239
1624461922.9921875,805.1444851444852,805.9055759055759,805.950345950346,809.8005698005699,736.7806267806268
1624461923.0,807.1143671143672,805.7488807488808,809.4647944647944,811.859991859992,729.7517297517298
1624461923.0078125,809.0842490842491,805.5921855921856,812.9792429792429,813.9194139194141,722.7228327228328
1624461923.015625,835.2747252747253,812.7106227106227,818.3516483516484,805.4578754578755,653.5531135531136
1624461923.0234375,830.6813186813187,813.3150183150183,818.7545787545788,806.7472527472528,677.6483516483516
1624461923.03125,826.0879120879121,813.919413919414,819.1575091575091,808.0366300366301,701.7435897435897
1624461923.0390625,821.4945054945056,814.5238095238095,819.5604395604396,809.3260073260074,725.8388278388279
1624461923.0468748,816.901098901099,815.1282051282052,819.9633699633699,810.6153846153846,749.934065934066
1624461923.0546875,812.3076923076924,815.7326007326008,820.3663003663004,811.9047619047619,774.0293040293041
1624461923.0625,826.6117216117216,821.1721611721612,807.6739926739926,822.1794871794872,825.0
1624461923.0703125,828.9957264957264,821.0714285714286,806.0958485958486,825.7722832722833,800.521978021978
1624461923.078125,831.3797313797314,820.970695970696,804.5177045177046,829.3650793650793,776.0439560439561
1624461923.0859375,833.7637362637363,820.8699633699634,802.9395604395605,832.9578754578754,751.5659340659341
1624461923.09375,833.5007122507122,819.1295278795279,803.8293650793652,831.0383597883597,752.0416157916159
1624461923.1015627,833.2376882376883,817.3890923890924,804.7191697191698,829.1188441188441,752.5172975172975
1624461923.109375,832.9746642246643,815.648656898657,805.6089743589744,827.1993284493284,752.9929792429792
1624461923.1171875,832.7116402116402,813.9082214082215,806.498778998779,825.2798127798127,753.468660968661
1624461923.125,832.4486161986163,812.167785917786,807.3885836385837,823.3602971102971,753.9443426943426
1624461923.1328125,832.1855921855922,810.4273504273505,808.2783882783883,821.4407814407814,754.4200244200243
1624461923.140625,821.1329873829874,812.2181522181522,801.9826007326008,812.1118233618233,776.7266992266991
1624461923.1484375,810.0803825803827,814.0089540089541,795.6868131868132,802.7828652828653,799.033374033374
1624461923.15625,799.0277777777778,815.7997557997559,789.3910256410256,793.4539072039072,821.3400488400489
1624461923.1640625,787.975172975173,817.5905575905576,783.0952380952381,784.1249491249491,843.6467236467237
1624461923.171875,776.9225681725683,819.3813593813595,776.7994505494505,774.7959910459911,865.9533984533984
1624461923.1796875,765.8699633699634,821.1721611721613,770.503663003663,765.467032967033,888.2600732600733
1624461923.1875,772.4847374847376,821.8772893772895,770.4700854700855,769.3956043956044,873.5363247863248
1624461923.1953125,779.0995115995116,822.5824175824176,770.4365079365078,773.3241758241759,858.8125763125764
1624461923.203125,785.7142857142858,823.2875457875459,770.4029304029303,777.2527472527472,844.0888278388279
1624461923.2109375,792.3290598290599,823.9926739926741,770.3693528693528,781.1813186813187,829.3650793650794
1624461923.21875,798.943833943834,824.6978021978023,770.3357753357752,785.1098901098901,814.641330891331
1624461923.2265625,805.5586080586081,825.4029304029305,770.3021978021977,789.0384615384615,799.9175824175825
1624461923.234375,803.3928571428572,824.8321123321124,770.3189865689865,789.0216727716728,782.9105616605617
1624461923.2421875,801.2271062271062,824.2612942612943,770.3357753357753,789.004884004884,765.9035409035409
1624461923.2499998,799.0613553113553,823.6904761904761,770.3525641025641,788.9880952380952,748.8965201465202
1624461923.2578125,796.8956043956044,823.1196581196581,770.3693528693528,788.9713064713064,731.8894993894994
1624461923.265625,794.7298534798534,822.54884004884,770.3861416361417,788.9545177045177,714.8824786324786
1624461923.2734375,792.5641025641025,821.978021978022,770.4029304029305,788.9377289377289,697.8754578754579
1624461923.28125,801.8315018315018,808.4798534798535,776.0439560439561,793.3699633699634,881.4102564102565
1624461923.2890625,803.6043956043956,808.6813186813188,778.5421245421246,796.1904761904763,867.7509157509159
1624461923.296875,805.3772893772893,808.882783882784,781.0402930402931,799.0109890109891,854.0915750915751
1624461923.3046875,807.1501831501831,809.0842490842491,783.5384615384615,801.8315018315019,840.4322344322345
1624461923.3125,808.9230769230769,809.2857142857143,786.0366300366301,804.6520146520147,826.7728937728938
1624461923.3203125,810.6959706959707,809.4871794871796,788.5347985347986,807.4725274725275,813.1135531135532
1624461923.328125,823.3211233211233,809.2185592185592,782.759462759463,799.6825396825398,872.3443223443223
1624461923.3359375,824.1717541717542,809.8677248677249,783.6548636548638,800.7346357346358,845.5494505494505
1624461923.34375,825.022385022385,810.5168905168905,784.5502645502647,801.7867317867318,818.7545787545788
1624461923.3515625,825.8730158730159,811.1660561660563,785.4456654456656,802.8388278388279,791.9597069597071
1624461923.359375,826.7236467236468,811.8152218152219,786.3410663410664,803.890923890924,765.1648351648353
1624461923.3671875,827.5742775742776,812.4643874643875,787.2364672364673,804.94301994302,738.3699633699634
1624461923.375,828.4249084249085,813.1135531135532,788.1318681318681,805.9951159951161,711.5750915750917
1624461923.3828125,825.2462352462353,811.1884411884412,788.5571835571836,805.1892551892553,715.0447700447702
1624461923.390625,822.0675620675621,809.2633292633293,788.982498982499,804.3833943833945,718.5144485144486
1624461923.3984373,818.8888888888889,807.3382173382174,789.4078144078144,803.5775335775336,721.9841269841271
1624461923.40625,815.7102157102157,805.4131054131054,789.8331298331299,802.7716727716728,725.4538054538056
1624461923.4140625,812.5315425315425,803.4879934879934,790.2584452584454,801.965811965812,728.923483923484
1624461923.4296875,809.8789173789173,801.6244403744404,793.1796906796907,801.943426943427,734.8331298331299
1624461923.4375,810.4049654049654,801.6859991859992,795.6756206756207,802.7269027269027,737.2730972730973
1624461923.4453125,810.9310134310134,801.747557997558,798.1715506715507,803.5103785103786,739.7130647130648
1624461923.4531252,811.4570614570614,801.8091168091169,800.6674806674806,804.2938542938543,742.1530321530322
1624461923.4609375,811.9831094831095,801.8706756206757,803.1634106634107,805.0773300773301,744.5929995929996
1624461923.46875,812.5091575091575,801.9322344322345,805.6593406593406,805.8608058608058,747.032967032967
1624461923.4765625,811.9551282051282,802.6709401709402,804.8870573870573,805.5586080586081,740.1999389499389
1624461923.484375,811.4010989010989,803.409645909646,804.1147741147741,805.2564102564103,733.3669108669109
1624461923.4921875,810.8470695970695,804.1483516483518,803.3424908424909,804.9542124542124,726.5338827838827
1624461923.5,810.2930402930403,804.8870573870574,802.5702075702076,804.6520146520147,719.7008547008546
1624461923.5078125,809.739010989011,805.6257631257631,801.7979242979244,804.349816849817,712.8678266178266
1624461923.515625,809.1849816849817,806.3644688644689,801.0256410256411,804.0476190476192,706.0347985347985
1624461923.5234375,806.6163003663004,803.7734025234025,801.3390313390314,803.6334961334962,705.7941595441595
1624461923.53125,804.047619047619,801.1823361823361,801.6524216524217,803.2193732193733,705.5535205535206
1624461923.5390625,801.4789377289378,798.5912698412699,801.965811965812,802.8052503052504,705.3128815628816
1624461923.5468748,798.9102564102565,796.0002035002035,802.2792022792023,802.3911273911274,705.0722425722425
1624461923.5546875,796.3415750915751,793.4091371591371,802.5925925925926,801.9770044770045,704.8316035816036
1624461923.5625,793.7728937728938,790.8180708180707,802.9059829059829,801.5628815628816,704.5909645909646
1624461923.5703125,796.8620268620268,792.6200651200651,804.6743996743996,802.6653439153439,746.8035205535206
1624461923.578125,799.95115995116,794.4220594220593,806.4428164428165,803.7678062678062,789.0160765160765
1624461923.5859375,803.0402930402931,796.2240537240536,808.2112332112333,804.8702686202687,831.2286324786324
1624461923.59375,806.1294261294262,798.026048026048,809.97964997965,805.972730972731,873.4411884411884
1624461923.6015627,809.2185592185592,799.8280423280422,811.7480667480668,807.0751933251934,915.6537444037444
1624461923.609375,812.3076923076924,801.6300366300366,813.5164835164836,808.1776556776557,957.8663003663004
1624461923.6171875,809.93487993488,804.1931216931216,811.2332112332113,806.4707977207977,935.8674196174196
1624461923.625,807.5620675620676,806.7562067562067,808.949938949939,804.7639397639398,913.8685388685388
1624461923.6328125,805.1892551892552,809.3192918192917,806.6666666666667,803.0570818070819,891.8696581196581
1624461923.640625,802.8164428164429,811.8823768823769,804.3833943833944,801.3502238502239,869.8707773707773
1624461923.6484375,800.4436304436305,814.445461945462,802.100122100122,799.6433658933659,847.8718966218967
1624461923.65625,798.0708180708181,817.008547008547,799.8168498168498,797.936507936508,825.8730158730159
1624461923.6640625,800.477207977208,817.1316646316646,801.9322344322344,798.9214489214489,821.7485754985755
1624461923.671875,802.8835978835979,817.2547822547823,804.047619047619,799.9063899063899,817.6241351241351
1624461923.6796875,805.2899877899879,817.3778998778998,806.1630036630036,800.8913308913309,813.4996947496948
1624461923.6875,807.6963776963778,817.5010175010175,808.2783882783882,801.876271876272,809.3752543752545
1624461923.6953125,810.1027676027677,817.6241351241351,810.3937728937728,802.861212861213,805.2508140008141
1624461923.703125,812.5091575091576,817.7472527472528,812.5091575091575,803.8461538461539,801.1263736263737
1624461923.7109375,814.4902319902321,817.7136752136753,812.0054945054945,803.3312983312984,780.4034391534392
1624461923.71875,816.4713064713065,817.6800976800977,811.5018315018315,802.8164428164429,759.6805046805048
1624461923.7265625,818.452380952381,817.6465201465201,810.9981684981685,802.3015873015873,738.9575702075703
1624461923.734375,820.4334554334555,817.6129426129426,810.4945054945056,801.7867317867318,718.2346357346357
1624461923.7421875,822.41452991453,817.5793650793651,809.9908424908425,801.2718762718763,697.5117012617013
1624461923.7500002,824.3956043956044,817.5457875457874,809.4871794871796,800.7570207570208,676.7887667887668
1624461923.7578125,823.5897435897436,816.8406593406593,807.8586691086691,801.8426943426944,692.6261701261701
1624461923.765625,822.7838827838829,816.1355311355311,806.2301587301588,802.928367928368,708.4635734635734
1624461923.7734375,821.9780219780221,815.4304029304028,804.6016483516485,804.0140415140415,724.3009768009767
1624461923.78125,821.1721611721612,814.7252747252746,802.973137973138,805.099715099715,740.1383801383802
1624461923.7890625,820.3663003663004,814.0201465201465,801.3446275946276,806.1853886853886,755.9757834757835
1624461923.796875,819.5604395604396,813.3150183150183,799.7161172161173,807.2710622710622,771.8131868131868
1624461923.8046875,819.1025641025641,812.1245421245421,800.3479853479854,806.1355311355311,765.2930402930402
1624461923.8125,818.6446886446887,810.9340659340659,800.9798534798535,804.9999999999999,758.7728937728938
1624461923.8203125,818.1868131868132,809.7435897435897,801.6117216117217,803.8644688644688,752.2527472527472
1624461923.828125,817.7289377289377,808.5531135531136,802.2435897435898,802.7289377289377,745.7326007326008
1624461923.8359375,817.2710622710623,807.3626373626373,802.875457875458,801.5934065934066,739.2124542124542
1624461923.84375,816.8131868131868,806.1721611721612,803.507326007326,800.4578754578754,732.6923076923077
1624461923.8515625,816.3553113553114,804.9816849816849,804.1391941391942,799.3223443223443,726.1721611721612
1624461923.859375,815.8974358974359,803.7912087912088,804.7710622710623,798.1868131868132,719.6520146520147
1624461923.8671875,815.4395604395604,802.6007326007326,805.4029304029305,797.0512820512821,713.1318681318681
1624461923.875,814.981684981685,801.4102564102564,806.0347985347986,795.9157509157509,706.6117216117216
1624461923.8828125,814.5238095238095,800.2197802197802,806.6666666666667,794.7802197802198,700.0915750915751
1624461923.890625,791.7582417582418,813.2142857142858,797.9029304029305,812.408424908425,761.1355311355311
1624461923.8984373,794.3325193325194,812.7721815221815,799.0725478225479,812.5931013431015,781.1029711029711
1624461923.90625,796.9067969067969,812.3300773300774,800.2421652421652,812.7777777777778,801.0704110704111
1624461923.9140625,799.4810744810745,811.8879731379732,801.4117826617826,812.9624542124543,821.0378510378509
1624461923.921875,802.0553520553522,811.4458689458689,802.5814000814,813.1471306471308,841.0052910052909
1624461923.9296875,804.6296296296297,811.0037647537648,803.7510175010175,813.3318070818071,860.9727309727309
1624461923.9375,807.2039072039073,810.5616605616606,804.9206349206348,813.5164835164836,880.9401709401709
1624461923.9453125,809.4871794871796,810.5168905168905,806.1518111518111,812.0390720390722,859.0923890923891
1624461923.9531252,811.7704517704518,810.4721204721204,807.3829873829873,810.5616605616607,837.2446072446072
1624461923.9609375,814.0537240537241,810.4273504273503,808.6141636141635,809.0842490842492,815.3968253968253
1624461923.96875,816.3369963369963,810.3825803825804,809.8453398453398,807.6068376068376,793.5490435490435
1624461923.9765625,818.6202686202686,810.3378103378103,811.076516076516,806.1294261294262,771.7012617012617
1624461923.984375,820.9035409035408,810.2930402930402,812.3076923076923,804.6520146520147,749.8534798534798
1624461923.9921875,818.3785103785103,809.9706959706959,812.3076923076923,804.4908424908425,750.3369963369963
1624461924.0,815.8534798534798,809.6483516483516,812.3076923076923,804.3296703296704,750.8205128205128
1624461924.0078125,813.3284493284493,809.3260073260072,812.3076923076924,804.1684981684982,751.3040293040293
1624461924.015625,810.8034188034188,809.003663003663,812.3076923076924,804.0073260073261,751.7875457875458
1624461924.0234375,808.2783882783883,808.6813186813187,812.3076923076924,803.8461538461539,752.2710622710623
1624461924.03125,813.2478632478633,813.9194139194138,815.5311355311356,809.7557997557997,846.4224664224665
1624461924.0390625,809.8229548229549,814.5909645909645,812.7106227106228,805.8831908831908,823.5002035002036
1624461924.0468748,806.3980463980464,815.2625152625153,809.8901098901099,802.010582010582,800.5779405779406
1624461924.0546875,802.9731379731379,815.934065934066,807.0695970695971,798.1379731379732,777.6556776556777
1624461924.0625,799.5482295482295,816.6056166056167,804.2490842490843,794.2653642653643,754.7334147334147
1624461924.0703125,796.1233211233211,817.2771672771675,801.4285714285713,790.3927553927554,731.8111518111517
1624461924.078125,792.6984126984127,817.9487179487181,798.6080586080585,786.5201465201466,708.8888888888888
1624461924.0859375,781.4879934879934,825.8998778998781,801.133089133089,777.1721611721612,731.5917785917786
1624461924.09375,770.2775742775742,833.851037851038,803.6581196581196,767.8241758241759,754.2946682946683
1624461924.1015627,759.067155067155,841.802197802198,806.1831501831502,758.4761904761906,776.997557997558
1624461924.109375,747.8567358567359,849.7533577533579,808.7081807081807,749.1282051282052,799.7004477004479
1624461924.1171875,736.6463166463167,857.7045177045178,811.2332112332113,739.7802197802198,822.4033374033377
1624461924.125,725.4358974358975,865.6556776556778,813.7582417582419,730.4322344322345,845.1062271062274
1624461924.1328125,706.941391941392,876.4407814407815,814.8148148148149,711.6422466422467,837.9833129833132
1624461924.140625,688.4468864468865,887.2258852258853,815.8713878713879,692.852258852259,830.8603988603991
1624461924.1484375,669.952380952381,898.0109890109891,816.9279609279611,674.0622710622711,823.7374847374849
1624461924.15625,651.4578754578755,908.7960927960928,817.9845339845341,655.2722832722833,816.6145706145708
1624461924.1640625,632.96336996337,919.5811965811968,819.0411070411071,636.4822954822955,809.4916564916566
1624461924.171875,614.4688644688646,930.3663003663004,820.0976800976802,617.6923076923077,802.3687423687425
1624461924.1796875,617.4102564102566,922.4554334554334,822.6271876271877,621.4395604395604,792.2596662596663
1624461924.1875,620.3516483516485,914.5445665445666,825.1566951566952,625.1868131868132,782.1505901505902
1624461924.1953125,623.2930402930403,906.6336996336996,827.6862026862027,628.934065934066,772.0415140415141
1624461924.203125,626.2344322344323,898.7228327228327,830.2157102157103,632.6813186813187,761.9324379324379
1624461924.2109375,629.1758241758243,890.8119658119658,832.7452177452177,636.4285714285713,751.8233618233618
1624461924.21875,632.1172161172162,882.9010989010989,835.2747252747253,640.1758241758241,741.7142857142857
1624461924.2265625,657.962962962963,872.9263329263329,828.5144485144485,665.5514855514855,741.2800162800162
1624461924.234375,683.8087098087099,862.951566951567,821.7541717541717,690.927146927147,740.8457468457468
1624461924.2421875,709.6544566544567,852.9768009768011,814.993894993895,716.3028083028083,740.4114774114773
1624461924.2499998,735.5002035002035,843.0020350020351,808.2336182336182,741.6784696784697,739.9772079772079
1624461924.2578125,761.3459503459503,833.0272690272691,801.4733414733414,767.0541310541312,739.5429385429385
1624461924.265625,787.1916971916971,823.0525030525032,794.7130647130647,792.4297924297925,739.108669108669
1624461924.2734375,869.1208791208792,792.2619047619047,784.8076923076924,869.92673992674,830.0366300366302
1624461924.28125,874.7619047619048,788.7978225478225,785.2274114774116,873.8441188441188,808.7260887260888
1624461924.2890625,880.4029304029305,785.3337403337403,785.6471306471307,877.7614977614978,787.4155474155475
1624461924.296875,886.0439560439561,781.8696581196581,786.0668498168498,881.6788766788768,766.1050061050062
1624461924.3046875,891.6849816849817,778.4055759055759,786.486568986569,885.5962555962557,744.7944647944647
1624461924.3125,897.3260073260074,774.9414936914936,786.9062881562882,889.5136345136345,723.4839234839234
1624461924.328125,904.4276556776556,770.2238502238503,788.0311355311354,898.7810337810339,738.1405168905168
1624461924.3359375,905.8882783882784,768.970288970289,788.7362637362637,904.1310541310542,774.1076516076515
1624461924.34375,907.3489010989013,767.7167277167277,789.4413919413919,909.4810744810744,810.0747863247863
1624461924.3515625,908.809523809524,766.4631664631665,790.1465201465201,914.8310948310948,846.041921041921
1624461924.359375,910.2701465201466,765.2096052096052,790.8516483516484,920.1811151811152,882.0090557590557
1624461924.3671875,911.7307692307692,763.956043956044,791.5567765567765,925.5311355311356,917.9761904761904
1624461924.375,907.3489010989013,765.1648351648353,792.9838217338217,920.5784493284492,909.6993284493284
1624461924.3828125,902.967032967033,766.3736263736264,794.410866910867,915.6257631257632,901.4224664224664
1624461924.390625,898.585164835165,767.5824175824175,795.8379120879122,910.6730769230768,893.1456043956044
1624461924.3984373,894.2032967032968,768.7912087912088,797.2649572649573,905.7203907203908,884.8687423687425
1624461924.40625,889.8214285714287,770.0,798.6920024420025,900.7677045177046,876.5918803418804
1624461924.4140625,885.4395604395605,771.2087912087911,800.1190476190477,895.8150183150184,868.3150183150184
1624461924.421875,885.8536833536834,773.9621489621488,802.2847985347986,894.186507936508,868.1135531135532
1624461924.4296875,886.2678062678063,776.7155067155066,804.4505494505495,892.5579975579976,867.9120879120879
1624461924.4375,886.6819291819293,779.4688644688645,806.6163003663005,890.9294871794872,867.7106227106227
1624461924.4453125,887.0960520960522,782.2222222222222,808.7820512820514,889.3009768009767,867.5091575091575
1624461924.4531252,887.5101750101751,784.9755799755799,810.9478021978023,887.6724664224664,867.3076923076923
1624461924.4609375,887.924297924298,787.7289377289377,813.1135531135532,886.043956043956,867.106227106227
1624461924.46875,881.5501628001629,789.290293040293,812.8281440781441,881.6452991452991,854.5314407814408
1624461924.4765625,875.1760276760277,790.8516483516484,812.5427350427351,877.2466422466422,841.9566544566544
1624461924.484375,868.8018925518926,792.4130036630036,812.257326007326,872.8479853479853,829.381868131868
1624461924.4921875,862.4277574277575,793.9743589743589,811.9719169719169,868.4493284493285,816.8070818070818
1624461924.5,856.0536223036223,795.5357142857142,811.686507936508,864.0506715506716,804.2322954822955
1624461924.5078125,849.6794871794872,797.0970695970695,811.4010989010989,859.6520146520147,791.6575091575091
1624461924.515625,846.1370573870574,798.333842083842,809.9180911680911,853.6416361416362,788.0926943426944
1624461924.5234375,842.5946275946276,799.5706145706146,808.4350834350834,847.6312576312577,784.5278795278796
1624461924.53125,839.0521978021978,800.8073870573871,806.9520757020757,841.6208791208792,780.9630647130648
1624461924.5390625,835.5097680097681,802.0441595441596,805.469067969068,835.6105006105007,777.3982498982499
1624461924.5468748,831.9673382173382,803.280932030932,803.9860602360602,829.6001221001221,773.8334350834351
1624461924.5546875,828.4249084249085,804.5177045177046,802.5030525030525,823.5897435897436,770.2686202686203
1624461924.5625,828.9789377289378,805.0437525437526,803.4488196988196,824.210927960928,769.3172568172569
1624461924.5703125,829.5329670329671,805.5698005698007,804.3945868945868,824.8321123321124,768.3658933658934
1624461924.578125,830.0869963369964,806.0958485958487,805.3403540903541,825.4532967032967,767.41452991453
1624461924.5859375,830.6410256410256,806.6218966218967,806.2861212861213,826.074481074481,766.4631664631665
1624461924.59375,831.195054945055,807.1479446479448,807.2318884818885,826.6956654456654,765.5118030118031
1624461924.6015627,831.7490842490843,807.6739926739928,808.1776556776557,827.3168498168498,764.5604395604396
1624461924.609375,830.8592796092796,807.4893162393164,806.4652014652015,826.510989010989,764.96336996337
1624461924.6171875,829.969474969475,807.3046398046399,804.7527472527473,825.7051282051282,765.3663003663004
1624461924.625,829.0796703296703,807.1199633699634,803.0402930402931,824.8992673992673,765.7692307692308
1624461924.6328125,828.1898656898658,806.9352869352871,801.3278388278388,824.0934065934065,766.1721611721613
1624461924.640625,827.3000610500611,806.7506105006107,799.6153846153846,823.2875457875457,766.5750915750916
1624461924.6484375,826.4102564102565,806.5659340659342,797.9029304029305,822.4816849816849,766.9780219780221
1624461924.65625,823.1644281644283,804.5233007733009,797.3712861212862,817.316341066341,764.9745624745626
1624461924.6640625,819.9185999186,802.4806674806676,796.8396418396419,812.1509971509971,762.971102971103
1624461924.671875,816.6727716727717,800.4380341880343,796.3079975579976,806.9856532356532,760.9676434676435
1624461924.6796875,813.4269434269435,798.3954008954009,795.7763532763533,801.8203093203093,758.964183964184
1624461924.6875,810.1811151811153,796.3527676027677,795.2447089947091,796.6549654049654,756.9607244607246
1624461924.6953125,806.935286935287,794.3101343101343,794.7130647130648,791.4896214896215,754.957264957265
1624461924.703125,803.8461538461539,799.4139194139194,796.1904761904763,772.014652014652,685.3846153846154
1624461924.7109375,806.0622710622711,799.0613553113553,798.4233821733823,775.6410256410256,694.5009157509157
1624461924.71875,808.2783882783883,798.7087912087912,800.6562881562883,779.2673992673992,703.6172161172161
1624461924.7265625,810.4945054945056,798.3562271062272,802.8891941391942,782.8937728937728,712.7335164835165
1624461924.734375,812.7106227106227,798.003663003663,805.1221001221002,786.5201465201466,721.8498168498169
1624461924.7421875,814.9267399267399,797.6510989010989,807.3550061050062,790.1465201465202,730.9661172161173
