TimeStamp,Delta_TP9,Delta_AF7,Delta_AF8,Delta_TP10,Theta_TP9,Theta_AF7,Theta_AF8,Theta_TP10,Alpha_TP9,Alpha_AF7,Alpha_AF8,Alpha_TP10,Beta_TP9,Beta_AF7,Beta_AF8,Beta_TP10,Gamma_TP9,Gamma_AF7,Gamma_AF8,Gamma_TP10,RAW_TP9,RAW_AF7,RAW_AF8,RAW_TP10,AUX_RIGHT,Accelerometer_X,Accelerometer_Y,Accelerometer_Z,Gyro_X,Gyro_Y,Gyro_Z,PPG_Ambient,PPG_IR,PPG_Red,Heart_Rate,HeadBandOn,HSI_TP9,HSI_AF7,HSI_AF8,HSI_TP10,Battery,Elements
2025-07-08 15:35:11.497,,,,,,,,,,,,,,,,,,,,,,,,,,,,,,,,,,,,,,,,,,/muse/event/connected Muse-49B9
2025-07-08 15:35:11.530,0.0,0.36151603,0.9445783,0.9591584,0.0,0.1684324,0.66846335,0.4498765,0.0,0.4071108,0.72525376,0.85025626,0.0,0.004577154,0.2420392,0.70185035,0.0,-0.30206382,-0.494748,0.44850567,816.337,813.1135,781.685,842.9304,488.35165,-0.05828857421875,0.1849365234375,0.988525390625,2.37762451171875,-4.583282470703125,-0.426177978515625,480293.0402930403,8.302380952380952E7,3.307091575091575E7,64.50715,1,1.0,1.0,1.0,1.0,65.00
2025-07-08 15:35:11.531,0.0,0.36151603,0.9445783,0.9591584,0.0,0.1684324,0.66846335,0.4498765,0.0,0.4071108,0.72525376,0.85025626,0.0,0.004577154,0.2420392,0.70185035,0.0,-0.30206382,-0.494748,0.44850567,789.34064,820.3663,784.5055,819.5604,805.4579,-0.05828857421875,0.1849365234375,0.988525390625,2.37762451171875,-4.583282470703125,-0.426177978515625,480293.0402930403,8.302380952380952E7,3.307091575091575E7,64.50715,1,1.0,1.0,1.0,1.0,65.00
2025-07-08 15:35:11.531,0.0,0.36151603,0.9445783,0.9591584,0.0,0.1684324,0.66846335,0.4498765,0.0,0.4071108,0.72525376,0.85025626,0.0,0.004577154,0.2420392,0.70185035,0.0,-0.30206382,-0.494748,0.44850567,789.7436,818.7546,776.8498,823.5897,780.4762,-0.05828857421875,0.1849365234375,0.988525390625,2.37762451171875,-4.583282470703125,-0.426177978515625,480293.0402930403,8.302380952380952E7,3.307091575091575E7,64.50715,1,1.0,1.0,1.0,1.0,65.00
2025-07-08 15:35:11.531,0.0,0.36151603,0.9445783,0.9591584,0.0,0.1684324,0.66846335,0.4498765,0.0,0.4071108,0.72525376,0.85025626,0.0,0.004577154,0.2420392,0.70185035,0.0,-0.30206382,-0.494748,0.44850567,828.8278,816.7399,774.43225,862.674,618.49817,-0.05828857421875,0.1849365234375,0.988525390625,2.37762451171875,-4.583282470703125,-0.426177978515625,480293.0402930403,8.302380952380952E7,3.307091575091575E7,64.50715,1,1.0,1.0,1.0,1.0,65.00
2025-07-08 15:35:11.531,0.0,0.36151603,0.9445783,0.9591584,0.0,0.1684324,0.66846335,0.4498765,0.0,0.4071108,0.72525376,0.85025626,0.0,0.004577154,0.2420392,0.70185035,0.0,-0.30206382,-0.494748,0.44850567,834.87177,817.9487,774.43225,861.8681,573.36993,-0.05828857421875,0.1849365234375,0.988525390625,2.37762451171875,-4.583282470703125,-0.426177978515625,480293.0402930403,8.302380952380952E7,3.307091575091575E7,64.50715,1,1.0,1.0,1.0,1.0,65.00
2025-07-08 15:35:11.531,0.0,0.36151603,0.9445783,0.9591584,0.0,0.1684324,0.66846335,0.4498765,0.0,0.4071108,0.72525376,0.85025626,0.0,0.004577154,0.2420392,0.70185035,0.0,-0.30206382,-0.494748,0.44850567,807.8755,828.022,778.86444,831.6484,792.1612,-0.05828857421875,0.1849365234375,0.988525390625,2.37762451171875,-4.583282470703125,-0.426177978515625,480293.0402930403,8.302380952380952E7,3.307091575091575E7,64.50715,1,1.0,1.0,1.0,1.0,65.00
2025-07-08 15:35:11.531,0.0,0.36151603,0.9445783,0.9591584,0.0,0.1684324,0.66846335,0.4498765,0.0,0.4071108,0.72525376,0.85025626,0.0,0.004577154,0.2420392,0.70185035,0.0,-0.30206382,-0.494748,0.44850567,790.54944,823.9927,779.2674,819.15753,951.31866,-0.05828857421875,0.1849365234375,0.988525390625,2.37762451171875,-4.583282470703125,-0.426177978515625,480293.0402930403,8.302380952380952E7,3.307091575091575E7,64.50715,1,1.0,1.0,1.0,1.0,65.00
2025-07-08 15:35:11.531,0.0,0.36151603,0.9445783,0.9591584,0.0,0.1684324,0.66846335,0.4498765,0.0,0.4071108,0.72525376,0.85025626,0.0,0.004577154,0.2420392,0.70185035,0.0,-0.30206382,-0.494748,0.44850567,810.293,814.7253,778.86444,855.42126,655.16486,-0.05828857421875,0.1849365234375,0.988525390625,2.37762451171875,-4.583282470703125,-0.426177978515625,480293.0402930403,8.302380952380952E7,3.307091575091575E7,64.50715,1,1.0,1.0,1.0,1.0,65.00
2025-07-08 15:35:11.532,0.0,0.36151603,0.9445783,0.9591584,0.0,0.1684324,0.66846335,0.4498765,0.0,0.4071108,0.72525376,0.85025626,0.0,0.004577154,0.2420392,0.70185035,0.0,-0.30206382,-0.494748,0.44850567,828.8278,817.5458,780.4762,880.0,711.5751,-0.05828857421875,0.1849365234375,0.988525390625,2.37762451171875,-4.583282470703125,-0.426177978515625,480293.0402930403,8.302380952380952E7,3.307091575091575E7,64.50715,1,1.0,1.0,1.0,1.0,65.00
2025-07-08 15:35:11.532,0.0,0.36151603,0.9445783,0.9591584,0.0,0.1684324,0.66846335,0.4498765,0.0,0.4071108,0.72525376,0.85025626,0.0,0.004577154,0.2420392,0.70185035,0.0,-0.30206382,-0.494748,0.44850567,803.44324,819.9634,777.6557,850.18317,1041.5751,-0.05828857421875,0.1849365234375,0.988525390625,2.37762451171875,-4.583282470703125,-0.426177978515625,480293.0402930403,8.302380952380952E7,3.307091575091575E7,64.50715,1,1.0,1.0,1.0,1.0,65.00
2025-07-08 15:35:11.532,0.0,0.36151603,0.9445783,0.9591584,0.0,0.1684324,0.66846335,0.4498765,0.0,0.4071108,0.72525376,0.85025626,0.0,0.004577154,0.2420392,0.70185035,0.0,-0.30206382,-0.494748,0.44850567,766.3736,815.9341,772.4176,807.8755,1076.227,-0.05828857421875,0.1849365234375,0.988525390625,2.37762451171875,-4.583282470703125,-0.426177978515625,480293.0402930403,8.302380952380952E7,3.307091575091575E7,64.50715,1,1.0,1.0,1.0,1.0,65.00
2025-07-08 15:35:11.532,0.0,0.36196548,0.96870345,0.9411661,0.0,0.17920032,0.7350544,0.4858013,0.0,0.4071108,0.72525376,0.7970776,0.0,-0.0076402985,0.24187902,0.69072384,0.0,-0.30540237,-0.4923858,0.4362942,801.02563,815.12823,771.2088,834.87177,849.7802,-0.05828857421875,0.1849365234375,0.988525390625,2.37762451171875,-4.583282470703125,-0.426177978515625,480293.0402930403,8.302380952380952E7,3.307091575091575E7,64.50715,1,1.0,1.0,1.0,1.0,65.00
2025-07-08 15:35:11.535,0.0,0.36196548,0.96870345,0.9411661,0.0,0.17920032,0.7350544,0.4858013,0.0,0.4071108,0.72525376,0.7970776,0.0,-0.0076402985,0.24187902,0.69072384,0.0,-0.30540237,-0.4923858,0.4362942,840.5128,822.381,774.0293,881.2088,761.9414,-0.05755615234375,0.1820068359375,0.9896240234375,2.250518798828125,-4.583282470703125,-1.1663818359375,478681.31868131866,8.310117216117217E7,3.3096703296703298E7,64.477486,1,1.0,1.0,1.0,1.0,65.00
2025-07-08 15:35:11.535,0.0,0.36196548,0.96870345,0.9411661,0.0,0.17920032,0.7350544,0.4858013,0.0,0.4071108,0.72525376,0.7970776,0.0,-0.0076402985,0.24187902,0.69072384,0.0,-0.30540237,-0.4923858,0.4362942,817.9487,827.619,778.86444,856.63007,679.7436,-0.05755615234375,0.1820068359375,0.9896240234375,2.250518798828125,-4.583282470703125,-1.1663818359375,478681.31868131866,8.310117216117217E7,3.3096703296703298E7,64.477486,1,1.0,1.0,1.0,1.0,65.00
2025-07-08 15:35:11.535,0.0,0.36196548,0.96870345,0.9411661,0.0,0.17920032,0.7350544,0.4858013,0.0,0.4071108,0.72525376,0.7970776,0.0,-0.0076402985,0.24187902,0.69072384,0.0,-0.30540237,-0.4923858,0.4362942,777.6557,824.7985,778.0586,805.05493,535.89746,-0.05755615234375,0.1820068359375,0.9896240234375,2.250518798828125,-4.583282470703125,-1.1663818359375,478681.31868131866,8.310117216117217E7,3.3096703296703298E7,64.477486,1,1.0,1.0,1.0,1.0,65.00
2025-07-08 15:35:11.535,0.0,0.36196548,0.96870345,0.9411661,0.0,0.17920032,0.7350544,0.4858013,0.0,0.4071108,0.72525376,0.7970776,0.0,-0.0076402985,0.24187902,0.69072384,0.0,-0.30540237,-0.4923858,0.4362942,808.2784,827.2161,775.64105,828.4249,504.46887,-0.05755615234375,0.1820068359375,0.9896240234375,2.250518798828125,-4.583282470703125,-1.1663818359375,478681.31868131866,8.310117216117217E7,3.3096703296703298E7,64.477486,1,1.0,1.0,1.0,1.0,65.00
2025-07-08 15:35:11.535,0.0,0.36196548,0.96870345,0.9411661,0.0,0.17920032,0.7350544,0.4858013,0.0,0.4071108,0.72525376,0.7970776,0.0,-0.0076402985,0.24187902,0.69072384,0.0,-0.30540237,-0.4923858,0.4362942,854.21246,830.84247,780.4762,882.01465,625.7509,-0.05755615234375,0.1820068359375,0.9896240234375,2.250518798828125,-4.583282470703125,-1.1663818359375,478681.31868131866,8.310117216117217E7,3.3096703296703298E7,64.477486,1,1.0,1.0,1.0,1.0,65.00
2025-07-08 15:35:11.535,0.0,0.36196548,0.96870345,0.9411661,0.0,0.17920032,0.7350544,0.4858013,0.0,0.4071108,0.72525376,0.7970776,0.0,-0.0076402985,0.24187902,0.69072384,0.0,-0.30540237,-0.4923858,0.4362942,840.10986,826.8132,784.90845,870.7326,699.0842,-0.05755615234375,0.1820068359375,0.9896240234375,2.250518798828125,-4.583282470703125,-1.1663818359375,478681.31868131866,8.310117216117217E7,3.3096703296703298E7,64.477486,1,1.0,1.0,1.0,1.0,65.00
2025-07-08 15:35:11.536,0.0,0.36196548,0.96870345,0.9411661,0.0,0.17920032,0.7350544,0.4858013,0.0,0.4071108,0.72525376,0.7970776,0.0,-0.0076402985,0.24187902,0.69072384,0.0,-0.30540237,-0.4923858,0.4362942,790.54944,823.9927,778.86444,820.3663,678.93774,-0.05755615234375,0.1820068359375,0.9896240234375,2.250518798828125,-4.583282470703125,-1.1663818359375,478681.31868131866,8.310117216117217E7,3.3096703296703298E7,64.477486,1,1.0,1.0,1.0,1.0,65.00
2025-07-08 15:35:11.536,0.0,0.36196548,0.96870345,0.9411661,0.0,0.17920032,0.7350544,0.4858013,0.0,0.4071108,0.72525376,0.7970776,0.0,-0.0076402985,0.24187902,0.69072384,0.0,-0.30540237,-0.4923858,0.4362942,777.25275,820.3663,770.80585,816.7399,632.6007,-0.05755615234375,0.1820068359375,0.9896240234375,2.250518798828125,-4.583282470703125,-1.1663818359375,478681.31868131866,8.310117216117217E7,3.3096703296703298E7,64.477486,1,1.0,1.0,1.0,1.0,65.00
2025-07-08 15:35:11.536,0.0,0.36196548,0.96870345,0.9411661,0.0,0.17920032,0.7350544,0.4858013,0.0,0.4071108,0.72525376,0.7970776,0.0,-0.0076402985,0.24187902,0.69072384,0.0,-0.30540237,-0.4923858,0.4362942,823.5897,821.1722,771.6117,873.5531,770.40295,-0.05755615234375,0.1820068359375,0.9896240234375,2.250518798828125,-4.583282470703125,-1.1663818359375,478681.31868131866,8.310117216117217E7,3.3096703296703298E7,64.477486,1,1.0,1.0,1.0,1.0,65.00
2025-07-08 15:35:11.536,0.0,0.36196548,0.96870345,0.9411661,0.0,0.17920032,0.7350544,0.4858013,0.0,0.4071108,0.72525376,0.7970776,0.0,-0.0076402985,0.24187902,0.69072384,0.0,-0.30540237,-0.4923858,0.4362942,830.4396,820.3663,772.8205,882.4176,805.4579,-0.05755615234375,0.1820068359375,0.9896240234375,2.250518798828125,-4.583282470703125,-1.1663818359375,478681.31868131866,8.310117216117217E7,3.3096703296703298E7,64.477486,1,1.0,1.0,1.0,1.0,65.00
2025-07-08 15:35:11.536,0.0,0.36196548,0.96870345,0.9411661,0.0,0.17920032,0.7350544,0.4858013,0.0,0.4071108,0.72525376,0.7970776,0.0,-0.0076402985,0.24187902,0.69072384,0.0,-0.30540237,-0.4923858,0.4362942,790.14655,817.1429,772.01465,825.6044,687.3993,-0.05755615234375,0.1820068359375,0.9896240234375,2.250518798828125,-4.583282470703125,-1.1663818359375,478681.31868131866,8.310117216117217E7,3.3096703296703298E7,64.477486,1,1.0,1.0,1.0,1.0,65.00
2025-07-08 15:35:11.536,0.0,0.36196548,0.96870345,0.9411661,0.0,0.17920032,0.7350544,0.4858013,0.0,0.4071108,0.72525376,0.7970776,0.0,-0.0076402985,0.24187902,0.69072384,0.0,-0.30540237,-0.4923858,0.4362942,777.25275,819.9634,772.01465,807.8755,714.3956,-0.05755615234375,0.1820068359375,0.9896240234375,2.250518798828125,-4.583282470703125,-1.1663818359375,478681.31868131866,8.310117216117217E7,3.3096703296703298E7,64.477486,1,1.0,1.0,1.0,1.0,65.00
2025-07-08 15:35:11.537,0.0,0.36196548,0.96870345,0.9411661,0.0,0.17920032,0.7350544,0.4858013,0.0,0.4071108,0.72525376,0.7970776,0.0,-0.0076402985,0.24187902,0.69072384,0.0,-0.30540237,-0.4923858,0.4362942,824.7985,827.619,777.25275,865.89746,837.6923,-0.05120849609375,0.18414306640625,0.98712158203125,2.03369140625,-5.15899658203125,-0.95703125,478681.31868131866,8.310117216117217E7,3.3096703296703298E7,64.477486,1,1.0,1.0,1.0,1.0,65.00
2025-07-08 15:35:11.537,0.0,0.36196548,0.96870345,0.9411661,0.0,0.17920032,0.7350544,0.4858013,0.0,0.4071108,0.72525376,0.7970776,0.0,-0.0076402985,0.24187902,0.69072384,0.0,-0.30540237,-0.4923858,0.4362942,846.55676,827.2161,776.8498,901.3553,1133.4432,-0.05120849609375,0.18414306640625,0.98712158203125,2.03369140625,-5.15899658203125,-0.95703125,478681.31868131866,8.310117216117217E7,3.3096703296703298E7,64.477486,1,1.0,1.0,1.0,1.0,65.00
2025-07-08 15:35:11.537,0.0,0.36196548,0.96870345,0.9411661,0.0,0.17920032,0.7350544,0.4858013,0.0,0.4071108,0.72525376,0.7970776,0.0,-0.0076402985,0.24187902,0.69072384,0.0,-0.30540237,-0.4923858,0.4362942,794.9817,817.9487,773.6264,835.2747,943.663,-0.05120849609375,0.18414306640625,0.98712158203125,2.03369140625,-5.15899658203125,-0.95703125,478681.31868131866,8.310117216117217E7,3.3096703296703298E7,64.477486,1,1.0,1.0,1.0,1.0,65.00
2025-07-08 15:35:11.537,0.0,0.36196548,0.96870345,0.9411661,0.0,0.17920032,0.7350544,0.4858013,0.0,0.4071108,0.72525376,0.7970776,0.0,-0.0076402985,0.24187902,0.69072384,0.0,-0.30540237,-0.4923858,0.4362942,768.3883,817.9487,777.25275,790.9524,645.89746,-0.05120849609375,0.18414306640625,0.98712158203125,2.03369140625,-5.15899658203125,-0.95703125,478681.31868131866,8.310117216117217E7,3.3096703296703298E7,64.477486,1,1.0,1.0,1.0,1.0,65.00
2025-07-08 15:35:11.537,0.0,0.36196548,0.96870345,0.9411661,0.0,0.17920032,0.7350544,0.4858013,0.0,0.4071108,0.72525376,0.7970776,0.0,-0.0076402985,0.24187902,0.69072384,0.0,-0.30540237,-0.4923858,0.4362942,805.05493,819.15753,778.46155,849.3773,716.0073,-0.05120849609375,0.18414306640625,0.98712158203125,2.03369140625,-5.15899658203125,-0.95703125,478681.31868131866,8.310117216117217E7,3.3096703296703298E7,64.477486,1,1.0,1.0,1.0,1.0,65.00
2025-07-08 15:35:11.537,0.0,0.36196548,0.96870345,0.9411661,0.0,0.17920032,0.7350544,0.4858013,0.0,0.4071108,0.72525376,0.7970776,0.0,-0.0076402985,0.24187902,0.69072384,0.0,-0.30540237,-0.4923858,0.4362942,832.8571,817.1429,780.87915,887.25275,782.0879,-0.05120849609375,0.18414306640625,0.98712158203125,2.03369140625,-5.15899658203125,-0.95703125,478681.31868131866,8.310117216117217E7,3.3096703296703298E7,64.477486,1,1.0,1.0,1.0,1.0,65.00
2025-07-08 15:35:11.537,0.0,0.36196548,0.96870345,0.9411661,0.0,0.17920032,0.7350544,0.4858013,0.0,0.4071108,0.72525376,0.7970776,0.0,-0.0076402985,0.24187902,0.69072384,0.0,-0.30540237,-0.4923858,0.4362942,815.5311,820.7692,785.31134,862.27106,845.34796,-0.05120849609375,0.18414306640625,0.98712158203125,2.03369140625,-5.15899658203125,-0.95703125,478681.31868131866,8.310117216117217E7,3.3096703296703298E7,64.477486,1,1.0,1.0,1.0,1.0,65.00
2025-07-08 15:35:11.537,0.0,0.36196548,0.96870345,0.9411661,0.0,0.17920032,0.7350544,0.4858013,0.0,0.4071108,0.72525376,0.7970776,0.0,-0.0076402985,0.24187902,0.69072384,0.0,-0.30540237,-0.4923858,0.4362942,774.83514,823.5897,782.0879,815.5311,692.23444,-0.05120849609375,0.18414306640625,0.98712158203125,2.03369140625,-5.15899658203125,-0.95703125,478681.31868131866,8.310117216117217E7,3.3096703296703298E7,64.477486,1,1.0,1.0,1.0,1.0,65.00
2025-07-08 15:35:11.538,0.0,0.36196548,0.96870345,0.9411661,0.0,0.17920032,0.7350544,0.4858013,0.0,0.4071108,0.72525376,0.7970776,0.0,-0.0076402985,0.24187902,0.69072384,0.0,-0.30540237,-0.4923858,0.4362942,799.41394,827.619,777.25275,844.1392,816.337,-0.05120849609375,0.18414306640625,0.98712158203125,2.03369140625,-5.15899658203125,-0.95703125,478681.31868131866,8.310117216117217E7,3.3096703296703298E7,64.477486,1,1.0,1.0,1.0,1.0,65.00
2025-07-08 15:35:11.538,0.0,0.36196548,0.96870345,0.9411661,0.0,0.17920032,0.7350544,0.4858013,0.0,0.4071108,0.72525376,0.7970776,0.0,-0.0076402985,0.24187902,0.69072384,0.0,-0.30540237,-0.4923858,0.4362942,837.6923,828.8278,776.4469,886.4469,993.22345,-0.05120849609375,0.18414306640625,0.98712158203125,2.03369140625,-5.15899658203125,-0.95703125,478681.31868131866,8.310117216117217E7,3.3096703296703298E7,64.477486,1,1.0,1.0,1.0,1.0,65.00
2025-07-08 15:35:11.538,0.0,0.36196548,0.96870345,0.9411661,0.0,0.17920032,0.7350544,0.4858013,0.0,0.4071108,0.72525376,0.7970776,0.0,-0.0076402985,0.24187902,0.69072384,0.0,-0.30540237,-0.4923858,0.4362942,812.71063,820.7692,773.6264,849.3773,810.293,-0.05120849609375,0.18414306640625,0.98712158203125,2.03369140625,-5.15899658203125,-0.95703125,478681.31868131866,8.310117216117217E7,3.3096703296703298E7,64.477486,1,1.0,1.0,1.0,1.0,65.00
2025-07-08 15:35:11.538,0.0,0.36196548,0.96870345,0.9411661,0.0,0.17920032,0.7350544,0.4858013,0.0,0.4071108,0.72525376,0.7970776,0.0,-0.0076402985,0.24187902,0.69072384,0.0,-0.30540237,-0.4923858,0.4362942,780.4762,823.5897,772.01465,811.0989,691.8315,-0.05120849609375,0.18414306640625,0.98712158203125,2.03369140625,-5.15899658203125,-0.95703125,478681.31868131866,8.310117216117217E7,3.3096703296703298E7,64.477486,1,1.0,1.0,1.0,1.0,65.00
2025-07-08 15:35:11.562,0.0,0.36196548,0.96870345,0.9411661,0.0,0.17920032,0.7350544,0.4858013,0.0,0.4071108,0.72525376,0.7970776,0.0,-0.0076402985,0.24187902,0.69072384,0.0,-0.30540237,-0.4923858,0.4362942,790.54944,828.8278,777.6557,823.1868,639.0476,-0.05120849609375,0.18414306640625,0.98712158203125,2.03369140625,-5.15899658203125,-0.95703125,478681.31868131866,8.31454945054945E7,3.312249084249084E7,64.449554,1,1.0,1.0,1.0,1.0,65.00
2025-07-08 15:35:11.562,0.0,0.36180043,0.97109497,0.9411661,0.0,0.17749433,0.7606192,0.4858013,0.0,0.4071108,0.72525376,0.7970776,0.0,-0.011577616,0.2351072,0.69072384,0.0,-0.30954772,-0.4932751,0.4362942,821.978,823.1868,781.685,857.8388,1026.2638,-0.05120849609375,0.18414306640625,0.98712158203125,2.03369140625,-5.15899658203125,-0.95703125,478681.31868131866,8.31454945054945E7,3.312249084249084E7,64.449554,1,1.0,1.0,1.0,1.0,65.00
2025-07-08 15:35:11.563,0.0,0.36180043,0.97109497,0.9411661,0.0,0.17749433,0.7606192,0.4858013,0.0,0.4071108,0.72525376,0.7970776,0.0,-0.011577616,0.2351072,0.69072384,0.0,-0.30954772,-0.4932751,0.4362942,817.1429,819.9634,781.685,859.85345,1426.3737,-0.05120849609375,0.18414306640625,0.98712158203125,2.03369140625,-5.15899658203125,-0.95703125,478681.31868131866,8.31454945054945E7,3.312249084249084E7,64.449554,1,1.0,1.0,1.0,1.0,65.00
2025-07-08 15:35:11.563,0.0,0.36180043,0.97109497,0.9411661,0.0,0.17749433,0.7606192,0.4858013,0.0,0.4071108,0.72525376,0.7970776,0.0,-0.011577616,0.2351072,0.69072384,0.0,-0.30954772,-0.4932751,0.4362942,792.96704,825.6044,782.8938,836.08057,1352.6373,-0.05120849609375,0.18414306640625,0.98712158203125,2.03369140625,-5.15899658203125,-0.95703125,478681.31868131866,8.31454945054945E7,3.312249084249084E7,64.449554,1,1.0,1.0,1.0,1.0,65.00
2025-07-08 15:35:11.563,0.0,0.36180043,0.97109497,0.9411661,0.0,0.17749433,0.7606192,0.4858013,0.0,0.4071108,0.72525376,0.7970776,0.0,-0.011577616,0.2351072,0.69072384,0.0,-0.30954772,-0.4932751,0.4362942,780.07324,827.2161,780.07324,820.7692,924.7253,-0.05120849609375,0.18414306640625,0.98712158203125,2.03369140625,-5.15899658203125,-0.95703125,478681.31868131866,8.31454945054945E7,3.312249084249084E7,64.449554,1,1.0,1.0,1.0,1.0,65.00
2025-07-08 15:35:11.563,0.0,0.36180043,0.97109497,0.9411661,0.0,0.17749433,0.7606192,0.4858013,0.0,0.4071108,0.72525376,0.7970776,0.0,-0.011577616,0.2351072,0.69072384,0.0,-0.30954772,-0.4932751,0.4362942,805.4579,821.1722,779.67035,847.3626,826.8132,-0.05120849609375,0.18414306640625,0.98712158203125,2.03369140625,-5.15899658203125,-0.95703125,478681.31868131866,8.31454945054945E7,3.312249084249084E7,64.449554,1,1.0,1.0,1.0,1.0,65.00
2025-07-08 15:35:11.563,0.0,0.36180043,0.97109497,0.9411661,0.0,0.17749433,0.7606192,0.4858013,0.0,0.4071108,0.72525376,0.7970776,0.0,-0.011577616,0.2351072,0.69072384,0.0,-0.30954772,-0.4932751,0.4362942,826.4103,820.3663,782.0879,865.09155,953.3333,-0.05120849609375,0.18414306640625,0.98712158203125,2.03369140625,-5.15899658203125,-0.95703125,478681.31868131866,8.31454945054945E7,3.312249084249084E7,64.449554,1,1.0,1.0,1.0,1.0,65.00
2025-07-08 15:35:11.563,0.0,0.36180043,0.97109497,0.9411661,0.0,0.17749433,0.7606192,0.4858013,0.0,0.4071108,0.72525376,0.7970776,0.0,-0.011577616,0.2351072,0.69072384,0.0,-0.30954772,-0.4932751,0.4362942,803.0403,826.8132,782.8938,842.52747,1002.0879,-0.05120849609375,0.18414306640625,0.98712158203125,2.03369140625,-5.15899658203125,-0.95703125,478681.31868131866,8.31454945054945E7,3.312249084249084E7,64.449554,1,1.0,1.0,1.0,1.0,65.00
2025-07-08 15:35:11.564,0.0,0.36180043,0.97109497,0.9411661,0.0,0.17749433,0.7606192,0.4858013,0.0,0.4071108,0.72525376,0.7970776,0.0,-0.011577616,0.2351072,0.69072384,0.0,-0.30954772,-0.4932751,0.4362942,776.8498,827.2161,779.67035,807.8755,1028.6813,-0.05120849609375,0.18414306640625,0.98712158203125,2.03369140625,-5.15899658203125,-0.95703125,478681.31868131866,8.31454945054945E7,3.312249084249084E7,64.449554,1,1.0,1.0,1.0,1.0,65.00
2025-07-08 15:35:11.564,0.0,0.36180043,0.97109497,0.9411661,0.0,0.17749433,0.7606192,0.4858013,0.0,0.4071108,0.72525376,0.7970776,0.0,-0.011577616,0.2351072,0.69072384,0.0,-0.30954772,-0.4932751,0.4362942,798.60803,821.978,776.8498,821.1722,829.6337,-0.05120849609375,0.18414306640625,0.98712158203125,2.03369140625,-5.15899658203125,-0.95703125,478681.31868131866,8.31454945054945E7,3.312249084249084E7,64.449554,1,1.0,1.0,1.0,1.0,65.00
2025-07-08 15:35:11.564,0.0,0.36180043,0.97109497,0.9411661,0.0,0.17749433,0.7606192,0.4858013,0.0,0.4071108,0.72525376,0.7970776,0.0,-0.011577616,0.2351072,0.69072384,0.0,-0.30954772,-0.4932751,0.4362942,837.28937,830.0366,784.90845,864.2857,659.19415,-0.05120849609375,0.18414306640625,0.98712158203125,2.03369140625,-5.15899658203125,-0.95703125,478681.31868131866,8.31454945054945E7,3.312249084249084E7,64.449554,1,1.0,1.0,1.0,1.0,65.00
2025-07-08 15:35:11.564,0.0,0.36180043,0.97109497,0.9411661,0.0,0.17749433,0.7606192,0.4858013,0.0,0.4071108,0.72525376,0.7970776,0.0,-0.011577616,0.2351072,0.69072384,0.0,-0.30954772,-0.4932751,0.4362942,817.9487,831.2454,788.5348,851.39197,977.9121,-0.05120849609375,0.18414306640625,0.98712158203125,2.03369140625,-5.15899658203125,-0.95703125,478681.31868131866,8.31454945054945E7,3.312249084249084E7,64.449554,1,1.0,1.0,1.0,1.0,65.00
2025-07-08 15:35:11.609,0.0,0.36180043,0.97109497,0.9411661,0.0,0.17749433,0.7606192,0.4858013,0.0,0.4071108,0.72525376,0.7970776,0.0,-0.011577616,0.2351072,0.69072384,0.0,-0.30954772,-0.4932751,0.4362942,775.2381,828.8278,789.34064,811.50183,1433.2234,-0.057373046875,0.180908203125,0.9891357421875,1.5850830078125,-5.435638427734375,-2.130889892578125,478681.31868131866,8.31454945054945E7,3.312249084249084E7,64.449554,1,1.0,1.0,1.0,1.0,65.00
2025-07-08 15:35:11.610,0.0,0.36180043,0.97109497,0.9411661,0.0,0.17749433,0.7606192,0.4858013,0.0,0.4071108,0.72525376,0.7970776,0.0,-0.011577616,0.2351072,0.69072384,0.0,-0.30954772,-0.4932751,0.4362942,796.1905,831.2454,791.75824,829.2308,1446.1172,-0.057373046875,0.180908203125,0.9891357421875,1.5850830078125,-5.435638427734375,-2.130889892578125,478681.31868131866,8.31454945054945E7,3.312249084249084E7,64.449554,1,1.0,1.0,1.0,1.0,65.00
2025-07-08 15:35:11.610,0.0,0.36180043,0.97109497,0.9411661,0.0,0.17749433,0.7606192,0.4858013,0.0,0.4071108,0.72525376,0.7970776,0.0,-0.011577616,0.2351072,0.69072384,0.0,-0.30954772,-0.4932751,0.4362942,837.28937,828.4249,788.1319,870.7326,856.2271,-0.057373046875,0.180908203125,0.9891357421875,1.5850830078125,-5.435638427734375,-2.130889892578125,478681.31868131866,8.31454945054945E7,3.312249084249084E7,64.449554,1,1.0,1.0,1.0,1.0,65.00
2025-07-08 15:35:11.610,0.0,0.36180043,0.97109497,0.9411661,0.0,0.17749433,0.7606192,0.4858013,0.0,0.4071108,0.72525376,0.7970776,0.0,-0.011577616,0.2351072,0.69072384,0.0,-0.30954772,-0.4932751,0.4362942,827.619,823.5897,786.52014,876.77655,549.59705,-0.057373046875,0.180908203125,0.9891357421875,1.5850830078125,-5.435638427734375,-2.130889892578125,478681.31868131866,8.31454945054945E7,3.312249084249084E7,64.449554,1,1.0,1.0,1.0,1.0,65.00
2025-07-08 15:35:11.611,0.0,0.36180043,0.97109497,0.9411661,0.0,0.17749433,0.7606192,0.4858013,0.0,0.4071108,0.72525376,0.7970776,0.0,-0.011577616,0.2351072,0.69072384,0.0,-0.30954772,-0.4932751,0.4362942,784.5055,825.2015,787.326,831.6484,586.26373,-0.057373046875,0.180908203125,0.9891357421875,1.5850830078125,-5.435638427734375,-2.130889892578125,478681.31868131866,8.31454945054945E7,3.312249084249084E7,64.449554,1,1.0,1.0,1.0,1.0,65.00
2025-07-08 15:35:11.611,0.0,0.36180043,0.97109497,0.9411661,0.0,0.17749433,0.7606192,0.4858013,0.0,0.4071108,0.72525376,0.7970776,0.0,-0.011577616,0.2351072,0.69072384,0.0,-0.30954772,-0.4932751,0.4362942,785.31134,827.2161,787.326,816.337,331.61172,-0.057373046875,0.180908203125,0.9891357421875,1.5850830078125,-5.435638427734375,-2.130889892578125,478681.31868131866,8.31454945054945E7,3.312249084249084E7,64.449554,1,1.0,1.0,1.0,1.0,65.00
2025-07-08 15:35:11.611,0.0,0.36180043,0.97109497,0.9411661,0.0,0.17749433,0.7606192,0.4858013,0.0,0.4071108,0.72525376,0.7970776,0.0,-0.011577616,0.2351072,0.69072384,0.0,-0.30954772,-0.4932751,0.4362942,827.2161,820.3663,781.28204,859.85345,750.2564,-0.057373046875,0.180908203125,0.9891357421875,1.5850830078125,-5.435638427734375,-2.130889892578125,478681.31868131866,8.31454945054945E7,3.312249084249084E7,64.449554,1,1.0,1.0,1.0,1.0,65.00
2025-07-08 15:35:11.611,0.0,0.36180043,0.97109497,0.9411661,0.0,0.17749433,0.7606192,0.4858013,0.0,0.4071108,0.72525376,0.7970776,0.0,-0.011577616,0.2351072,0.69072384,0.0,-0.30954772,-0.4932751,0.4362942,841.31866,817.5458,775.64105,890.4762,1178.1685,-0.057373046875,0.180908203125,0.9891357421875,1.5850830078125,-5.435638427734375,-2.130889892578125,478681.31868131866,8.31454945054945E7,3.312249084249084E7,64.449554,1,1.0,1.0,1.0,1.0,65.00
2025-07-08 15:35:11.611,0.0,0.36180043,0.97109497,0.9411661,0.0,0.17749433,0.7606192,0.4858013,0.0,0.4071108,0.72525376,0.7970776,0.0,-0.011577616,0.2351072,0.69072384,0.0,-0.30954772,-0.4932751,0.4362942,804.65204,815.12823,773.6264,846.55676,856.2271,-0.057373046875,0.180908203125,0.9891357421875,1.5850830078125,-5.435638427734375,-2.130889892578125,478681.31868131866,8.31454945054945E7,3.312249084249084E7,64.449554,1,1.0,1.0,1.0,1.0,65.00
2025-07-08 15:35:11.611,0.0,0.36180043,0.97109497,0.9411661,0.0,0.17749433,0.7606192,0.4858013,0.0,0.4071108,0.72525376,0.7970776,0.0,-0.011577616,0.2351072,0.69072384,0.0,-0.30954772,-0.4932751,0.4362942,771.6117,809.89014,776.04395,788.5348,912.23444,-0.057373046875,0.180908203125,0.9891357421875,1.5850830078125,-5.435638427734375,-2.130889892578125,478681.31868131866,8.31454945054945E7,3.312249084249084E7,64.449554,1,1.0,1.0,1.0,1.0,65.00
2025-07-08 15:35:11.612,0.0,0.36180043,0.97109497,0.9411661,0.0,0.17749433,0.7606192,0.4858013,0.0,0.4071108,0.72525376,0.7970776,0.0,-0.011577616,0.2351072,0.69072384,0.0,-0.30954772,-0.4932751,0.4362942,820.3663,820.7692,779.2674,847.3626,893.2967,-0.057373046875,0.180908203125,0.9891357421875,1.5850830078125,-5.435638427734375,-2.130889892578125,478681.31868131866,8.31454945054945E7,3.312249084249084E7,64.449554,1,1.0,1.0,1.0,1.0,65.00
2025-07-08 15:35:11.612,0.0,0.36180043,0.97109497,0.9411661,0.0,0.17749433,0.7606192,0.4858013,0.0,0.4071108,0.72525376,0.7970776,0.0,-0.011577616,0.2351072,0.69072384,0.0,-0.30954772,-0.4932751,0.4362942,853.8095,828.8278,779.67035,873.95605,502.85715,-0.057373046875,0.180908203125,0.9891357421875,1.5850830078125,-5.435638427734375,-2.130889892578125,478681.31868131866,8.31454945054945E7,3.312249084249084E7,64.449554,1,1.0,1.0,1.0,1.0,65.00
2025-07-08 15:35:11.658,0.0,0.36180043,0.97109497,0.9411661,0.0,0.17749433,0.7606192,0.4858013,0.0,0.4071108,0.72525376,0.7970776,0.0,-0.011577616,0.2351072,0.69072384,0.0,-0.30954772,-0.4932751,0.4362942,825.2015,831.2454,787.326,833.2601,489.56042,-0.0518798828125,0.17950439453125,0.989990234375,1.936492919921875,-5.600128173828125,-1.854248046875,478681.31868131866,8.319545787545787E7,3.3133772893772893E7,64.42326,1,1.0,1.0,1.0,1.0,65.00
2025-07-08 15:35:11.658,0.0,0.36180043,0.97109497,0.9411661,0.0,0.17749433,0.7606192,0.4858013,0.0,0.4071108,0.72525376,0.7970776,0.0,-0.011577616,0.2351072,0.69072384,0.0,-0.30954772,-0.4932751,0.4362942,793.7729,832.8571,789.34064,813.5165,446.84982,-0.0518798828125,0.17950439453125,0.989990234375,1.936492919921875,-5.600128173828125,-1.854248046875,478681.31868131866,8.319545787545787E7,3.3133772893772893E7,64.42326,1,1.0,1.0,1.0,1.0,65.00
2025-07-08 15:35:11.658,0.0,0.36180043,0.97109497,0.9411661,0.0,0.17749433,0.7606192,0.4858013,0.0,0.4071108,0.72525376,0.7970776,0.0,-0.011577616,0.2351072,0.69072384,0.0,-0.30954772,-0.4932751,0.4362942,820.3663,828.022,782.8938,850.989,477.87546,-0.0518798828125,0.17950439453125,0.989990234375,1.936492919921875,-5.600128173828125,-1.854248046875,478681.31868131866,8.319545787545787E7,3.3133772893772893E7,64.42326,1,1.0,1.0,1.0,1.0,65.00
2025-07-08 15:35:11.659,0.0,0.36061007,0.96021664,0.9411661,0.0,0.1688319,0.7688187,0.4858013,0.0,0.4071108,0.72307336,0.7970776,0.0,4.5019182E-4,0.22364105,0.69072384,0.0,-0.3137574,-0.4964532,0.4362942,844.5421,824.3956,785.7143,887.25275,644.68866,-0.0518798828125,0.17950439453125,0.989990234375,1.936492919921875,-5.600128173828125,-1.854248046875,478681.31868131866,8.319545787545787E7,3.3133772893772893E7,64.42326,1,1.0,1.0,1.0,1.0,65.00
2025-07-08 15:35:11.660,0.0,0.36061007,0.96021664,0.9411661,0.0,0.1688319,0.7688187,0.4858013,0.0,0.4071108,0.72307336,0.7970776,0.0,4.5019182E-4,0.22364105,0.69072384,0.0,-0.3137574,-0.4964532,0.4362942,815.5311,823.5897,788.5348,859.0476,666.4469,-0.0518798828125,0.17950439453125,0.989990234375,1.936492919921875,-5.600128173828125,-1.854248046875,478681.31868131866,8.319545787545787E7,3.3133772893772893E7,64.42326,1,1.0,1.0,1.0,1.0,65.00
2025-07-08 15:35:11.660,0.0,0.36061007,0.96021664,0.9411661,0.0,0.1688319,0.7688187,0.4858013,0.0,0.4071108,0.72307336,0.7970776,0.0,4.5019182E-4,0.22364105,0.69072384,0.0,-0.3137574,-0.4964532,0.4362942,780.4762,821.1722,783.69965,818.7546,730.10986,-0.0518798828125,0.17950439453125,0.989990234375,1.936492919921875,-5.600128173828125,-1.854248046875,478681.31868131866,8.319545787545787E7,3.3133772893772893E7,64.42326,1,1.0,1.0,1.0,1.0,65.00
2025-07-08 15:35:11.661,0.0,0.36061007,0.96021664,0.9411661,0.0,0.1688319,0.7688187,0.4858013,0.0,0.4071108,0.72307336,0.7970776,0.0,4.5019182E-4,0.22364105,0.69072384,0.0,-0.3137574,-0.4964532,0.4362942,797.3993,821.1722,782.8938,840.9158,844.5421,-0.0518798828125,0.17950439453125,0.989990234375,1.936492919921875,-5.600128173828125,-1.854248046875,478681.31868131866,8.319545787545787E7,3.3133772893772893E7,64.42326,1,1.0,1.0,1.0,1.0,65.00
2025-07-08 15:35:11.661,0.0,0.36061007,0.96021664,0.9411661,0.0,0.1688319,0.7688187,0.4858013,0.0,0.4071108,0.72307336,0.7970776,0.0,4.5019182E-4,0.22364105,0.69072384,0.0,-0.3137574,-0.4964532,0.4362942,838.49817,820.7692,783.69965,885.2381,1013.36993,-0.0518798828125,0.17950439453125,0.989990234375,1.936492919921875,-5.600128173828125,-1.854248046875,478681.31868131866,8.319545787545787E7,3.3133772893772893E7,64.42326,1,1.0,1.0,1.0,1.0,65.00
2025-07-08 15:35:11.661,0.0,0.36061007,0.96021664,0.9411661,0.0,0.1688319,0.7688187,0.4858013,0.0,0.4071108,0.72307336,0.7970776,0.0,4.5019182E-4,0.22364105,0.69072384,0.0,-0.3137574,-0.4964532,0.4362942,827.619,814.3223,779.2674,868.71796,890.87915,-0.0518798828125,0.17950439453125,0.989990234375,1.936492919921875,-5.600128173828125,-1.854248046875,478681.31868131866,8.319545787545787E7,3.3133772893772893E7,64.42326,1,1.0,1.0,1.0,1.0,65.00
2025-07-08 15:35:11.661,0.0,0.36061007,0.96021664,0.9411661,0.0,0.1688319,0.7688187,0.4858013,0.0,0.4071108,0.72307336,0.7970776,0.0,4.5019182E-4,0.22364105,0.69072384,0.0,-0.3137574,-0.4964532,0.4362942,788.5348,817.1429,783.2967,825.2015,626.1539,-0.0518798828125,0.17950439453125,0.989990234375,1.936492919921875,-5.600128173828125,-1.854248046875,478681.31868131866,8.319545787545787E7,3.3133772893772893E7,64.42326,1,1.0,1.0,1.0,1.0,65.00
2025-07-08 15:35:11.661,0.0,0.36061007,0.96021664,0.9411661,0.0,0.1688319,0.7688187,0.4858013,0.0,0.4071108,0.72307336,0.7970776,0.0,4.5019182E-4,0.22364105,0.69072384,0.0,-0.3137574,-0.4964532,0.4362942,788.5348,826.8132,788.93774,819.5604,730.10986,-0.0518798828125,0.17950439453125,0.989990234375,1.936492919921875,-5.600128173828125,-1.854248046875,478681.31868131866,8.319545787545787E7,3.3133772893772893E7,64.42326,1,1.0,1.0,1.0,1.0,65.00
2025-07-08 15:35:11.662,0.0,0.36061007,0.96021664,0.9411661,0.0,0.1688319,0.7688187,0.4858013,0.0,0.4071108,0.72307336,0.7970776,0.0,4.5019182E-4,0.22364105,0.69072384,0.0,-0.3137574,-0.4964532,0.4362942,828.8278,829.2308,784.90845,862.674,752.674,-0.0518798828125,0.17950439453125,0.989990234375,1.936492919921875,-5.600128173828125,-1.854248046875,478681.31868131866,8.319545787545787E7,3.3133772893772893E7,64.42326,1,1.0,1.0,1.0,1.0,65.00
2025-07-08 15:35:11.717,0.0,0.36061007,0.96021664,0.9411661,0.0,0.1688319,0.7688187,0.4858013,0.0,0.4071108,0.72307336,0.7970776,0.0,4.5019182E-4,0.22364105,0.69072384,0.0,-0.3137574,-0.4964532,0.4362942,838.9011,826.4103,782.49084,867.1062,628.1685,-0.0516357421875,0.1817626953125,0.9854736328125,2.160797119140625,-4.26177978515625,-0.70281982421875,478681.31868131866,8.319545787545787E7,3.3133772893772893E7,64.42326,1,1.0,1.0,1.0,1.0,65.00
2025-07-08 15:35:11.717,0.0,0.36061007,0.96021664,0.9411661,0.0,0.1688319,0.7688187,0.4858013,0.0,0.4071108,0.72307336,0.7970776,0.0,4.5019182E-4,0.22364105,0.69072384,0.0,-0.3137574,-0.4964532,0.4362942,809.0842,826.8132,783.2967,837.28937,648.71796,-0.0516357421875,0.1817626953125,0.9854736328125,2.160797119140625,-4.26177978515625,-0.70281982421875,478681.31868131866,8.319545787545787E7,3.3133772893772893E7,64.42326,1,1.0,1.0,1.0,1.0,65.00
2025-07-08 15:35:11.717,0.0,0.36061007,0.96021664,0.9411661,0.0,0.1688319,0.7688187,0.4858013,0.0,0.4071108,0.72307336,0.7970776,0.0,4.5019182E-4,0.22364105,0.69072384,0.0,-0.3137574,-0.4964532,0.4362942,786.9231,826.0073,781.28204,833.2601,826.8132,-0.0516357421875,0.1817626953125,0.9854736328125,2.160797119140625,-4.26177978515625,-0.70281982421875,478681.31868131866,8.319545787545787E7,3.3133772893772893E7,64.42326,1,1.0,1.0,1.0,1.0,65.00
2025-07-08 15:35:11.718,0.0,0.36061007,0.96021664,0.9411661,0.0,0.1688319,0.7688187,0.4858013,0.0,0.4071108,0.72307336,0.7970776,0.0,4.5019182E-4,0.22364105,0.69072384,0.0,-0.3137574,-0.4964532,0.4362942,811.9048,824.3956,782.49084,857.8388,919.4872,-0.0516357421875,0.1817626953125,0.9854736328125,2.160797119140625,-4.26177978515625,-0.70281982421875,478681.31868131866,8.319545787545787E7,3.3133772893772893E7,64.42326,1,1.0,1.0,1.0,1.0,65.00
2025-07-08 15:35:11.718,0.0,0.36061007,0.96021664,0.9411661,0.0,0.1688319,0.7688187,0.4858013,0.0,0.4071108,0.72307336,0.7970776,0.0,4.5019182E-4,0.22364105,0.69072384,0.0,-0.3137574,-0.4964532,0.4362942,836.8865,825.6044,788.5348,875.9707,759.5238,-0.0516357421875,0.1817626953125,0.9854736328125,2.160797119140625,-4.26177978515625,-0.70281982421875,478681.31868131866,8.319545787545787E7,3.3133772893772893E7,64.42326,1,1.0,1.0,1.0,1.0,65.00
2025-07-08 15:35:11.718,0.0,0.36061007,0.96021664,0.9411661,0.0,0.1688319,0.7688187,0.4858013,0.0,0.4071108,0.72307336,0.7970776,0.0,4.5019182E-4,0.22364105,0.69072384,0.0,-0.3137574,-0.4964532,0.4362942,818.7546,826.8132,787.326,858.6447,766.77655,-0.0516357421875,0.1817626953125,0.9854736328125,2.160797119140625,-4.26177978515625,-0.70281982421875,478681.31868131866,8.319545787545787E7,3.3133772893772893E7,64.42326,1,1.0,1.0,1.0,1.0,65.00
2025-07-08 15:35:11.718,0.0,0.36061007,0.96021664,0.9411661,0.0,0.1688319,0.7688187,0.4858013,0.0,0.4071108,0.72307336,0.7970776,0.0,4.5019182E-4,0.22364105,0.69072384,0.0,-0.3137574,-0.4964532,0.4362942,783.2967,825.2015,782.0879,827.619,956.9597,-0.0516357421875,0.1817626953125,0.9854736328125,2.160797119140625,-4.26177978515625,-0.70281982421875,478681.31868131866,8.319545787545787E7,3.3133772893772893E7,64.42326,1,1.0,1.0,1.0,1.0,65.00
2025-07-08 15:35:11.719,0.0,0.36061007,0.96021664,0.9411661,0.0,0.1688319,0.7688187,0.4858013,0.0,0.4071108,0.72307336,0.7970776,0.0,4.5019182E-4,0.22364105,0.69072384,0.0,-0.3137574,-0.4964532,0.4362942,788.93774,817.9487,780.87915,833.2601,1052.4542,-0.0516357421875,0.1817626953125,0.9854736328125,2.160797119140625,-4.26177978515625,-0.70281982421875,478681.31868131866,8.319545787545787E7,3.3133772893772893E7,64.42326,1,1.0,1.0,1.0,1.0,65.00
2025-07-08 15:35:11.719,0.0,0.36061007,0.96021664,0.9411661,0.0,0.1688319,0.7688187,0.4858013,0.0,0.4071108,0.72307336,0.7970776,0.0,4.5019182E-4,0.22364105,0.69072384,0.0,-0.3137574,-0.4964532,0.4362942,814.7253,817.9487,782.49084,855.82416,849.7802,-0.0516357421875,0.1817626953125,0.9854736328125,2.160797119140625,-4.26177978515625,-0.70281982421875,478681.31868131866,8.319545787545787E7,3.3133772893772893E7,64.42326,1,1.0,1.0,1.0,1.0,65.00
2025-07-08 15:35:11.719,0.0,0.36061007,0.96021664,0.9411661,0.0,0.1688319,0.7688187,0.4858013,0.0,0.4071108,0.72307336,0.7970776,0.0,4.5019182E-4,0.22364105,0.69072384,0.0,-0.3137574,-0.4964532,0.4362942,820.3663,827.2161,785.31134,855.0183,782.0879,-0.0516357421875,0.1817626953125,0.9854736328125,2.160797119140625,-4.26177978515625,-0.70281982421875,478681.31868131866,8.319545787545787E7,3.3133772893772893E7,64.42326,1,1.0,1.0,1.0,1.0,65.00
2025-07-08 15:35:11.719,0.0,0.36061007,0.96021664,0.9411661,0.0,0.1688319,0.7688187,0.4858013,0.0,0.4071108,0.72307336,0.7970776,0.0,4.5019182E-4,0.22364105,0.69072384,0.0,-0.3137574,-0.4964532,0.4362942,788.1319,827.2161,787.72894,810.293,825.6044,-0.0516357421875,0.1817626953125,0.9854736328125,2.160797119140625,-4.26177978515625,-0.70281982421875,478681.31868131866,8.319545787545787E7,3.3133772893772893E7,64.42326,1,1.0,1.0,1.0,1.0,65.00
2025-07-08 15:35:11.720,0.0,0.36061007,0.96021664,0.9411661,0.0,0.1688319,0.7688187,0.4858013,0.0,0.4071108,0.72307336,0.7970776,0.0,4.5019182E-4,0.22364105,0.69072384,0.0,-0.3137574,-0.4964532,0.4362942,792.1612,823.5897,788.1319,813.91943,813.1135,-0.0516357421875,0.1817626953125,0.9854736328125,2.160797119140625,-4.26177978515625,-0.70281982421875,478681.31868131866,8.319545787545787E7,3.3133772893772893E7,64.42326,1,1.0,1.0,1.0,1.0,65.00
2025-07-08 15:35:11.784,0.0,0.36061007,0.96021664,0.9411661,0.0,0.1688319,0.7688187,0.4858013,0.0,0.4071108,0.72307336,0.7970776,0.0,4.5019182E-4,0.22364105,0.69072384,0.0,-0.3137574,-0.4964532,0.4362942,830.4396,821.978,787.72894,854.21246,918.68134,-0.0552978515625,0.1807861328125,0.994140625,2.250518798828125,-4.329071044921875,-0.31402587890625,478681.31868131866,8.327846153846154E7,3.314989010989011E7,64.33699,1,1.0,1.0,1.0,1.0,65.00
2025-07-08 15:35:11.785,0.0,0.36061007,0.96021664,0.9411661,0.0,0.1688319,0.7688187,0.4858013,0.0,0.4071108,0.72307336,0.7970776,0.0,4.5019182E-4,0.22364105,0.69072384,0.0,-0.3137574,-0.4964532,0.4362942,836.4835,823.1868,784.5055,864.2857,925.5311,-0.0552978515625,0.1807861328125,0.994140625,2.250518798828125,-4.329071044921875,-0.31402587890625,478681.31868131866,8.327846153846154E7,3.314989010989011E7,64.33699,1,1.0,1.0,1.0,1.0,65.00
2025-07-08 15:35:11.785,0.0,0.36061007,0.96021664,0.9411661,0.0,0.1688319,0.7688187,0.4858013,0.0,0.4071108,0.72307336,0.7970776,0.0,4.5019182E-4,0.22364105,0.69072384,0.0,-0.3137574,-0.4964532,0.4362942,801.4286,821.1722,782.49084,830.0366,814.3223,-0.0552978515625,0.1807861328125,0.994140625,2.250518798828125,-4.329071044921875,-0.31402587890625,478681.31868131866,8.327846153846154E7,3.314989010989011E7,64.33699,1,1.0,1.0,1.0,1.0,65.00
2025-07-08 15:35:11.786,0.0,0.36061007,0.96021664,0.9411661,0.0,0.1688319,0.7688187,0.4858013,0.0,0.4071108,0.72307336,0.7970776,0.0,4.5019182E-4,0.22364105,0.69072384,0.0,-0.3137574,-0.4964532,0.4362942,774.43225,819.5604,781.685,803.0403,651.53845,-0.0552978515625,0.1807861328125,0.994140625,2.250518798828125,-4.329071044921875,-0.31402587890625,478681.31868131866,8.327846153846154E7,3.314989010989011E7,64.33699,1,1.0,1.0,1.0,1.0,65.00
2025-07-08 15:35:11.786,0.0,0.36061007,0.96021664,0.9411661,0.0,0.1688319,0.7688187,0.4858013,0.0,0.4071108,0.72307336,0.7970776,0.0,4.5019182E-4,0.22364105,0.69072384,0.0,-0.3137574,-0.4964532,0.4362942,809.89014,819.5604,779.67035,846.1539,619.304,-0.0552978515625,0.1807861328125,0.994140625,2.250518798828125,-4.329071044921875,-0.31402587890625,478681.31868131866,8.327846153846154E7,3.314989010989011E7,64.33699,1,1.0,1.0,1.0,1.0,65.00
2025-07-08 15:35:11.786,0.0,0.35409912,0.94315434,0.9411661,0.0,0.15683793,0.7732109,0.4858013,0.0,0.4071108,0.7122669,0.7970776,0.0,0.029033002,0.21372631,0.69072384,0.0,-0.31847063,-0.4943014,0.4362942,840.9158,822.7839,782.8938,879.59705,906.99634,-0.0552978515625,0.1807861328125,0.994140625,2.250518798828125,-4.329071044921875,-0.31402587890625,478681.31868131866,8.327846153846154E7,3.314989010989011E7,64.33699,1,1.0,1.0,1.0,1.0,65.00
2025-07-08 15:35:11.788,0.0,0.35409912,0.94315434,0.9411661,0.0,0.15683793,0.7732109,0.4858013,0.0,0.4071108,0.7122669,0.7970776,0.0,0.029033002,0.21372631,0.69072384,0.0,-0.31847063,-0.4943014,0.4362942,813.5165,823.5897,786.52014,841.31866,1031.5018,-0.0552978515625,0.1807861328125,0.994140625,2.250518798828125,-4.329071044921875,-0.31402587890625,478681.31868131866,8.327846153846154E7,3.314989010989011E7,64.33699,1,1.0,1.0,1.0,1.0,65.00
2025-07-08 15:35:11.788,0.0,0.35409912,0.94315434,0.9411661,0.0,0.15683793,0.7732109,0.4858013,0.0,0.4071108,0.7122669,0.7970776,0.0,0.029033002,0.21372631,0.69072384,0.0,-0.31847063,-0.4943014,0.4362942,772.8205,819.15753,785.7143,789.34064,1077.4359,-0.0552978515625,0.1807861328125,0.994140625,2.250518798828125,-4.329071044921875,-0.31402587890625,478681.31868131866,8.327846153846154E7,3.314989010989011E7,64.33699,1,1.0,1.0,1.0,1.0,65.00
2025-07-08 15:35:11.788,0.0,0.35409912,0.94315434,0.9411661,0.0,0.15683793,0.7732109,0.4858013,0.0,0.4071108,0.7122669,0.7970776,0.0,0.029033002,0.21372631,0.69072384,0.0,-0.31847063,-0.4943014,0.4362942,802.6374,819.5604,783.2967,836.08057,1272.4542,-0.0552978515625,0.1807861328125,0.994140625,2.250518798828125,-4.329071044921875,-0.31402587890625,478681.31868131866,8.327846153846154E7,3.314989010989011E7,64.33699,1,1.0,1.0,1.0,1.0,65.00
2025-07-08 15:35:11.788,0.0,0.35409912,0.94315434,0.9411661,0.0,0.15683793,0.7732109,0.4858013,0.0,0.4071108,0.7122669,0.7970776,0.0,0.029033002,0.21372631,0.69072384,0.0,-0.31847063,-0.4943014,0.4362942,844.94507,828.4249,790.14655,898.93774,1377.2161,-0.0552978515625,0.1807861328125,0.994140625,2.250518798828125,-4.329071044921875,-0.31402587890625,478681.31868131866,8.327846153846154E7,3.314989010989011E7,64.33699,1,1.0,1.0,1.0,1.0,65.00
2025-07-08 15:35:11.788,0.0,0.35409912,0.94315434,0.9411661,0.0,0.15683793,0.7732109,0.4858013,0.0,0.4071108,0.7122669,0.7970776,0.0,0.029033002,0.21372631,0.69072384,0.0,-0.31847063,-0.4943014,0.4362942,819.9634,827.2161,790.14655,869.12085,1420.3297,-0.0552978515625,0.1807861328125,0.994140625,2.250518798828125,-4.329071044921875,-0.31402587890625,478681.31868131866,8.327846153846154E7,3.314989010989011E7,64.33699,1,1.0,1.0,1.0,1.0,65.00
2025-07-08 15:35:11.789,0.0,0.35409912,0.94315434,0.9411661,0.0,0.15683793,0.7732109,0.4858013,0.0,0.4071108,0.7122669,0.7970776,0.0,0.029033002,0.21372631,0.69072384,0.0,-0.31847063,-0.4943014,0.4362942,767.98535,819.9634,780.4762,805.8608,906.99634,-0.0552978515625,0.1807861328125,0.994140625,2.250518798828125,-4.329071044921875,-0.31402587890625,478681.31868131866,8.327846153846154E7,3.314989010989011E7,64.33699,1,1.0,1.0,1.0,1.0,65.00
2025-07-08 15:35:11.814,0.0,0.35409912,0.94315434,0.9411661,0.0,0.15683793,0.7732109,0.4858013,0.0,0.4071108,0.7122669,0.7970776,0.0,0.029033002,0.21372631,0.69072384,0.0,-0.31847063,-0.4943014,0.4362942,779.67035,815.9341,778.0586,815.5311,413.8095,-0.0552978515625,0.1807861328125,0.994140625,2.250518798828125,-4.329071044921875,-0.31402587890625,478681.31868131866,8.327846153846154E7,3.314989010989011E7,64.33699,1,1.0,1.0,1.0,1.0,65.00
2025-07-08 15:35:11.814,0.0,0.35409912,0.94315434,0.9411661,0.0,0.15683793,0.7732109,0.4858013,0.0,0.4071108,0.7122669,0.7970776,0.0,0.029033002,0.21372631,0.69072384,0.0,-0.31847063,-0.4943014,0.4362942,832.4542,818.3516,781.28204,864.68866,609.2308,-0.0552978515625,0.1807861328125,0.994140625,2.250518798828125,-4.329071044921875,-0.31402587890625,478681.31868131866,8.327846153846154E7,3.314989010989011E7,64.33699,1,1.0,1.0,1.0,1.0,65.00
2025-07-08 15:35:11.815,0.0,0.35409912,0.94315434,0.9411661,0.0,0.15683793,0.7732109,0.4858013,0.0,0.4071108,0.7122669,0.7970776,0.0,0.029033002,0.21372631,0.69072384,0.0,-0.31847063,-0.4943014,0.4362942,841.31866,824.7985,784.90845,862.674,782.0879,-0.0552978515625,0.1807861328125,0.994140625,2.250518798828125,-4.329071044921875,-0.31402587890625,478681.31868131866,8.327846153846154E7,3.314989010989011E7,64.33699,1,1.0,1.0,1.0,1.0,65.00
2025-07-08 15:35:11.815,0.0,0.35409912,0.94315434,0.9411661,0.0,0.15683793,0.7732109,0.4858013,0.0,0.4071108,0.7122669,0.7970776,0.0,0.029033002,0.21372631,0.69072384,0.0,-0.31847063,-0.4943014,0.4362942,785.31134,821.1722,780.07324,814.7253,594.7253,-0.0552978515625,0.1807861328125,0.994140625,2.250518798828125,-4.329071044921875,-0.31402587890625,478681.31868131866,8.327846153846154E7,3.314989010989011E7,64.33699,1,1.0,1.0,1.0,1.0,65.00
2025-07-08 15:35:11.815,0.0,0.35409912,0.94315434,0.9411661,0.0,0.15683793,0.7732109,0.4858013,0.0,0.4071108,0.7122669,0.7970776,0.0,0.029033002,0.21372631,0.69072384,0.0,-0.31847063,-0.4943014,0.4362942,774.0293,817.5458,772.8205,820.7692,504.46887,-0.0552978515625,0.1807861328125,0.994140625,2.250518798828125,-4.329071044921875,-0.31402587890625,478681.31868131866,8.327846153846154E7,3.314989010989011E7,64.33699,1,1.0,1.0,1.0,1.0,65.00
2025-07-08 15:35:11.815,0.0,0.35409912,0.94315434,0.9411661,0.0,0.15683793,0.7732109,0.4858013,0.0,0.4071108,0.7122669,0.7970776,0.0,0.029033002,0.21372631,0.69072384,0.0,-0.31847063,-0.4943014,0.4362942,829.6337,825.2015,776.4469,886.04395,765.9707,-0.0552978515625,0.1807861328125,0.994140625,2.250518798828125,-4.329071044921875,-0.31402587890625,478681.31868131866,8.327846153846154E7,3.314989010989011E7,64.33699,1,1.0,1.0,1.0,1.0,65.00
2025-07-08 15:35:11.815,0.0,0.35409912,0.94315434,0.9411661,0.0,0.15683793,0.7732109,0.4858013,0.0,0.4071108,0.7122669,0.7970776,0.0,0.029033002,0.21372631,0.69072384,0.0,-0.31847063,-0.4943014,0.4362942,840.5128,826.0073,779.67035,886.8498,1003.69965,-0.0552978515625,0.1807861328125,0.994140625,2.250518798828125,-4.329071044921875,-0.31402587890625,478681.31868131866,8.327846153846154E7,3.314989010989011E7,64.33699,1,1.0,1.0,1.0,1.0,65.00
2025-07-08 15:35:11.816,0.0,0.35409912,0.94315434,0.9411661,0.0,0.15683793,0.7732109,0.4858013,0.0,0.4071108,0.7122669,0.7970776,0.0,0.029033002,0.21372631,0.69072384,0.0,-0.31847063,-0.4943014,0.4362942,785.7143,816.337,773.6264,808.2784,617.28937,-0.0552978515625,0.1807861328125,0.994140625,2.250518798828125,-4.329071044921875,-0.31402587890625,478681.31868131866,8.327846153846154E7,3.314989010989011E7,64.33699,1,1.0,1.0,1.0,1.0,65.00
2025-07-08 15:35:11.816,0.0,0.35409912,0.94315434,0.9411661,0.0,0.15683793,0.7732109,0.4858013,0.0,0.4071108,0.7122669,0.7970776,0.0,0.029033002,0.21372631,0.69072384,0.0,-0.31847063,-0.4943014,0.4362942,765.16486,815.9341,771.6117,791.75824,394.46887,-0.0552978515625,0.1807861328125,0.994140625,2.250518798828125,-4.329071044921875,-0.31402587890625,478681.31868131866,8.327846153846154E7,3.314989010989011E7,64.33699,1,1.0,1.0,1.0,1.0,65.00
2025-07-08 15:35:11.816,0.0,0.35409912,0.94315434,0.9411661,0.0,0.15683793,0.7732109,0.4858013,0.0,0.4071108,0.7122669,0.7970776,0.0,0.029033002,0.21372631,0.69072384,0.0,-0.31847063,-0.4943014,0.4362942,808.68134,817.5458,769.59705,847.76556,603.1868,-0.0552978515625,0.1807861328125,0.994140625,2.250518798828125,-4.329071044921875,-0.31402587890625,478681.31868131866,8.327846153846154E7,3.314989010989011E7,64.33699,1,1.0,1.0,1.0,1.0,65.00
2025-07-08 15:35:11.816,0.0,0.35409912,0.94315434,0.9411661,0.0,0.15683793,0.7732109,0.4858013,0.0,0.4071108,0.7122669,0.7970776,0.0,0.029033002,0.21372631,0.69072384,0.0,-0.31847063,-0.4943014,0.4362942,834.0659,816.7399,772.8205,872.74725,642.674,-0.0552978515625,0.1807861328125,0.994140625,2.250518798828125,-4.329071044921875,-0.31402587890625,478681.31868131866,8.327846153846154E7,3.314989010989011E7,64.33699,1,1.0,1.0,1.0,1.0,65.00
2025-07-08 15:35:11.816,0.0,0.35409912,0.94315434,0.9411661,0.0,0.15683793,0.7732109,0.4858013,0.0,0.4071108,0.7122669,0.7970776,0.0,0.029033002,0.21372631,0.69072384,0.0,-0.31847063,-0.4943014,0.4362942,803.8461,812.71063,776.4469,834.0659,559.67035,-0.0552978515625,0.1807861328125,0.994140625,2.250518798828125,-4.329071044921875,-0.31402587890625,478681.31868131866,8.327846153846154E7,3.314989010989011E7,64.33699,1,1.0,1.0,1.0,1.0,65.00
2025-07-08 15:35:11.841,0.0,0.35409912,0.94315434,0.9411661,0.0,0.15683793,0.7732109,0.4858013,0.0,0.4071108,0.7122669,0.7970776,0.0,0.029033002,0.21372631,0.69072384,0.0,-0.31847063,-0.4943014,0.4362942,774.43225,817.1429,779.67035,800.2198,618.49817,-0.0572509765625,0.180908203125,0.9923095703125,2.220611572265625,-4.77020263671875,-1.577606201171875,480293.0402930403,8.336710622710623E7,3.3165201465201464E7,64.22593,1,1.0,1.0,1.0,1.0,65.00
2025-07-08 15:35:11.841,0.0,0.35409912,0.94315434,0.9411661,0.0,0.15683793,0.7732109,0.4858013,0.0,0.4071108,0.7122669,0.7970776,0.0,0.029033002,0.21372631,0.69072384,0.0,-0.31847063,-0.4943014,0.4362942,806.6667,826.4103,782.0879,832.8571,762.3443,-0.0572509765625,0.180908203125,0.9923095703125,2.220611572265625,-4.77020263671875,-1.577606201171875,480293.0402930403,8.336710622710623E7,3.3165201465201464E7,64.22593,1,1.0,1.0,1.0,1.0,65.00
2025-07-08 15:35:11.841,0.0,0.35409912,0.94315434,0.9411661,0.0,0.15683793,0.7732109,0.4858013,0.0,0.4071108,0.7122669,0.7970776,0.0,0.029033002,0.21372631,0.69072384,0.0,-0.31847063,-0.4943014,0.4362942,838.0952,826.4103,779.2674,858.24176,745.0183,-0.0572509765625,0.180908203125,0.9923095703125,2.220611572265625,-4.77020263671875,-1.577606201171875,480293.0402930403,8.336710622710623E7,3.3165201465201464E7,64.22593,1,1.0,1.0,1.0,1.0,65.00
2025-07-08 15:35:11.841,0.0,0.35409912,0.94315434,0.9411661,0.0,0.15683793,0.7732109,0.4858013,0.0,0.4071108,0.7122669,0.7970776,0.0,0.029033002,0.21372631,0.69072384,0.0,-0.31847063,-0.4943014,0.4362942,830.4396,827.2161,782.0879,842.1245,615.2747,-0.0572509765625,0.180908203125,0.9923095703125,2.220611572265625,-4.77020263671875,-1.577606201171875,480293.0402930403,8.336710622710623E7,3.3165201465201464E7,64.22593,1,1.0,1.0,1.0,1.0,65.00
2025-07-08 15:35:11.842,0.0,0.35409912,0.94315434,0.9411661,0.0,0.15683793,0.7732109,0.4858013,0.0,0.4071108,0.7122669,0.7970776,0.0,0.029033002,0.21372631,0.69072384,0.0,-0.31847063,-0.4943014,0.4362942,797.3993,828.8278,782.8938,818.3516,554.0293,-0.0572509765625,0.180908203125,0.9923095703125,2.220611572265625,-4.77020263671875,-1.577606201171875,480293.0402930403,8.336710622710623E7,3.3165201465201464E7,64.22593,1,1.0,1.0,1.0,1.0,65.00
2025-07-08 15:35:11.842,0.0,0.35409912,0.94315434,0.9411661,0.0,0.15683793,0.7732109,0.4858013,0.0,0.4071108,0.7122669,0.7970776,0.0,0.029033002,0.21372631,0.69072384,0.0,-0.31847063,-0.4943014,0.4362942,799.41394,825.6044,779.2674,836.8865,588.2784,-0.0572509765625,0.180908203125,0.9923095703125,2.220611572265625,-4.77020263671875,-1.577606201171875,480293.0402930403,8.336710622710623E7,3.3165201465201464E7,64.22593,1,1.0,1.0,1.0,1.0,65.00
2025-07-08 15:35:11.842,0.0,0.35409912,0.94315434,0.9411661,0.0,0.15683793,0.7732109,0.4858013,0.0,0.4071108,0.7122669,0.7970776,0.0,0.029033002,0.21372631,0.69072384,0.0,-0.31847063,-0.4943014,0.4362942,834.4689,822.7839,777.6557,874.7619,701.0989,-0.0572509765625,0.180908203125,0.9923095703125,2.220611572265625,-4.77020263671875,-1.577606201171875,480293.0402930403,8.336710622710623E7,3.3165201465201464E7,64.22593,1,1.0,1.0,1.0,1.0,65.00
2025-07-08 15:35:11.842,0.0,0.34593788,0.92681587,0.9411661,0.0,0.14156988,0.77613163,0.4858013,0.0,0.4071108,0.70522106,0.7970776,0.0,0.06592432,0.21004589,0.69072384,0.0,-0.3242121,-0.48189816,0.4362942,836.8865,823.9927,776.4469,867.50916,821.1722,-0.0572509765625,0.180908203125,0.9923095703125,2.220611572265625,-4.77020263671875,-1.577606201171875,480293.0402930403,8.336710622710623E7,3.3165201465201464E7,64.22593,1,1.0,1.0,1.0,1.0,65.00
2025-07-08 15:35:11.843,0.0,0.34593788,0.92681587,0.9411661,0.0,0.14156988,0.77613163,0.4858013,0.0,0.4071108,0.70522106,0.7970776,0.0,0.06592432,0.21004589,0.69072384,0.0,-0.3242121,-0.48189816,0.4362942,790.54944,819.9634,773.6264,821.5751,821.1722,-0.0572509765625,0.180908203125,0.9923095703125,2.220611572265625,-4.77020263671875,-1.577606201171875,480293.0402930403,8.336710622710623E7,3.3165201465201464E7,64.22593,1,1.0,1.0,1.0,1.0,65.00
2025-07-08 15:35:11.843,0.0,0.34593788,0.92681587,0.9411661,0.0,0.14156988,0.77613163,0.4858013,0.0,0.4071108,0.70522106,0.7970776,0.0,0.06592432,0.21004589,0.69072384,0.0,-0.3242121,-0.48189816,0.4362942,782.0879,820.3663,777.25275,828.8278,1104.0293,-0.0572509765625,0.180908203125,0.9923095703125,2.220611572265625,-4.77020263671875,-1.577606201171875,480293.0402930403,8.336710622710623E7,3.3165201465201464E7,64.22593,1,1.0,1.0,1.0,1.0,65.00
2025-07-08 15:35:11.843,0.0,0.34593788,0.92681587,0.9411661,0.0,0.14156988,0.77613163,0.4858013,0.0,0.4071108,0.70522106,0.7970776,0.0,0.06592432,0.21004589,0.69072384,0.0,-0.3242121,-0.48189816,0.4362942,814.3223,818.3516,779.67035,861.06226,1124.1758,-0.0572509765625,0.180908203125,0.9923095703125,2.220611572265625,-4.77020263671875,-1.577606201171875,480293.0402930403,8.336710622710623E7,3.3165201465201464E7,64.22593,1,1.0,1.0,1.0,1.0,65.00
2025-07-08 15:35:11.843,0.0,0.34593788,0.92681587,0.9411661,0.0,0.14156988,0.77613163,0.4858013,0.0,0.4071108,0.70522106,0.7970776,0.0,0.06592432,0.21004589,0.69072384,0.0,-0.3242121,-0.48189816,0.4362942,827.619,817.9487,781.685,864.68866,839.304,-0.0572509765625,0.180908203125,0.9923095703125,2.220611572265625,-4.77020263671875,-1.577606201171875,480293.0402930403,8.336710622710623E7,3.3165201465201464E7,64.22593,1,1.0,1.0,1.0,1.0,65.00
2025-07-08 15:35:11.895,0.0,0.34593788,0.92681587,0.9411661,0.0,0.14156988,0.77613163,0.4858013,0.0,0.4071108,0.70522106,0.7970776,0.0,0.06592432,0.21004589,0.69072384,0.0,-0.3242121,-0.48189816,0.4362942,803.44324,821.5751,779.67035,835.6777,813.5165,-0.05126953125,0.18310546875,0.98419189453125,1.772003173828125,-5.443115234375,-0.859832763671875,480293.0402930403,8.336710622710623E7,3.3165201465201464E7,64.22593,1,1.0,1.0,1.0,1.0,65.00
2025-07-08 15:35:11.895,0.0,0.34593788,0.92681587,0.9411661,0.0,0.14156988,0.77613163,0.4858013,0.0,0.4071108,0.70522106,0.7970776,0.0,0.06592432,0.21004589,0.69072384,0.0,-0.3242121,-0.48189816,0.4362942,777.25275,818.7546,775.64105,808.2784,934.7985,-0.05126953125,0.18310546875,0.98419189453125,1.772003173828125,-5.443115234375,-0.859832763671875,480293.0402930403,8.336710622710623E7,3.3165201465201464E7,64.22593,1,1.0,1.0,1.0,1.0,65.00
2025-07-08 15:35:11.896,0.0,0.34593788,0.92681587,0.9411661,0.0,0.14156988,0.77613163,0.4858013,0.0,0.4071108,0.70522106,0.7970776,0.0,0.06592432,0.21004589,0.69072384,0.0,-0.3242121,-0.48189816,0.4362942,811.50183,818.3516,777.6557,846.1539,865.4945,-0.05126953125,0.18310546875,0.98419189453125,1.772003173828125,-5.443115234375,-0.859832763671875,480293.0402930403,8.336710622710623E7,3.3165201465201464E7,64.22593,1,1.0,1.0,1.0,1.0,65.00
2025-07-08 15:35:11.896,0.0,0.34593788,0.92681587,0.9411661,0.0,0.14156988,0.77613163,0.4858013,0.0,0.4071108,0.70522106,0.7970776,0.0,0.06592432,0.21004589,0.69072384,0.0,-0.3242121,-0.48189816,0.4362942,842.9304,823.5897,781.685,871.9414,624.1392,-0.05126953125,0.18310546875,0.98419189453125,1.772003173828125,-5.443115234375,-0.859832763671875,480293.0402930403,8.336710622710623E7,3.3165201465201464E7,64.22593,1,1.0,1.0,1.0,1.0,65.00
2025-07-08 15:35:11.896,0.0,0.34593788,0.92681587,0.9411661,0.0,0.14156988,0.77613163,0.4858013,0.0,0.4071108,0.70522106,0.7970776,0.0,0.06592432,0.21004589,0.69072384,0.0,-0.3242121,-0.48189816,0.4362942,816.337,827.2161,782.49084,850.18317,776.4469,-0.05126953125,0.18310546875,0.98419189453125,1.772003173828125,-5.443115234375,-0.859832763671875,480293.0402930403,8.336710622710623E7,3.3165201465201464E7,64.22593,1,1.0,1.0,1.0,1.0,65.00
2025-07-08 15:35:11.897,0.0,0.34593788,0.92681587,0.9411661,0.0,0.14156988,0.77613163,0.4858013,0.0,0.4071108,0.70522106,0.7970776,0.0,0.06592432,0.21004589,0.69072384,0.0,-0.3242121,-0.48189816,0.4362942,769.19415,821.1722,776.4469,815.12823,848.1685,-0.05126953125,0.18310546875,0.98419189453125,1.772003173828125,-5.443115234375,-0.859832763671875,480293.0402930403,8.336710622710623E7,3.3165201465201464E7,64.22593,1,1.0,1.0,1.0,1.0,65.00
2025-07-08 15:35:11.897,0.0,0.34593788,0.92681587,0.9411661,0.0,0.14156988,0.77613163,0.4858013,0.0,0.4071108,0.70522106,0.7970776,0.0,0.06592432,0.21004589,0.69072384,0.0,-0.3242121,-0.48189816,0.4362942,786.9231,815.9341,775.2381,838.0952,776.8498,-0.05126953125,0.18310546875,0.98419189453125,1.772003173828125,-5.443115234375,-0.859832763671875,480293.0402930403,8.336710622710623E7,3.3165201465201464E7,64.22593,1,1.0,1.0,1.0,1.0,65.00
2025-07-08 15:35:11.897,0.0,0.34593788,0.92681587,0.9411661,0.0,0.14156988,0.77613163,0.4858013,0.0,0.4071108,0.70522106,0.7970776,0.0,0.06592432,0.21004589,0.69072384,0.0,-0.3242121,-0.48189816,0.4362942,827.619,813.91943,780.4762,883.22345,790.54944,-0.05126953125,0.18310546875,0.98419189453125,1.772003173828125,-5.443115234375,-0.859832763671875,480293.0402930403,8.336710622710623E7,3.3165201465201464E7,64.22593,1,1.0,1.0,1.0,1.0,65.00
2025-07-08 15:35:11.898,0.0,0.34593788,0.92681587,0.9411661,0.0,0.14156988,0.77613163,0.4858013,0.0,0.4071108,0.70522106,0.7970776,0.0,0.06592432,0.21004589,0.69072384,0.0,-0.3242121,-0.48189816,0.4362942,836.08057,817.5458,784.5055,894.5055,946.08057,-0.05126953125,0.18310546875,0.98419189453125,1.772003173828125,-5.443115234375,-0.859832763671875,480293.0402930403,8.336710622710623E7,3.3165201465201464E7,64.22593,1,1.0,1.0,1.0,1.0,65.00
2025-07-08 15:35:11.898,0.0,0.34593788,0.92681587,0.9411661,0.0,0.14156988,0.77613163,0.4858013,0.0,0.4071108,0.70522106,0.7970776,0.0,0.06592432,0.21004589,0.69072384,0.0,-0.3242121,-0.48189816,0.4362942,788.1319,817.9487,781.28204,834.87177,1293.8096,-0.05126953125,0.18310546875,0.98419189453125,1.772003173828125,-5.443115234375,-0.859832763671875,480293.0402930403,8.336710622710623E7,3.3165201465201464E7,64.22593,1,1.0,1.0,1.0,1.0,65.00
2025-07-08 15:35:11.898,0.0,0.34593788,0.92681587,0.9411661,0.0,0.14156988,0.77613163,0.4858013,0.0,0.4071108,0.70522106,0.7970776,0.0,0.06592432,0.21004589,0.69072384,0.0,-0.3242121,-0.48189816,0.4362942,777.25275,819.15753,779.2674,811.9048,1110.0732,-0.05126953125,0.18310546875,0.98419189453125,1.772003173828125,-5.443115234375,-0.859832763671875,480293.0402930403,8.336710622710623E7,3.3165201465201464E7,64.22593,1,1.0,1.0,1.0,1.0,65.00
2025-07-08 15:35:11.898,0.0,0.34593788,0.92681587,0.9411661,0.0,0.14156988,0.77613163,0.4858013,0.0,0.4071108,0.70522106,0.7970776,0.0,0.06592432,0.21004589,0.69072384,0.0,-0.3242121,-0.48189816,0.4362942,842.1245,827.619,780.07324,880.0,785.31134,-0.05126953125,0.18310546875,0.98419189453125,1.772003173828125,-5.443115234375,-0.859832763671875,480293.0402930403,8.336710622710623E7,3.3165201465201464E7,64.22593,1,1.0,1.0,1.0,1.0,65.00
2025-07-08 15:35:11.969,0.0,0.34593788,0.92681587,0.9411661,0.0,0.14156988,0.77613163,0.4858013,0.0,0.4071108,0.70522106,0.7970776,0.0,0.06592432,0.21004589,0.69072384,0.0,-0.3242121,-0.48189816,0.4362942,864.2857,829.6337,774.0293,891.28204,782.8938,-0.0511474609375,0.1800537109375,0.9930419921875,1.966400146484375,-5.48797607421875,-0.478515625,480293.0402930403,8.335743589743589E7,3.3207106227106225E7,64.121376,1,1.0,1.0,1.0,1.0,65.00
2025-07-08 15:35:11.969,0.0,0.34593788,0.92681587,0.9411661,0.0,0.14156988,0.77613163,0.4858013,0.0,0.4071108,0.70522106,0.7970776,0.0,0.06592432,0.21004589,0.69072384,0.0,-0.3242121,-0.48189816,0.4362942,830.84247,833.2601,770.80585,849.7802,947.28937,-0.0511474609375,0.1800537109375,0.9930419921875,1.966400146484375,-5.48797607421875,-0.478515625,480293.0402930403,8.335743589743589E7,3.3207106227106225E7,64.121376,1,1.0,1.0,1.0,1.0,65.00
2025-07-08 15:35:11.970,0.0,0.34593788,0.92681587,0.9411661,0.0,0.14156988,0.77613163,0.4858013,0.0,0.4071108,0.70522106,0.7970776,0.0,0.06592432,0.21004589,0.69072384,0.0,-0.3242121,-0.48189816,0.4362942,813.91943,834.4689,772.01465,840.10986,1322.4176,-0.0511474609375,0.1800537109375,0.9930419921875,1.966400146484375,-5.48797607421875,-0.478515625,480293.0402930403,8.335743589743589E7,3.3207106227106225E7,64.121376,1,1.0,1.0,1.0,1.0,65.00
2025-07-08 15:35:11.970,0.0,0.34593788,0.92681587,0.9411661,0.0,0.14156988,0.77613163,0.4858013,0.0,0.4071108,0.70522106,0.7970776,0.0,0.06592432,0.21004589,0.69072384,0.0,-0.3242121,-0.48189816,0.4362942,865.89746,833.663,769.19415,886.8498,1453.773,-0.0511474609375,0.1800537109375,0.9930419921875,1.966400146484375,-5.48797607421875,-0.478515625,480293.0402930403,8.335743589743589E7,3.3207106227106225E7,64.121376,1,1.0,1.0,1.0,1.0,65.00
2025-07-08 15:35:11.970,0.0,0.34593788,0.92681587,0.9411661,0.0,0.14156988,0.77613163,0.4858013,0.0,0.4071108,0.70522106,0.7970776,0.0,0.06592432,0.21004589,0.69072384,0.0,-0.3242121,-0.48189816,0.4362942,891.28204,838.9011,770.0,903.7729,1098.7913,-0.0511474609375,0.1800537109375,0.9930419921875,1.966400146484375,-5.48797607421875,-0.478515625,480293.0402930403,8.335743589743589E7,3.3207106227106225E7,64.121376,1,1.0,1.0,1.0,1.0,65.00
2025-07-08 15:35:11.971,0.0,0.34593788,0.92681587,0.9411661,0.0,0.14156988,0.77613163,0.4858013,0.0,0.4071108,0.70522106,0.7970776,0.0,0.06592432,0.21004589,0.69072384,0.0,-0.3242121,-0.48189816,0.4362942,847.3626,834.87177,766.77655,852.6007,658.3883,-0.0511474609375,0.1800537109375,0.9930419921875,1.966400146484375,-5.48797607421875,-0.478515625,480293.0402930403,8.335743589743589E7,3.3207106227106225E7,64.121376,1,1.0,1.0,1.0,1.0,65.00
2025-07-08 15:35:11.971,0.0,0.34593788,0.92681587,0.9411661,0.0,0.14156988,0.77613163,0.4858013,0.0,0.4071108,0.70522106,0.7970776,0.0,0.06592432,0.21004589,0.69072384,0.0,-0.3242121,-0.48189816,0.4362942,807.47253,830.84247,767.1795,818.3516,863.0769,-0.0511474609375,0.1800537109375,0.9930419921875,1.966400146484375,-5.48797607421875,-0.478515625,480293.0402930403,8.335743589743589E7,3.3207106227106225E7,64.121376,1,1.0,1.0,1.0,1.0,65.00
2025-07-08 15:35:11.971,0.0,0.34593788,0.92681587,0.9411661,0.0,0.14156988,0.77613163,0.4858013,0.0,0.4071108,0.70522106,0.7970776,0.0,0.06592432,0.21004589,0.69072384,0.0,-0.3242121,-0.48189816,0.4362942,850.18317,834.0659,772.01465,853.00366,1123.773,-0.0511474609375,0.1800537109375,0.9930419921875,1.966400146484375,-5.48797607421875,-0.478515625,480293.0402930403,8.335743589743589E7,3.3207106227106225E7,64.121376,1,1.0,1.0,1.0,1.0,65.00
2025-07-08 15:35:11.972,0.0,0.34593788,0.92681587,0.9411661,0.0,0.14156988,0.77613163,0.4858013,0.0,0.4071108,0.70522106,0.7970776,0.0,0.06592432,0.21004589,0.69072384,0.0,-0.3242121,-0.48189816,0.4362942,884.83514,831.6484,770.0,893.69965,861.8681,-0.0511474609375,0.1800537109375,0.9930419921875,1.966400146484375,-5.48797607421875,-0.478515625,480293.0402930403,8.335743589743589E7,3.3207106227106225E7,64.121376,1,1.0,1.0,1.0,1.0,65.00
2025-07-08 15:35:11.972,0.0,0.33361283,0.9145091,0.9411661,0.0,0.12411872,0.7772348,0.4858013,0.0,0.4071108,0.70522106,0.7970776,0.0,0.10091479,0.21084975,0.69072384,0.0,-0.33045834,-0.46153647,0.4362942,838.0952,824.3956,769.19415,861.06226,459.34067,-0.0511474609375,0.1800537109375,0.9930419921875,1.966400146484375,-5.48797607421875,-0.478515625,480293.0402930403,8.335743589743589E7,3.3207106227106225E7,64.121376,1,1.0,1.0,1.0,1.0,65.00
2025-07-08 15:35:11.973,0.0,0.33361283,0.9145091,0.9411661,0.0,0.12411872,0.7772348,0.4858013,0.0,0.4071108,0.70522106,0.7970776,0.0,0.10091479,0.21084975,0.69072384,0.0,-0.33045834,-0.46153647,0.4362942,796.5934,825.6044,772.01465,813.5165,286.48352,-0.0511474609375,0.1800537109375,0.9930419921875,1.966400146484375,-5.48797607421875,-0.478515625,480293.0402930403,8.335743589743589E7,3.3207106227106225E7,64.121376,1,1.0,1.0,1.0,1.0,65.00
2025-07-08 15:35:11.973,0.0,0.33361283,0.9145091,0.9411661,0.0,0.12411872,0.7772348,0.4858013,0.0,0.4071108,0.70522106,0.7970776,0.0,0.10091479,0.21084975,0.69072384,0.0,-0.33045834,-0.46153647,0.4362942,824.3956,829.2308,775.2381,848.1685,508.9011,-0.0511474609375,0.1800537109375,0.9930419921875,1.966400146484375,-5.48797607421875,-0.478515625,480293.0402930403,8.335743589743589E7,3.3207106227106225E7,64.121376,1,1.0,1.0,1.0,1.0,65.00
2025-07-08 15:35:11.998,0.0,0.33361283,0.9145091,0.9411661,0.0,0.12411872,0.7772348,0.4858013,0.0,0.4071108,0.70522106,0.7970776,0.0,0.10091479,0.21084975,0.69072384,0.0,-0.33045834,-0.46153647,0.4362942,859.85345,827.619,776.4469,892.49084,569.34064,-0.0501708984375,0.18072509765625,0.9886474609375,2.28790283203125,-5.33843994140625,-0.8074951171875,480293.0402930403,8.335743589743589E7,3.3207106227106225E7,64.121376,1,1.0,1.0,1.0,1.0,65.00
2025-07-08 15:35:11.998,0.0,0.33361283,0.9145091,0.9411661,0.0,0.12411872,0.7772348,0.4858013,0.0,0.4071108,0.70522106,0.7970776,0.0,0.10091479,0.21084975,0.69072384,0.0,-0.33045834,-0.46153647,0.4362942,845.34796,826.8132,776.04395,879.19415,568.93774,-0.0501708984375,0.18072509765625,0.9886474609375,2.28790283203125,-5.33843994140625,-0.8074951171875,480293.0402930403,8.335743589743589E7,3.3207106227106225E7,64.121376,1,1.0,1.0,1.0,1.0,65.00
2025-07-08 15:35:11.998,0.0,0.33361283,0.9145091,0.9411661,0.0,0.12411872,0.7772348,0.4858013,0.0,0.4071108,0.70522106,0.7970776,0.0,0.10091479,0.21084975,0.69072384,0.0,-0.33045834,-0.46153647,0.4362942,804.65204,822.7839,775.64105,834.87177,626.9597,-0.0501708984375,0.18072509765625,0.9886474609375,2.28790283203125,-5.33843994140625,-0.8074951171875,480293.0402930403,8.335743589743589E7,3.3207106227106225E7,64.121376,1,1.0,1.0,1.0,1.0,65.00
2025-07-08 15:35:11.999,0.0,0.33361283,0.9145091,0.9411661,0.0,0.12411872,0.7772348,0.4858013,0.0,0.4071108,0.70522106,0.7970776,0.0,0.10091479,0.21084975,0.69072384,0.0,-0.33045834,-0.46153647,0.4362942,808.2784,823.5897,775.2381,843.73627,687.3993,-0.0501708984375,0.18072509765625,0.9886474609375,2.28790283203125,-5.33843994140625,-0.8074951171875,480293.0402930403,8.335743589743589E7,3.3207106227106225E7,64.121376,1,1.0,1.0,1.0,1.0,65.00
2025-07-08 15:35:11.999,0.0,0.33361283,0.9145091,0.9411661,0.0,0.12411872,0.7772348,0.4858013,0.0,0.4071108,0.70522106,0.7970776,0.0,0.10091479,0.21084975,0.69072384,0.0,-0.33045834,-0.46153647,0.4362942,844.5421,825.2015,783.2967,887.6557,832.0513,-0.0501708984375,0.18072509765625,0.9886474609375,2.28790283203125,-5.33843994140625,-0.8074951171875,480293.0402930403,8.335743589743589E7,3.3207106227106225E7,64.121376,1,1.0,1.0,1.0,1.0,65.00
2025-07-08 15:35:12.000,0.0,0.33361283,0.9145091,0.9411661,0.0,0.12411872,0.7772348,0.4858013,0.0,0.4071108,0.70522106,0.7970776,0.0,0.10091479,0.21084975,0.69072384,0.0,-0.33045834,-0.46153647,0.4362942,838.0952,823.1868,786.1172,876.77655,720.84247,-0.0501708984375,0.18072509765625,0.9886474609375,2.28790283203125,-5.33843994140625,-0.8074951171875,480293.0402930403,8.335743589743589E7,3.3207106227106225E7,64.121376,1,1.0,1.0,1.0,1.0,65.00
2025-07-08 15:35:12.000,0.0,0.33361283,0.9145091,0.9411661,0.0,0.12411872,0.7772348,0.4858013,0.0,0.4071108,0.70522106,0.7970776,0.0,0.10091479,0.21084975,0.69072384,0.0,-0.33045834,-0.46153647,0.4362942,801.02563,823.5897,785.31134,837.28937,658.3883,-0.0501708984375,0.18072509765625,0.9886474609375,2.28790283203125,-5.33843994140625,-0.8074951171875,480293.0402930403,8.335743589743589E7,3.3207106227106225E7,64.121376,1,1.0,1.0,1.0,1.0,65.00
2025-07-08 15:35:12.000,0.0,0.33361283,0.9145091,0.9411661,0.0,0.12411872,0.7772348,0.4858013,0.0,0.4071108,0.70522106,0.7970776,0.0,0.10091479,0.21084975,0.69072384,0.0,-0.33045834,-0.46153647,0.4362942,800.6227,830.84247,788.5348,834.87177,847.76556,-0.0501708984375,0.18072509765625,0.9886474609375,2.28790283203125,-5.33843994140625,-0.8074951171875,480293.0402930403,8.335743589743589E7,3.3207106227106225E7,64.121376,1,1.0,1.0,1.0,1.0,65.00
2025-07-08 15:35:12.000,0.0,0.33361283,0.9145091,0.9411661,0.0,0.12411872,0.7772348,0.4858013,0.0,0.4071108,0.70522106,0.7970776,0.0,0.10091479,0.21084975,0.69072384,0.0,-0.33045834,-0.46153647,0.4362942,835.6777,834.4689,783.69965,867.9121,975.4945,-0.0501708984375,0.18072509765625,0.9886474609375,2.28790283203125,-5.33843994140625,-0.8074951171875,480293.0402930403,8.335743589743589E7,3.3207106227106225E7,64.121376,1,1.0,1.0,1.0,1.0,65.00
2025-07-08 15:35:12.000,0.0,0.33361283,0.9145091,0.9411661,0.0,0.12411872,0.7772348,0.4858013,0.0,0.4071108,0.70522106,0.7970776,0.0,0.10091479,0.21084975,0.69072384,0.0,-0.33045834,-0.46153647,0.4362942,838.49817,832.4542,783.69965,866.30035,831.6484,-0.0501708984375,0.18072509765625,0.9886474609375,2.28790283203125,-5.33843994140625,-0.8074951171875,480293.0402930403,8.335743589743589E7,3.3207106227106225E7,64.121376,1,1.0,1.0,1.0,1.0,65.00
2025-07-08 15:35:12.000,0.0,0.33361283,0.9145091,0.9411661,0.0,0.12411872,0.7772348,0.4858013,0.0,0.4071108,0.70522106,0.7970776,0.0,0.10091479,0.21084975,0.69072384,0.0,-0.33045834,-0.46153647,0.4362942,816.337,831.2454,786.1172,836.8865,695.4579,-0.0501708984375,0.18072509765625,0.9886474609375,2.28790283203125,-5.33843994140625,-0.8074951171875,480293.0402930403,8.335743589743589E7,3.3207106227106225E7,64.121376,1,1.0,1.0,1.0,1.0,65.00
2025-07-08 15:35:12.001,0.0,0.33361283,0.9145091,0.9411661,0.0,0.12411872,0.7772348,0.4858013,0.0,0.4071108,0.70522106,0.7970776,0.0,0.10091479,0.21084975,0.69072384,0.0,-0.33045834,-0.46153647,0.4362942,793.36993,826.0073,779.2674,804.65204,653.5531,-0.0501708984375,0.18072509765625,0.9886474609375,2.28790283203125,-5.33843994140625,-0.8074951171875,480293.0402930403,8.335743589743589E7,3.3207106227106225E7,64.121376,1,1.0,1.0,1.0,1.0,65.00
2025-07-08 15:35:12.023,0.0,0.33361283,0.9145091,0.9411661,0.0,0.12411872,0.7772348,0.4858013,0.0,0.4071108,0.70522106,0.7970776,0.0,0.10091479,0.21084975,0.69072384,0.0,-0.33045834,-0.46153647,0.4362942,819.5604,826.0073,780.07324,834.87177,666.04395,-0.0501708984375,0.18072509765625,0.9886474609375,2.28790283203125,-5.33843994140625,-0.8074951171875,478681.31868131866,8.331069597069597E7,3.3168424908424906E7,64.022934,1,1.0,1.0,1.0,1.0,65.00
2025-07-08 15:35:12.023,0.0,0.33361283,0.9145091,0.9411661,0.0,0.12411872,0.7772348,0.4858013,0.0,0.4071108,0.70522106,0.7970776,0.0,0.10091479,0.21084975,0.69072384,0.0,-0.33045834,-0.46153647,0.4362942,851.79486,831.6484,782.0879,873.95605,707.1429,-0.0501708984375,0.18072509765625,0.9886474609375,2.28790283203125,-5.33843994140625,-0.8074951171875,478681.31868131866,8.331069597069597E7,3.3168424908424906E7,64.022934,1,1.0,1.0,1.0,1.0,65.00
2025-07-08 15:35:12.023,0.0,0.33361283,0.9145091,0.9411661,0.0,0.12411872,0.7772348,0.4858013,0.0,0.4071108,0.70522106,0.7970776,0.0,0.10091479,0.21084975,0.69072384,0.0,-0.33045834,-0.46153647,0.4362942,839.304,832.8571,778.86444,855.0183,814.7253,-0.0501708984375,0.18072509765625,0.9886474609375,2.28790283203125,-5.33843994140625,-0.8074951171875,478681.31868131866,8.331069597069597E7,3.3168424908424906E7,64.022934,1,1.0,1.0,1.0,1.0,65.00
2025-07-08 15:35:12.024,0.0,0.33361283,0.9145091,0.9411661,0.0,0.12411872,0.7772348,0.4858013,0.0,0.4071108,0.70522106,0.7970776,0.0,0.10091479,0.21084975,0.69072384,0.0,-0.33045834,-0.46153647,0.4362942,790.9524,826.8132,777.25275,808.68134,822.7839,-0.0501708984375,0.18072509765625,0.9886474609375,2.28790283203125,-5.33843994140625,-0.8074951171875,478681.31868131866,8.331069597069597E7,3.3168424908424906E7,64.022934,1,1.0,1.0,1.0,1.0,65.00
2025-07-08 15:35:12.024,0.0,0.33361283,0.9145091,0.9411661,0.0,0.12411872,0.7772348,0.4858013,0.0,0.4071108,0.70522106,0.7970776,0.0,0.10091479,0.21084975,0.69072384,0.0,-0.33045834,-0.46153647,0.4362942,791.3553,823.9927,778.46155,826.4103,750.65936,-0.0501708984375,0.18072509765625,0.9886474609375,2.28790283203125,-5.33843994140625,-0.8074951171875,478681.31868131866,8.331069597069597E7,3.3168424908424906E7,64.022934,1,1.0,1.0,1.0,1.0,65.00
2025-07-08 15:35:12.024,0.0,0.33361283,0.9145091,0.9411661,0.0,0.12411872,0.7772348,0.4858013,0.0,0.4071108,0.70522106,0.7970776,0.0,0.10091479,0.21084975,0.69072384,0.0,-0.33045834,-0.46153647,0.4362942,840.9158,828.4249,778.86444,886.4469,857.03296,-0.0501708984375,0.18072509765625,0.9886474609375,2.28790283203125,-5.33843994140625,-0.8074951171875,478681.31868131866,8.331069597069597E7,3.3168424908424906E7,64.022934,1,1.0,1.0,1.0,1.0,65.00
2025-07-08 15:35:12.024,0.0,0.33361283,0.9145091,0.9411661,0.0,0.12411872,0.7772348,0.4858013,0.0,0.4071108,0.70522106,0.7970776,0.0,0.10091479,0.21084975,0.69072384,0.0,-0.33045834,-0.46153647,0.4362942,848.5714,831.2454,781.685,896.1172,898.5348,-0.0501708984375,0.18072509765625,0.9886474609375,2.28790283203125,-5.33843994140625,-0.8074951171875,478681.31868131866,8.331069597069597E7,3.3168424908424906E7,64.022934,1,1.0,1.0,1.0,1.0,65.00
2025-07-08 15:35:12.024,0.0,0.33361283,0.9145091,0.9411661,0.0,0.12411872,0.7772348,0.4858013,0.0,0.4071108,0.70522106,0.7970776,0.0,0.10091479,0.21084975,0.69072384,0.0,-0.33045834,-0.46153647,0.4362942,808.2784,830.4396,784.90845,855.42126,928.3516,-0.0501708984375,0.18072509765625,0.9886474609375,2.28790283203125,-5.33843994140625,-0.8074951171875,478681.31868131866,8.331069597069597E7,3.3168424908424906E7,64.022934,1,1.0,1.0,1.0,1.0,65.00
2025-07-08 15:35:12.024,0.0,0.33361283,0.9145091,0.9411661,0.0,0.12411872,0.7772348,0.4858013,0.0,0.4071108,0.70522106,0.7970776,0.0,0.10091479,0.21084975,0.69072384,0.0,-0.33045834,-0.46153647,0.4362942,796.5934,828.022,788.1319,832.4542,805.8608,-0.0501708984375,0.18072509765625,0.9886474609375,2.28790283203125,-5.33843994140625,-0.8074951171875,478681.31868131866,8.331069597069597E7,3.3168424908424906E7,64.022934,1,1.0,1.0,1.0,1.0,65.00
2025-07-08 15:35:12.025,0.0,0.33361283,0.9145091,0.9411661,0.0,0.12411872,0.7772348,0.4858013,0.0,0.4071108,0.70522106,0.7970776,0.0,0.10091479,0.21084975,0.69072384,0.0,-0.33045834,-0.46153647,0.4362942,838.0952,828.8278,786.52014,877.98535,699.89014,-0.0501708984375,0.18072509765625,0.9886474609375,2.28790283203125,-5.33843994140625,-0.8074951171875,478681.31868131866,8.331069597069597E7,3.3168424908424906E7,64.022934,1,1.0,1.0,1.0,1.0,65.00
2025-07-08 15:35:12.025,0.0,0.33361283,0.9145091,0.9411661,0.0,0.12411872,0.7772348,0.4858013,0.0,0.4071108,0.70522106,0.7970776,0.0,0.10091479,0.21084975,0.69072384,0.0,-0.33045834,-0.46153647,0.4362942,839.304,825.2015,784.10254,874.7619,1048.8279,-0.0501708984375,0.18072509765625,0.9886474609375,2.28790283203125,-5.33843994140625,-0.8074951171875,478681.31868131866,8.331069597069597E7,3.3168424908424906E7,64.022934,1,1.0,1.0,1.0,1.0,65.00
2025-07-08 15:35:12.025,0.0,0.31964013,0.90662944,0.9411661,0.0,0.10741068,0.7771943,0.4858013,0.0,0.40701684,0.70522106,0.7970776,0.0,0.1284785,0.20740706,0.69072384,0.0,-0.33582282,-0.44169325,0.4362942,792.5641,820.7692,782.0879,831.2454,1421.5385,-0.0501708984375,0.18072509765625,0.9886474609375,2.28790283203125,-5.33843994140625,-0.8074951171875,478681.31868131866,8.331069597069597E7,3.3168424908424906E7,64.022934,1,1.0,1.0,1.0,1.0,65.00
2025-07-08 15:35:12.102,0.0,0.31964013,0.90662944,0.9411661,0.0,0.10741068,0.7771943,0.4858013,0.0,0.40701684,0.70522106,0.7970776,0.0,0.1284785,0.20740706,0.69072384,0.0,-0.33582282,-0.44169325,0.4362942,775.2381,817.9487,782.0879,827.619,1432.0146,-0.0478515625,0.17730712890625,0.98760986328125,2.205657958984375,-4.478607177734375,-0.2691650390625,478681.31868131866,8.331069597069597E7,3.3168424908424906E7,64.022934,1,1.0,1.0,1.0,1.0,65.00
2025-07-08 15:35:12.102,0.0,0.31964013,0.90662944,0.9411661,0.0,0.10741068,0.7771943,0.4858013,0.0,0.40701684,0.70522106,0.7970776,0.0,0.1284785,0.20740706,0.69072384,0.0,-0.33582282,-0.44169325,0.4362942,822.381,823.1868,780.87915,882.8205,1106.8499,-0.0478515625,0.17730712890625,0.98760986328125,2.205657958984375,-4.478607177734375,-0.2691650390625,478681.31868131866,8.331069597069597E7,3.3168424908424906E7,64.022934,1,1.0,1.0,1.0,1.0,65.00
2025-07-08 15:35:12.102,0.0,0.31964013,0.90662944,0.9411661,0.0,0.10741068,0.7771943,0.4858013,0.0,0.40701684,0.70522106,0.7970776,0.0,0.1284785,0.20740706,0.69072384,0.0,-0.33582282,-0.44169325,0.4362942,846.55676,826.8132,779.67035,915.05493,1123.37,-0.0478515625,0.17730712890625,0.98760986328125,2.205657958984375,-4.478607177734375,-0.2691650390625,478681.31868131866,8.331069597069597E7,3.3168424908424906E7,64.022934,1,1.0,1.0,1.0,1.0,65.00
2025-07-08 15:35:12.102,0.0,0.31964013,0.90662944,0.9411661,0.0,0.10741068,0.7771943,0.4858013,0.0,0.40701684,0.70522106,0.7970776,0.0,0.1284785,0.20740706,0.69072384,0.0,-0.33582282,-0.44169325,0.4362942,799.81683,816.337,777.6557,859.45056,1409.8535,-0.0478515625,0.17730712890625,0.98760986328125,2.205657958984375,-4.478607177734375,-0.2691650390625,478681.31868131866,8.331069597069597E7,3.3168424908424906E7,64.022934,1,1.0,1.0,1.0,1.0,65.00
2025-07-08 15:35:12.103,0.0,0.31964013,0.90662944,0.9411661,0.0,0.10741068,0.7771943,0.4858013,0.0,0.40701684,0.70522106,0.7970776,0.0,0.1284785,0.20740706,0.69072384,0.0,-0.33582282,-0.44169325,0.4362942,773.22345,813.1135,776.04395,819.15753,1010.54944,-0.0478515625,0.17730712890625,0.98760986328125,2.205657958984375,-4.478607177734375,-0.2691650390625,478681.31868131866,8.331069597069597E7,3.3168424908424906E7,64.022934,1,1.0,1.0,1.0,1.0,65.00
2025-07-08 15:35:12.103,0.0,0.31964013,0.90662944,0.9411661,0.0,0.10741068,0.7771943,0.4858013,0.0,0.40701684,0.70522106,0.7970776,0.0,0.1284785,0.20740706,0.69072384,0.0,-0.33582282,-0.44169325,0.4362942,808.68134,815.9341,775.64105,854.61536,523.4066,-0.0478515625,0.17730712890625,0.98760986328125,2.205657958984375,-4.478607177734375,-0.2691650390625,478681.31868131866,8.331069597069597E7,3.3168424908424906E7,64.022934,1,1.0,1.0,1.0,1.0,65.00
2025-07-08 15:35:12.103,0.0,0.31964013,0.90662944,0.9411661,0.0,0.10741068,0.7771943,0.4858013,0.0,0.40701684,0.70522106,0.7970776,0.0,0.1284785,0.20740706,0.69072384,0.0,-0.33582282,-0.44169325,0.4362942,842.52747,820.3663,778.86444,901.3553,676.9231,-0.0478515625,0.17730712890625,0.98760986328125,2.205657958984375,-4.478607177734375,-0.2691650390625,478681.31868131866,8.331069597069597E7,3.3168424908424906E7,64.022934,1,1.0,1.0,1.0,1.0,65.00
2025-07-08 15:35:12.103,0.0,0.31964013,0.90662944,0.9411661,0.0,0.10741068,0.7771943,0.4858013,0.0,0.40701684,0.70522106,0.7970776,0.0,0.1284785,0.20740706,0.69072384,0.0,-0.33582282,-0.44169325,0.4362942,830.0366,820.3663,782.49084,876.3736,802.23444,-0.0478515625,0.17730712890625,0.98760986328125,2.205657958984375,-4.478607177734375,-0.2691650390625,478681.31868131866,8.331069597069597E7,3.3168424908424906E7,64.022934,1,1.0,1.0,1.0,1.0,65.00
2025-07-08 15:35:12.103,0.0,0.31964013,0.90662944,0.9411661,0.0,0.10741068,0.7771943,0.4858013,0.0,0.40701684,0.70522106,0.7970776,0.0,0.1284785,0.20740706,0.69072384,0.0,-0.33582282,-0.44169325,0.4362942,779.2674,816.337,782.8938,806.26373,501.24542,-0.0478515625,0.17730712890625,0.98760986328125,2.205657958984375,-4.478607177734375,-0.2691650390625,478681.31868131866,8.331069597069597E7,3.3168424908424906E7,64.022934,1,1.0,1.0,1.0,1.0,65.00
2025-07-08 15:35:12.103,0.0,0.31964013,0.90662944,0.9411661,0.0,0.10741068,0.7771943,0.4858013,0.0,0.40701684,0.70522106,0.7970776,0.0,0.1284785,0.20740706,0.69072384,0.0,-0.33582282,-0.44169325,0.4362942,798.20514,825.6044,788.1319,838.49817,506.48352,-0.0478515625,0.17730712890625,0.98760986328125,2.205657958984375,-4.478607177734375,-0.2691650390625,478681.31868131866,8.331069597069597E7,3.3168424908424906E7,64.022934,1,1.0,1.0,1.0,1.0,65.00
2025-07-08 15:35:12.104,0.0,0.31964013,0.90662944,0.9411661,0.0,0.10741068,0.7771943,0.4858013,0.0,0.40701684,0.70522106,0.7970776,0.0,0.1284785,0.20740706,0.69072384,0.0,-0.33582282,-0.44169325,0.4362942,848.97437,833.663,790.9524,895.7143,699.4872,-0.0478515625,0.17730712890625,0.98760986328125,2.205657958984375,-4.478607177734375,-0.2691650390625,478681.31868131866,8.331069597069597E7,3.3168424908424906E7,64.022934,1,1.0,1.0,1.0,1.0,65.00
2025-07-08 15:35:12.104,0.0,0.31964013,0.90662944,0.9411661,0.0,0.10741068,0.7771943,0.4858013,0.0,0.40701684,0.70522106,0.7970776,0.0,0.1284785,0.20740706,0.69072384,0.0,-0.33582282,-0.44169325,0.4362942,838.9011,825.2015,780.07324,878.7912,703.5165,-0.0478515625,0.17730712890625,0.98760986328125,2.205657958984375,-4.478607177734375,-0.2691650390625,478681.31868131866,8.331069597069597E7,3.3168424908424906E7,64.022934,1,1.0,1.0,1.0,1.0,65.00
2025-07-08 15:35:12.129,0.0,0.31964013,0.90662944,0.9411661,0.0,0.10741068,0.7771943,0.4858013,0.0,0.40701684,0.70522106,0.7970776,0.0,0.1284785,0.20740706,0.69072384,0.0,-0.33582282,-0.44169325,0.4362942,799.81683,823.9927,775.64105,814.7253,612.4542,-0.05841064453125,0.1759033203125,0.99432373046875,2.130889892578125,-4.35150146484375,-0.979461669921875,481098.9010989011,8.325750915750915E7,3.3157948717948716E7,63.93024,1,1.0,1.0,1.0,1.0,65.00
2025-07-08 15:35:12.130,0.0,0.31964013,0.90662944,0.9411661,0.0,0.10741068,0.7771943,0.4858013,0.0,0.40701684,0.70522106,0.7970776,0.0,0.1284785,0.20740706,0.69072384,0.0,-0.33582282,-0.44169325,0.4362942,804.2491,834.4689,784.90845,813.1135,587.0696,-0.05841064453125,0.1759033203125,0.99432373046875,2.130889892578125,-4.35150146484375,-0.979461669921875,481098.9010989011,8.325750915750915E7,3.3157948717948716E7,63.93024,1,1.0,1.0,1.0,1.0,65.00
2025-07-08 15:35:12.130,0.0,0.31964013,0.90662944,0.9411661,0.0,0.10741068,0.7771943,0.4858013,0.0,0.40701684,0.70522106,0.7970776,0.0,0.1284785,0.20740706,0.69072384,0.0,-0.33582282,-0.44169325,0.4362942,846.9597,832.0513,785.7143,873.95605,637.8388,-0.05841064453125,0.1759033203125,0.99432373046875,2.130889892578125,-4.35150146484375,-0.979461669921875,481098.9010989011,8.325750915750915E7,3.3157948717948716E7,63.93024,1,1.0,1.0,1.0,1.0,65.00
2025-07-08 15:35:12.130,0.0,0.31964013,0.90662944,0.9411661,0.0,0.10741068,0.7771943,0.4858013,0.0,0.40701684,0.70522106,0.7970776,0.0,0.1284785,0.20740706,0.69072384,0.0,-0.33582282,-0.44169325,0.4362942,859.45056,831.2454,788.5348,887.6557,652.74725,-0.05841064453125,0.1759033203125,0.99432373046875,2.130889892578125,-4.35150146484375,-0.979461669921875,481098.9010989011,8.325750915750915E7,3.3157948717948716E7,63.93024,1,1.0,1.0,1.0,1.0,65.00
2025-07-08 15:35:12.131,0.0,0.31964013,0.90662944,0.9411661,0.0,0.10741068,0.7771943,0.4858013,0.0,0.40701684,0.70522106,0.7970776,0.0,0.1284785,0.20740706,0.69072384,0.0,-0.33582282,-0.44169325,0.4362942,828.4249,837.6923,790.9524,845.7509,564.90845,-0.05841064453125,0.1759033203125,0.99432373046875,2.130889892578125,-4.35150146484375,-0.979461669921875,481098.9010989011,8.325750915750915E7,3.3157948717948716E7,63.93024,1,1.0,1.0,1.0,1.0,65.00
2025-07-08 15:35:12.131,0.0,0.31964013,0.90662944,0.9411661,0.0,0.10741068,0.7771943,0.4858013,0.0,0.40701684,0.70522106,0.7970776,0.0,0.1284785,0.20740706,0.69072384,0.0,-0.33582282,-0.44169325,0.4362942,805.8608,838.9011,788.5348,826.0073,660.40295,-0.05841064453125,0.1759033203125,0.99432373046875,2.130889892578125,-4.35150146484375,-0.979461669921875,481098.9010989011,8.325750915750915E7,3.3157948717948716E7,63.93024,1,1.0,1.0,1.0,1.0,65.00
2025-07-08 15:35:12.131,0.0,0.31964013,0.90662944,0.9411661,0.0,0.10741068,0.7771943,0.4858013,0.0,0.40701684,0.70522106,0.7970776,0.0,0.1284785,0.20740706,0.69072384,0.0,-0.33582282,-0.44169325,0.4362942,836.08057,836.8865,788.93774,867.1062,794.57874,-0.05841064453125,0.1759033203125,0.99432373046875,2.130889892578125,-4.35150146484375,-0.979461669921875,481098.9010989011,8.325750915750915E7,3.3157948717948716E7,63.93024,1,1.0,1.0,1.0,1.0,65.00
2025-07-08 15:35:12.132,0.0,0.31964013,0.90662944,0.9411661,0.0,0.10741068,0.7771943,0.4858013,0.0,0.40701684,0.70522106,0.7970776,0.0,0.1284785,0.20740706,0.69072384,0.0,-0.33582282,-0.44169325,0.4362942,846.55676,827.2161,782.8938,875.16486,740.58606,-0.05841064453125,0.1759033203125,0.99432373046875,2.130889892578125,-4.35150146484375,-0.979461669921875,481098.9010989011,8.325750915750915E7,3.3157948717948716E7,63.93024,1,1.0,1.0,1.0,1.0,65.00
2025-07-08 15:35:12.132,0.0,0.31964013,0.90662944,0.9411661,0.0,0.10741068,0.7771943,0.4858013,0.0,0.40701684,0.70522106,0.7970776,0.0,0.1284785,0.20740706,0.69072384,0.0,-0.33582282,-0.44169325,0.4362942,812.71063,820.7692,781.28204,845.34796,871.9414,-0.05841064453125,0.1759033203125,0.99432373046875,2.130889892578125,-4.35150146484375,-0.979461669921875,481098.9010989011,8.325750915750915E7,3.3157948717948716E7,63.93024,1,1.0,1.0,1.0,1.0,65.00
2025-07-08 15:35:12.132,0.0,0.31964013,0.90662944,0.9411661,0.0,0.10741068,0.7771943,0.4858013,0.0,0.40701684,0.70522106,0.7970776,0.0,0.1284785,0.20740706,0.69072384,0.0,-0.33582282,-0.44169325,0.4362942,787.72894,825.2015,787.326,820.3663,950.10986,-0.05841064453125,0.1759033203125,0.99432373046875,2.130889892578125,-4.35150146484375,-0.979461669921875,481098.9010989011,8.325750915750915E7,3.3157948717948716E7,63.93024,1,1.0,1.0,1.0,1.0,65.00
2025-07-08 15:35:12.132,0.0,0.31964013,0.90662944,0.9411661,0.0,0.10741068,0.7771943,0.4858013,0.0,0.40701684,0.70522106,0.7970776,0.0,0.1284785,0.20740706,0.69072384,0.0,-0.33582282,-0.44169325,0.4362942,813.1135,823.5897,785.31134,850.58606,894.10254,-0.05841064453125,0.1759033203125,0.99432373046875,2.130889892578125,-4.35150146484375,-0.979461669921875,481098.9010989011,8.325750915750915E7,3.3157948717948716E7,63.93024,1,1.0,1.0,1.0,1.0,65.00
2025-07-08 15:35:12.133,0.0,0.31964013,0.90662944,0.9411661,0.0,0.10741068,0.7771943,0.4858013,0.0,0.40701684,0.70522106,0.7970776,0.0,0.1284785,0.20740706,0.69072384,0.0,-0.33582282,-0.44169325,0.4362942,832.4542,814.3223,784.5055,873.1502,703.91943,-0.05841064453125,0.1759033203125,0.99432373046875,2.130889892578125,-4.35150146484375,-0.979461669921875,481098.9010989011,8.325750915750915E7,3.3157948717948716E7,63.93024,1,1.0,1.0,1.0,1.0,65.00
2025-07-08 15:35:12.182,0.0,0.31964013,0.90662944,0.9411661,0.0,0.10741068,0.7771943,0.4858013,0.0,0.40701684,0.70522106,0.7970776,0.0,0.1284785,0.20740706,0.69072384,0.0,-0.33582282,-0.44169325,0.4362942,823.5897,817.1429,788.5348,852.6007,564.90845,-0.0509033203125,0.17767333984375,0.9873046875,2.743988037109375,-3.84307861328125,-1.188812255859375,481098.9010989011,8.325750915750915E7,3.3157948717948716E7,63.93024,1,1.0,1.0,1.0,1.0,65.00
2025-07-08 15:35:12.183,0.0,0.30898124,0.9022144,0.9411661,0.0,0.09483533,0.77732337,0.4858013,0.0,0.39841545,0.70522106,0.7970776,0.0,0.14811128,0.19295298,0.69072384,0.0,-0.34015766,-0.42835283,0.4362942,802.6374,827.2161,789.34064,839.304,831.6484,-0.0509033203125,0.17767333984375,0.9873046875,2.743988037109375,-3.84307861328125,-1.188812255859375,481098.9010989011,8.325750915750915E7,3.3157948717948716E7,63.93024,1,1.0,1.0,1.0,1.0,65.00
2025-07-08 15:35:12.184,0.0,0.30898124,0.9022144,0.9411661,0.0,0.09483533,0.77732337,0.4858013,0.0,0.39841545,0.70522106,0.7970776,0.0,0.14811128,0.19295298,0.69072384,0.0,-0.34015766,-0.42835283,0.4362942,798.20514,825.2015,787.326,836.4835,866.30035,-0.0509033203125,0.17767333984375,0.9873046875,2.743988037109375,-3.84307861328125,-1.188812255859375,481098.9010989011,8.325750915750915E7,3.3157948717948716E7,63.93024,1,1.0,1.0,1.0,1.0,65.00
2025-07-08 15:35:12.185,0.0,0.30898124,0.9022144,0.9411661,0.0,0.09483533,0.77732337,0.4858013,0.0,0.39841545,0.70522106,0.7970776,0.0,0.14811128,0.19295298,0.69072384,0.0,-0.34015766,-0.42835283,0.4362942,821.978,823.5897,790.54944,857.4359,636.2271,-0.0509033203125,0.17767333984375,0.9873046875,2.743988037109375,-3.84307861328125,-1.188812255859375,481098.9010989011,8.325750915750915E7,3.3157948717948716E7,63.93024,1,1.0,1.0,1.0,1.0,65.00
2025-07-08 15:35:12.185,0.0,0.30898124,0.9022144,0.9411661,0.0,0.09483533,0.77732337,0.4858013,0.0,0.39841545,0.70522106,0.7970776,0.0,0.14811128,0.19295298,0.69072384,0.0,-0.34015766,-0.42835283,0.4362942,819.15753,829.2308,792.5641,875.56775,1082.2711,-0.0509033203125,0.17767333984375,0.9873046875,2.743988037109375,-3.84307861328125,-1.188812255859375,481098.9010989011,8.325750915750915E7,3.3157948717948716E7,63.93024,1,1.0,1.0,1.0,1.0,65.00
2025-07-08 15:35:12.185,0.0,0.30898124,0.9022144,0.9411661,0.0,0.09483533,0.77732337,0.4858013,0.0,0.39841545,0.70522106,0.7970776,0.0,0.14811128,0.19295298,0.69072384,0.0,-0.34015766,-0.42835283,0.4362942,788.1319,831.2454,782.0879,852.1978,1337.326,-0.0509033203125,0.17767333984375,0.9873046875,2.743988037109375,-3.84307861328125,-1.188812255859375,481098.9010989011,8.325750915750915E7,3.3157948717948716E7,63.93024,1,1.0,1.0,1.0,1.0,65.00
2025-07-08 15:35:12.185,0.0,0.30898124,0.9022144,0.9411661,0.0,0.09483533,0.77732337,0.4858013,0.0,0.39841545,0.70522106,0.7970776,0.0,0.14811128,0.19295298,0.69072384,0.0,-0.34015766,-0.42835283,0.4362942,782.8938,829.2308,777.6557,826.4103,886.4469,-0.0509033203125,0.17767333984375,0.9873046875,2.743988037109375,-3.84307861328125,-1.188812255859375,481098.9010989011,8.325750915750915E7,3.3157948717948716E7,63.93024,1,1.0,1.0,1.0,1.0,65.00
2025-07-08 15:35:12.186,0.0,0.30898124,0.9022144,0.9411661,0.0,0.09483533,0.77732337,0.4858013,0.0,0.39841545,0.70522106,0.7970776,0.0,0.14811128,0.19295298,0.69072384,0.0,-0.34015766,-0.42835283,0.4362942,818.7546,829.2308,783.69965,850.989,636.2271,-0.0509033203125,0.17767333984375,0.9873046875,2.743988037109375,-3.84307861328125,-1.188812255859375,481098.9010989011,8.325750915750915E7,3.3157948717948716E7,63.93024,1,1.0,1.0,1.0,1.0,65.00
2025-07-08 15:35:12.186,0.0,0.30898124,0.9022144,0.9411661,0.0,0.09483533,0.77732337,0.4858013,0.0,0.39841545,0.70522106,0.7970776,0.0,0.14811128,0.19295298,0.69072384,0.0,-0.34015766,-0.42835283,0.4362942,843.3333,833.663,782.49084,887.6557,602.381,-0.0509033203125,0.17767333984375,0.9873046875,2.743988037109375,-3.84307861328125,-1.188812255859375,481098.9010989011,8.325750915750915E7,3.3157948717948716E7,63.93024,1,1.0,1.0,1.0,1.0,65.00
2025-07-08 15:35:12.186,0.0,0.30898124,0.9022144,0.9411661,0.0,0.09483533,0.77732337,0.4858013,0.0,0.39841545,0.70522106,0.7970776,0.0,0.14811128,0.19295298,0.69072384,0.0,-0.34015766,-0.42835283,0.4362942,817.9487,838.49817,780.07324,864.68866,661.2088,-0.0509033203125,0.17767333984375,0.9873046875,2.743988037109375,-3.84307861328125,-1.188812255859375,481098.9010989011,8.325750915750915E7,3.3157948717948716E7,63.93024,1,1.0,1.0,1.0,1.0,65.00
2025-07-08 15:35:12.186,0.0,0.30898124,0.9022144,0.9411661,0.0,0.09483533,0.77732337,0.4858013,0.0,0.39841545,0.70522106,0.7970776,0.0,0.14811128,0.19295298,0.69072384,0.0,-0.34015766,-0.42835283,0.4362942,792.1612,836.08057,784.10254,827.2161,689.81683,-0.0509033203125,0.17767333984375,0.9873046875,2.743988037109375,-3.84307861328125,-1.188812255859375,481098.9010989011,8.325750915750915E7,3.3157948717948716E7,63.93024,1,1.0,1.0,1.0,1.0,65.00
2025-07-08 15:35:12.186,0.0,0.30898124,0.9022144,0.9411661,0.0,0.09483533,0.77732337,0.4858013,0.0,0.39841545,0.70522106,0.7970776,0.0,0.14811128,0.19295298,0.69072384,0.0,-0.34015766,-0.42835283,0.4362942,824.3956,832.8571,786.9231,853.8095,655.56775,-0.0509033203125,0.17767333984375,0.9873046875,2.743988037109375,-3.84307861328125,-1.188812255859375,481098.9010989011,8.325750915750915E7,3.3157948717948716E7,63.93024,1,1.0,1.0,1.0,1.0,65.00
2025-07-08 15:35:12.212,0.0,0.30898124,0.9022144,0.9411661,0.0,0.09483533,0.77732337,0.4858013,0.0,0.39841545,0.70522106,0.7970776,0.0,0.14811128,0.19295298,0.69072384,0.0,-0.34015766,-0.42835283,0.4362942,845.7509,831.6484,788.1319,884.83514,842.52747,-0.0574951171875,0.17388916015625,0.99127197265625,2.1234130859375,-4.837493896484375,-0.500946044921875,478681.31868131866,8.32502564102564E7,3.3168424908424906E7,63.842976,1,1.0,1.0,1.0,1.0,65.00
2025-07-08 15:35:12.212,0.0,0.30898124,0.9022144,0.9411661,0.0,0.09483533,0.77732337,0.4858013,0.0,0.39841545,0.70522106,0.7970776,0.0,0.14811128,0.19295298,0.69072384,0.0,-0.34015766,-0.42835283,0.4362942,821.5751,828.022,790.54944,863.0769,1404.2124,-0.0574951171875,0.17388916015625,0.99127197265625,2.1234130859375,-4.837493896484375,-0.500946044921875,478681.31868131866,8.32502564102564E7,3.3168424908424906E7,63.842976,1,1.0,1.0,1.0,1.0,65.00
2025-07-08 15:35:12.212,0.0,0.30898124,0.9022144,0.9411661,0.0,0.09483533,0.77732337,0.4858013,0.0,0.39841545,0.70522106,0.7970776,0.0,0.14811128,0.19295298,0.69072384,0.0,-0.34015766,-0.42835283,0.4362942,788.1319,828.8278,791.75824,815.12823,1547.6556,-0.0574951171875,0.17388916015625,0.99127197265625,2.1234130859375,-4.837493896484375,-0.500946044921875,478681.31868131866,8.32502564102564E7,3.3168424908424906E7,63.842976,1,1.0,1.0,1.0,1.0,65.00
2025-07-08 15:35:12.213,0.0,0.30898124,0.9022144,0.9411661,0.0,0.09483533,0.77732337,0.4858013,0.0,0.39841545,0.70522106,0.7970776,0.0,0.14811128,0.19295298,0.69072384,0.0,-0.34015766,-0.42835283,0.4362942,803.0403,831.2454,791.75824,834.0659,1413.4799,-0.0574951171875,0.17388916015625,0.99127197265625,2.1234130859375,-4.837493896484375,-0.500946044921875,478681.31868131866,8.32502564102564E7,3.3168424908424906E7,63.842976,1,1.0,1.0,1.0,1.0,65.00
2025-07-08 15:35:12.213,0.0,0.30898124,0.9022144,0.9411661,0.0,0.09483533,0.77732337,0.4858013,0.0,0.39841545,0.70522106,0.7970776,0.0,0.14811128,0.19295298,0.69072384,0.0,-0.34015766,-0.42835283,0.4362942,844.5421,829.2308,786.1172,880.40295,1191.4652,-0.0574951171875,0.17388916015625,0.99127197265625,2.1234130859375,-4.837493896484375,-0.500946044921875,478681.31868131866,8.32502564102564E7,3.3168424908424906E7,63.842976,1,1.0,1.0,1.0,1.0,65.00
2025-07-08 15:35:12.213,0.0,0.30898124,0.9022144,0.9411661,0.0,0.09483533,0.77732337,0.4858013,0.0,0.39841545,0.70522106,0.7970776,0.0,0.14811128,0.19295298,0.69072384,0.0,-0.34015766,-0.42835283,0.4362942,837.6923,828.022,782.49084,863.47986,824.3956,-0.0574951171875,0.17388916015625,0.99127197265625,2.1234130859375,-4.837493896484375,-0.500946044921875,478681.31868131866,8.32502564102564E7,3.3168424908424906E7,63.842976,1,1.0,1.0,1.0,1.0,65.00
2025-07-08 15:35:12.213,0.0,0.30898124,0.9022144,0.9411661,0.0,0.09483533,0.77732337,0.4858013,0.0,0.39841545,0.70522106,0.7970776,0.0,0.14811128,0.19295298,0.69072384,0.0,-0.34015766,-0.42835283,0.4362942,786.1172,828.4249,782.8938,812.3077,674.90845,-0.0574951171875,0.17388916015625,0.99127197265625,2.1234130859375,-4.837493896484375,-0.500946044921875,478681.31868131866,8.32502564102564E7,3.3168424908424906E7,63.842976,1,1.0,1.0,1.0,1.0,65.00
2025-07-08 15:35:12.213,0.0,0.30898124,0.9022144,0.9411661,0.0,0.09483533,0.77732337,0.4858013,0.0,0.39841545,0.70522106,0.7970776,0.0,0.14811128,0.19295298,0.69072384,0.0,-0.34015766,-0.42835283,0.4362942,780.87915,828.8278,783.2967,805.05493,611.6484,-0.0574951171875,0.17388916015625,0.99127197265625,2.1234130859375,-4.837493896484375,-0.500946044921875,478681.31868131866,8.32502564102564E7,3.3168424908424906E7,63.842976,1,1.0,1.0,1.0,1.0,65.00
2025-07-08 15:35:12.214,0.0,0.30898124,0.9022144,0.9411661,0.0,0.09483533,0.77732337,0.4858013,0.0,0.39841545,0.70522106,0.7970776,0.0,0.14811128,0.19295298,0.69072384,0.0,-0.34015766,-0.42835283,0.4362942,836.08057,832.4542,787.72894,861.06226,636.63007,-0.0574951171875,0.17388916015625,0.99127197265625,2.1234130859375,-4.837493896484375,-0.500946044921875,478681.31868131866,8.32502564102564E7,3.3168424908424906E7,63.842976,1,1.0,1.0,1.0,1.0,65.00
2025-07-08 15:35:12.214,0.0,0.30898124,0.9022144,0.9411661,0.0,0.09483533,0.77732337,0.4858013,0.0,0.39841545,0.70522106,0.7970776,0.0,0.14811128,0.19295298,0.69072384,0.0,-0.34015766,-0.42835283,0.4362942,840.9158,833.663,791.3553,877.5824,779.67035,-0.0574951171875,0.17388916015625,0.99127197265625,2.1234130859375,-4.837493896484375,-0.500946044921875,478681.31868131866,8.32502564102564E7,3.3168424908424906E7,63.842976,1,1.0,1.0,1.0,1.0,65.00
2025-07-08 15:35:12.214,0.0,0.30898124,0.9022144,0.9411661,0.0,0.09483533,0.77732337,0.4858013,0.0,0.39841545,0.70522106,0.7970776,0.0,0.14811128,0.19295298,0.69072384,0.0,-0.34015766,-0.42835283,0.4362942,784.90845,827.619,792.1612,815.5311,767.98535,-0.0574951171875,0.17388916015625,0.99127197265625,2.1234130859375,-4.837493896484375,-0.500946044921875,478681.31868131866,8.32502564102564E7,3.3168424908424906E7,63.842976,1,1.0,1.0,1.0,1.0,65.00
2025-07-08 15:35:12.214,0.0,0.30898124,0.9022144,0.9411661,0.0,0.09483533,0.77732337,0.4858013,0.0,0.39841545,0.70522106,0.7970776,0.0,0.14811128,0.19295298,0.69072384,0.0,-0.34015766,-0.42835283,0.4362942,779.2674,823.1868,793.7729,805.05493,591.0989,-0.0574951171875,0.17388916015625,0.99127197265625,2.1234130859375,-4.837493896484375,-0.500946044921875,478681.31868131866,8.32502564102564E7,3.3168424908424906E7,63.842976,1,1.0,1.0,1.0,1.0,65.00
2025-07-08 15:35:12.265,0.0,0.30898124,0.9022144,0.9411661,0.0,0.09483533,0.77732337,0.4858013,0.0,0.39841545,0.70522106,0.7970776,0.0,0.14811128,0.19295298,0.69072384,0.0,-0.34015766,-0.42835283,0.4362942,830.0366,821.978,788.5348,857.03296,536.7033,-0.05377197265625,0.178955078125,0.98956298828125,2.930908203125,-5.555267333984375,-0.657958984375,478681.31868131866,8.32502564102564E7,3.3168424908424906E7,63.842976,1,1.0,1.0,1.0,1.0,65.00
2025-07-08 15:35:12.266,0.0,0.30898124,0.9022144,0.9411661,0.0,0.09483533,0.77732337,0.4858013,0.0,0.39841545,0.70522106,0.7970776,0.0,0.14811128,0.19295298,0.69072384,0.0,-0.34015766,-0.42835283,0.4362942,850.58606,829.2308,789.34064,891.685,572.5641,-0.05377197265625,0.178955078125,0.98956298828125,2.930908203125,-5.555267333984375,-0.657958984375,478681.31868131866,8.32502564102564E7,3.3168424908424906E7,63.842976,1,1.0,1.0,1.0,1.0,65.00
2025-07-08 15:35:12.266,0.0,0.30898124,0.9022144,0.9411661,0.0,0.09483533,0.77732337,0.4858013,0.0,0.39841545,0.70522106,0.7970776,0.0,0.14811128,0.19295298,0.69072384,0.0,-0.34015766,-0.42835283,0.4362942,821.1722,834.0659,793.7729,867.9121,580.6227,-0.05377197265625,0.178955078125,0.98956298828125,2.930908203125,-5.555267333984375,-0.657958984375,478681.31868131866,8.32502564102564E7,3.3168424908424906E7,63.842976,1,1.0,1.0,1.0,1.0,65.00
2025-07-08 15:35:12.266,0.0,0.3081309,0.8998395,0.9411661,0.0,0.08744718,0.7785315,0.4858013,0.0,0.38981953,0.70522106,0.7970776,0.0,0.1619202,0.1672548,0.69072384,0.0,-0.3427951,-0.42321628,0.4362942,788.1319,827.619,787.72894,826.4103,536.30035,-0.05377197265625,0.178955078125,0.98956298828125,2.930908203125,-5.555267333984375,-0.657958984375,478681.31868131866,8.32502564102564E7,3.3168424908424906E7,63.842976,1,1.0,1.0,1.0,1.0,65.00
2025-07-08 15:35:12.268,0.0,0.3081309,0.8998395,0.9411661,0.0,0.08744718,0.7785315,0.4858013,0.0,0.38981953,0.70522106,0.7970776,0.0,0.1619202,0.1672548,0.69072384,0.0,-0.3427951,-0.42321628,0.4362942,818.7546,824.7985,790.14655,863.0769,745.42126,-0.05377197265625,0.178955078125,0.98956298828125,2.930908203125,-5.555267333984375,-0.657958984375,478681.31868131866,8.32502564102564E7,3.3168424908424906E7,63.842976,1,1.0,1.0,1.0,1.0,65.00
2025-07-08 15:35:12.268,0.0,0.3081309,0.8998395,0.9411661,0.0,0.08744718,0.7785315,0.4858013,0.0,0.38981953,0.70522106,0.7970776,0.0,0.1619202,0.1672548,0.69072384,0.0,-0.3427951,-0.42321628,0.4362942,846.9597,828.4249,798.20514,901.3553,1146.337,-0.05377197265625,0.178955078125,0.98956298828125,2.930908203125,-5.555267333984375,-0.657958984375,478681.31868131866,8.32502564102564E7,3.3168424908424906E7,63.842976,1,1.0,1.0,1.0,1.0,65.00
2025-07-08 15:35:12.268,0.0,0.3081309,0.8998395,0.9411661,0.0,0.08744718,0.7785315,0.4858013,0.0,0.38981953,0.70522106,0.7970776,0.0,0.1619202,0.1672548,0.69072384,0.0,-0.3427951,-0.42321628,0.4362942,807.8755,823.9927,792.1612,859.45056,1005.7143,-0.05377197265625,0.178955078125,0.98956298828125,2.930908203125,-5.555267333984375,-0.657958984375,478681.31868131866,8.32502564102564E7,3.3168424908424906E7,63.842976,1,1.0,1.0,1.0,1.0,65.00
2025-07-08 15:35:12.268,0.0,0.3081309,0.8998395,0.9411661,0.0,0.08744718,0.7785315,0.4858013,0.0,0.38981953,0.70522106,0.7970776,0.0,0.1619202,0.1672548,0.69072384,0.0,-0.3427951,-0.42321628,0.4362942,761.9414,822.7839,786.52014,799.41394,738.1685,-0.05377197265625,0.178955078125,0.98956298828125,2.930908203125,-5.555267333984375,-0.657958984375,478681.31868131866,8.32502564102564E7,3.3168424908424906E7,63.842976,1,1.0,1.0,1.0,1.0,65.00
2025-07-08 15:35:12.268,0.0,0.3081309,0.8998395,0.9411661,0.0,0.08744718,0.7785315,0.4858013,0.0,0.38981953,0.70522106,0.7970776,0.0,0.1619202,0.1672548,0.69072384,0.0,-0.3427951,-0.42321628,0.4362942,791.75824,827.619,790.14655,832.0513,679.34064,-0.05377197265625,0.178955078125,0.98956298828125,2.930908203125,-5.555267333984375,-0.657958984375,478681.31868131866,8.32502564102564E7,3.3168424908424906E7,63.842976,1,1.0,1.0,1.0,1.0,65.00
2025-07-08 15:35:12.269,0.0,0.3081309,0.8998395,0.9411661,0.0,0.08744718,0.7785315,0.4858013,0.0,0.38981953,0.70522106,0.7970776,0.0,0.1619202,0.1672548,0.69072384,0.0,-0.3427951,-0.42321628,0.4362942,828.8278,825.6044,791.3553,883.22345,720.84247,-0.05377197265625,0.178955078125,0.98956298828125,2.930908203125,-5.555267333984375,-0.657958984375,478681.31868131866,8.32502564102564E7,3.3168424908424906E7,63.842976,1,1.0,1.0,1.0,1.0,65.00
2025-07-08 15:35:12.269,0.0,0.3081309,0.8998395,0.9411661,0.0,0.08744718,0.7785315,0.4858013,0.0,0.38981953,0.70522106,0.7970776,0.0,0.1619202,0.1672548,0.69072384,0.0,-0.3427951,-0.42321628,0.4362942,817.9487,826.0073,787.72894,854.61536,575.38464,-0.05377197265625,0.178955078125,0.98956298828125,2.930908203125,-5.555267333984375,-0.657958984375,478681.31868131866,8.32502564102564E7,3.3168424908424906E7,63.842976,1,1.0,1.0,1.0,1.0,65.00
2025-07-08 15:35:12.269,0.0,0.3081309,0.8998395,0.9411661,0.0,0.08744718,0.7785315,0.4858013,0.0,0.38981953,0.70522106,0.7970776,0.0,0.1619202,0.1672548,0.69072384,0.0,-0.3427951,-0.42321628,0.4362942,790.14655,831.6484,787.326,817.9487,492.78387,-0.05377197265625,0.178955078125,0.98956298828125,2.930908203125,-5.555267333984375,-0.657958984375,478681.31868131866,8.32502564102564E7,3.3168424908424906E7,63.842976,1,1.0,1.0,1.0,1.0,65.00
2025-07-08 15:35:12.318,0.0,0.3081309,0.8998395,0.9411661,0.0,0.08744718,0.7785315,0.4858013,0.0,0.38981953,0.70522106,0.7970776,0.0,0.1619202,0.1672548,0.69072384,0.0,-0.3427951,-0.42321628,0.4362942,794.57874,833.2601,788.1319,830.84247,685.38464,-0.05377197265625,0.178955078125,0.98956298828125,2.930908203125,-5.555267333984375,-0.657958984375,481098.9010989011,8.328087912087911E7,3.3169230769230768E7,63.76082,1,1.0,1.0,1.0,1.0,65.00
2025-07-08 15:35:12.319,0.0,0.3081309,0.8998395,0.9411661,0.0,0.08744718,0.7785315,0.4858013,0.0,0.38981953,0.70522106,0.7970776,0.0,0.1619202,0.1672548,0.69072384,0.0,-0.3427951,-0.42321628,0.4362942,834.87177,830.4396,788.93774,863.0769,787.326,-0.05377197265625,0.178955078125,0.98956298828125,2.930908203125,-5.555267333984375,-0.657958984375,481098.9010989011,8.328087912087911E7,3.3169230769230768E7,63.76082,1,1.0,1.0,1.0,1.0,65.00
2025-07-08 15:35:12.319,0.0,0.3081309,0.8998395,0.9411661,0.0,0.08744718,0.7785315,0.4858013,0.0,0.38981953,0.70522106,0.7970776,0.0,0.1619202,0.1672548,0.69072384,0.0,-0.3427951,-0.42321628,0.4362942,839.304,830.4396,788.5348,873.1502,1083.4799,-0.05377197265625,0.178955078125,0.98956298828125,2.930908203125,-5.555267333984375,-0.657958984375,481098.9010989011,8.328087912087911E7,3.3169230769230768E7,63.76082,1,1.0,1.0,1.0,1.0,65.00
2025-07-08 15:35:12.319,0.0,0.3081309,0.8998395,0.9411661,0.0,0.08744718,0.7785315,0.4858013,0.0,0.38981953,0.70522106,0.7970776,0.0,0.1619202,0.1672548,0.69072384,0.0,-0.3427951,-0.42321628,0.4362942,810.696,834.87177,783.2967,848.5714,1365.9341,-0.05377197265625,0.178955078125,0.98956298828125,2.930908203125,-5.555267333984375,-0.657958984375,481098.9010989011,8.328087912087911E7,3.3169230769230768E7,63.76082,1,1.0,1.0,1.0,1.0,65.00
2025-07-08 15:35:12.319,0.0,0.3081309,0.8998395,0.9411661,0.0,0.08744718,0.7785315,0.4858013,0.0,0.38981953,0.70522106,0.7970776,0.0,0.1619202,0.1672548,0.69072384,0.0,-0.3427951,-0.42321628,0.4362942,799.81683,830.84247,781.28204,825.6044,1282.9304,-0.05377197265625,0.178955078125,0.98956298828125,2.930908203125,-5.555267333984375,-0.657958984375,481098.9010989011,8.328087912087911E7,3.3169230769230768E7,63.76082,1,1.0,1.0,1.0,1.0,65.00
2025-07-08 15:35:12.320,0.0,0.3081309,0.8998395,0.9411661,0.0,0.08744718,0.7785315,0.4858013,0.0,0.38981953,0.70522106,0.7970776,0.0,0.1619202,0.1672548,0.69072384,0.0,-0.3427951,-0.42321628,0.4362942,839.707,828.022,784.10254,859.0476,1124.1758,-0.05377197265625,0.178955078125,0.98956298828125,2.930908203125,-5.555267333984375,-0.657958984375,481098.9010989011,8.328087912087911E7,3.3169230769230768E7,63.76082,1,1.0,1.0,1.0,1.0,65.00
2025-07-08 15:35:12.320,0.0,0.3081309,0.8998395,0.9411661,0.0,0.08744718,0.7785315,0.4858013,0.0,0.38981953,0.70522106,0.7970776,0.0,0.1619202,0.1672548,0.69072384,0.0,-0.3427951,-0.42321628,0.4362942,862.27106,830.84247,781.28204,870.32965,726.08057,-0.05377197265625,0.178955078125,0.98956298828125,2.930908203125,-5.555267333984375,-0.657958984375,481098.9010989011,8.328087912087911E7,3.3169230769230768E7,63.76082,1,1.0,1.0,1.0,1.0,65.00
2025-07-08 15:35:12.320,0.0,0.3081309,0.8998395,0.9411661,0.0,0.08744718,0.7785315,0.4858013,0.0,0.38981953,0.70522106,0.7970776,0.0,0.1619202,0.1672548,0.69072384,0.0,-0.3427951,-0.42321628,0.4362942,829.2308,830.4396,784.90845,851.39197,654.35895,-0.05377197265625,0.178955078125,0.98956298828125,2.930908203125,-5.555267333984375,-0.657958984375,481098.9010989011,8.328087912087911E7,3.3169230769230768E7,63.76082,1,1.0,1.0,1.0,1.0,65.00
2025-07-08 15:35:12.320,0.0,0.3081309,0.8998395,0.9411661,0.0,0.08744718,0.7785315,0.4858013,0.0,0.38981953,0.70522106,0.7970776,0.0,0.1619202,0.1672548,0.69072384,0.0,-0.3427951,-0.42321628,0.4362942,793.36993,828.8278,784.5055,830.4396,861.4652,-0.05377197265625,0.178955078125,0.98956298828125,2.930908203125,-5.555267333984375,-0.657958984375,481098.9010989011,8.328087912087911E7,3.3169230769230768E7,63.76082,1,1.0,1.0,1.0,1.0,65.00
2025-07-08 15:35:12.321,0.0,0.3081309,0.8998395,0.9411661,0.0,0.08744718,0.7785315,0.4858013,0.0,0.38981953,0.70522106,0.7970776,0.0,0.1619202,0.1672548,0.69072384,0.0,-0.3427951,-0.42321628,0.4362942,801.4286,821.978,776.4469,826.0073,748.24176,-0.05377197265625,0.178955078125,0.98956298828125,2.930908203125,-5.555267333984375,-0.657958984375,481098.9010989011,8.328087912087911E7,3.3169230769230768E7,63.76082,1,1.0,1.0,1.0,1.0,65.00
2025-07-08 15:35:12.321,0.0,0.3081309,0.8998395,0.9411661,0.0,0.08744718,0.7785315,0.4858013,0.0,0.38981953,0.70522106,0.7970776,0.0,0.1619202,0.1672548,0.69072384,0.0,-0.3427951,-0.42321628,0.4362942,836.8865,822.381,774.43225,850.989,548.7912,-0.05377197265625,0.178955078125,0.98956298828125,2.930908203125,-5.555267333984375,-0.657958984375,481098.9010989011,8.328087912087911E7,3.3169230769230768E7,63.76082,1,1.0,1.0,1.0,1.0,65.00
2025-07-08 15:35:12.321,0.0,0.3081309,0.8998395,0.9411661,0.0,0.08744718,0.7785315,0.4858013,0.0,0.38981953,0.70522106,0.7970776,0.0,0.1619202,0.1672548,0.69072384,0.0,-0.3427951,-0.42321628,0.4362942,832.4542,830.0366,777.6557,851.39197,550.40295,-0.05377197265625,0.178955078125,0.98956298828125,2.930908203125,-5.555267333984375,-0.657958984375,481098.9010989011,8.328087912087911E7,3.3169230769230768E7,63.76082,1,1.0,1.0,1.0,1.0,65.00
2025-07-08 15:35:12.377,0.0,0.3081309,0.8998395,0.9411661,0.0,0.08744718,0.7785315,0.4858013,0.0,0.38981953,0.70522106,0.7970776,0.0,0.1619202,0.1672548,0.69072384,0.0,-0.3427951,-0.42321628,0.4362942,788.93774,828.4249,779.2674,811.9048,502.85715,-0.0478515625,0.1864013671875,0.99603271484375,2.43743896484375,-4.254302978515625,-0.55328369140625,481098.9010989011,8.328087912087911E7,3.3169230769230768E7,63.76082,1,1.0,1.0,1.0,1.0,65.00
2025-07-08 15:35:12.377,0.0,0.3081309,0.8998395,0.9411661,0.0,0.08744718,0.7785315,0.4858013,0.0,0.38981953,0.70522106,0.7970776,0.0,0.1619202,0.1672548,0.69072384,0.0,-0.3427951,-0.42321628,0.4362942,794.9817,819.15753,777.25275,819.9634,576.1905,-0.0478515625,0.1864013671875,0.99603271484375,2.43743896484375,-4.254302978515625,-0.55328369140625,481098.9010989011,8.328087912087911E7,3.3169230769230768E7,63.76082,1,1.0,1.0,1.0,1.0,65.00
2025-07-08 15:35:12.377,0.0,0.3081309,0.8998395,0.9411661,0.0,0.08744718,0.7785315,0.4858013,0.0,0.38981953,0.70522106,0.7970776,0.0,0.1619202,0.1672548,0.69072384,0.0,-0.3427951,-0.42321628,0.4362942,835.6777,816.7399,771.2088,861.4652,680.54944,-0.0478515625,0.1864013671875,0.99603271484375,2.43743896484375,-4.254302978515625,-0.55328369140625,481098.9010989011,8.328087912087911E7,3.3169230769230768E7,63.76082,1,1.0,1.0,1.0,1.0,65.00
2025-07-08 15:35:12.378,0.0,0.3081309,0.8998395,0.9411661,0.0,0.08744718,0.7785315,0.4858013,0.0,0.38981953,0.70522106,0.7970776,0.0,0.1619202,0.1672548,0.69072384,0.0,-0.3427951,-0.42321628,0.4362942,834.0659,816.7399,769.19415,871.13556,788.1319,-0.0478515625,0.1864013671875,0.99603271484375,2.43743896484375,-4.254302978515625,-0.55328369140625,481098.9010989011,8.328087912087911E7,3.3169230769230768E7,63.76082,1,1.0,1.0,1.0,1.0,65.00
2025-07-08 15:35:12.378,0.0,0.3081309,0.8998395,0.9411661,0.0,0.08744718,0.7785315,0.4858013,0.0,0.38981953,0.70522106,0.7970776,0.0,0.1619202,0.1672548,0.69072384,0.0,-0.3427951,-0.42321628,0.4362942,783.2967,815.5311,771.2088,822.381,859.85345,-0.0478515625,0.1864013671875,0.99603271484375,2.43743896484375,-4.254302978515625,-0.55328369140625,481098.9010989011,8.328087912087911E7,3.3169230769230768E7,63.76082,1,1.0,1.0,1.0,1.0,65.00
2025-07-08 15:35:12.378,0.0,0.31402686,0.89833206,0.6259443,0.0,0.079754464,0.7799297,0.45553145,0.0,0.45656687,0.70522106,0.42311305,0.0,0.17220238,0.13901658,0.6615494,0.0,-0.34331638,-0.42364052,0.48019323,770.40295,815.9341,771.6117,801.02563,752.27106,-0.0478515625,0.1864013671875,0.99603271484375,2.43743896484375,-4.254302978515625,-0.55328369140625,481098.9010989011,8.328087912087911E7,3.3169230769230768E7,63.76082,1,1.0,1.0,1.0,1.0,65.00
2025-07-08 15:35:12.380,0.0,0.31402686,0.89833206,0.6259443,0.0,0.079754464,0.7799297,0.45553145,0.0,0.45656687,0.70522106,0.42311305,0.0,0.17220238,0.13901658,0.6615494,0.0,-0.34331638,-0.42364052,0.48019323,808.68134,817.1429,772.4176,840.5128,842.1245,-0.0478515625,0.1864013671875,0.99603271484375,2.43743896484375,-4.254302978515625,-0.55328369140625,481098.9010989011,8.328087912087911E7,3.3169230769230768E7,63.76082,1,1.0,1.0,1.0,1.0,65.00
2025-07-08 15:35:12.380,0.0,0.31402686,0.89833206,0.6259443,0.0,0.079754464,0.7799297,0.45553145,0.0,0.45656687,0.70522106,0.42311305,0.0,0.17220238,0.13901658,0.6615494,0.0,-0.34331638,-0.42364052,0.48019323,825.6044,820.3663,774.83514,857.03296,1153.1868,-0.0478515625,0.1864013671875,0.99603271484375,2.43743896484375,-4.254302978515625,-0.55328369140625,481098.9010989011,8.328087912087911E7,3.3169230769230768E7,63.76082,1,1.0,1.0,1.0,1.0,65.00
2025-07-08 15:35:12.381,0.0,0.31402686,0.89833206,0.6259443,0.0,0.079754464,0.7799297,0.45553145,0.0,0.45656687,0.70522106,0.42311305,0.0,0.17220238,0.13901658,0.6615494,0.0,-0.34331638,-0.42364052,0.48019323,792.96704,819.15753,773.6264,847.76556,1219.2675,-0.0478515625,0.1864013671875,0.99603271484375,2.43743896484375,-4.254302978515625,-0.55328369140625,481098.9010989011,8.328087912087911E7,3.3169230769230768E7,63.76082,1,1.0,1.0,1.0,1.0,65.00
2025-07-08 15:35:12.381,0.0,0.31402686,0.89833206,0.6259443,0.0,0.079754464,0.7799297,0.45553145,0.0,0.45656687,0.70522106,0.42311305,0.0,0.17220238,0.13901658,0.6615494,0.0,-0.34331638,-0.42364052,0.48019323,751.8681,812.71063,772.8205,807.0696,768.3883,-0.0478515625,0.1864013671875,0.99603271484375,2.43743896484375,-4.254302978515625,-0.55328369140625,481098.9010989011,8.328087912087911E7,3.3169230769230768E7,63.76082,1,1.0,1.0,1.0,1.0,65.00
2025-07-08 15:35:12.381,0.0,0.31402686,0.89833206,0.6259443,0.0,0.079754464,0.7799297,0.45553145,0.0,0.45656687,0.70522106,0.42311305,0.0,0.17220238,0.13901658,0.6615494,0.0,-0.34331638,-0.42364052,0.48019323,791.75824,813.91943,777.25275,834.0659,515.7509,-0.0478515625,0.1864013671875,0.99603271484375,2.43743896484375,-4.254302978515625,-0.55328369140625,481098.9010989011,8.328087912087911E7,3.3169230769230768E7,63.76082,1,1.0,1.0,1.0,1.0,65.00
2025-07-08 15:35:12.381,0.0,0.31402686,0.89833206,0.6259443,0.0,0.079754464,0.7799297,0.45553145,0.0,0.45656687,0.70522106,0.42311305,0.0,0.17220238,0.13901658,0.6615494,0.0,-0.34331638,-0.42364052,0.48019323,824.7985,815.9341,776.8498,882.8205,638.24176,-0.0478515625,0.1864013671875,0.99603271484375,2.43743896484375,-4.254302978515625,-0.55328369140625,481098.9010989011,8.328087912087911E7,3.3169230769230768E7,63.76082,1,1.0,1.0,1.0,1.0,65.00
2025-07-08 15:35:12.409,0.0,0.31402686,0.89833206,0.6259443,0.0,0.079754464,0.7799297,0.45553145,0.0,0.45656687,0.70522106,0.42311305,0.0,0.17220238,0.13901658,0.6615494,0.0,-0.34331638,-0.42364052,0.48019323,799.011,818.7546,778.46155,859.45056,720.84247,-0.06072998046875,0.17999267578125,0.98919677734375,2.400054931640625,-4.179534912109375,0.43365478515625,480293.0402930403,8.330666666666667E7,3.3155531135531135E7,63.68347,1,1.0,1.0,1.0,1.0,65.00
2025-07-08 15:35:12.409,0.0,0.31402686,0.89833206,0.6259443,0.0,0.079754464,0.7799297,0.45553145,0.0,0.45656687,0.70522106,0.42311305,0.0,0.17220238,0.13901658,0.6615494,0.0,-0.34331638,-0.42364052,0.48019323,768.7912,821.978,782.49084,818.7546,684.17584,-0.06072998046875,0.17999267578125,0.98919677734375,2.400054931640625,-4.179534912109375,0.43365478515625,480293.0402930403,8.330666666666667E7,3.3155531135531135E7,63.68347,1,1.0,1.0,1.0,1.0,65.00
2025-07-08 15:35:12.409,0.0,0.31402686,0.89833206,0.6259443,0.0,0.079754464,0.7799297,0.45553145,0.0,0.45656687,0.70522106,0.42311305,0.0,0.17220238,0.13901658,0.6615494,0.0,-0.34331638,-0.42364052,0.48019323,801.02563,820.7692,786.52014,838.49817,1151.5751,-0.06072998046875,0.17999267578125,0.98919677734375,2.400054931640625,-4.179534912109375,0.43365478515625,480293.0402930403,8.330666666666667E7,3.3155531135531135E7,63.68347,1,1.0,1.0,1.0,1.0,65.00
2025-07-08 15:35:12.410,0.0,0.31402686,0.89833206,0.6259443,0.0,0.079754464,0.7799297,0.45553145,0.0,0.45656687,0.70522106,0.42311305,0.0,0.17220238,0.13901658,0.6615494,0.0,-0.34331638,-0.42364052,0.48019323,845.34796,822.7839,786.1172,886.4469,1440.4762,-0.06072998046875,0.17999267578125,0.98919677734375,2.400054931640625,-4.179534912109375,0.43365478515625,480293.0402930403,8.330666666666667E7,3.3155531135531135E7,63.68347,1,1.0,1.0,1.0,1.0,65.00
2025-07-08 15:35:12.410,0.0,0.31402686,0.89833206,0.6259443,0.0,0.079754464,0.7799297,0.45553145,0.0,0.45656687,0.70522106,0.42311305,0.0,0.17220238,0.13901658,0.6615494,0.0,-0.34331638,-0.42364052,0.48019323,831.2454,824.3956,783.69965,882.01465,1288.9744,-0.06072998046875,0.17999267578125,0.98919677734375,2.400054931640625,-4.179534912109375,0.43365478515625,480293.0402930403,8.330666666666667E7,3.3155531135531135E7,63.68347,1,1.0,1.0,1.0,1.0,65.00
2025-07-08 15:35:12.410,0.0,0.31402686,0.89833206,0.6259443,0.0,0.079754464,0.7799297,0.45553145,0.0,0.45656687,0.70522106,0.42311305,0.0,0.17220238,0.13901658,0.6615494,0.0,-0.34331638,-0.42364052,0.48019323,790.9524,826.4103,784.5055,831.2454,1466.2638,-0.06072998046875,0.17999267578125,0.98919677734375,2.400054931640625,-4.179534912109375,0.43365478515625,480293.0402930403,8.330666666666667E7,3.3155531135531135E7,63.68347,1,1.0,1.0,1.0,1.0,65.00
2025-07-08 15:35:12.410,0.0,0.31402686,0.89833206,0.6259443,0.0,0.079754464,0.7799297,0.45553145,0.0,0.45656687,0.70522106,0.42311305,0.0,0.17220238,0.13901658,0.6615494,0.0,-0.34331638,-0.42364052,0.48019323,801.4286,828.022,783.2967,842.1245,1588.3517,-0.06072998046875,0.17999267578125,0.98919677734375,2.400054931640625,-4.179534912109375,0.43365478515625,480293.0402930403,8.330666666666667E7,3.3155531135531135E7,63.68347,1,1.0,1.0,1.0,1.0,65.00
2025-07-08 15:35:12.411,0.0,0.31402686,0.89833206,0.6259443,0.0,0.079754464,0.7799297,0.45553145,0.0,0.45656687,0.70522106,0.42311305,0.0,0.17220238,0.13901658,0.6615494,0.0,-0.34331638,-0.42364052,0.48019323,834.4689,826.4103,778.46155,881.2088,6.4468865,-0.06072998046875,0.17999267578125,0.98919677734375,2.400054931640625,-4.179534912109375,0.43365478515625,480293.0402930403,8.330666666666667E7,3.3155531135531135E7,63.68347,1,1.0,1.0,1.0,1.0,65.00
2025-07-08 15:35:12.411,0.0,0.31402686,0.89833206,0.6259443,0.0,0.079754464,0.7799297,0.45553145,0.0,0.45656687,0.70522106,0.42311305,0.0,0.17220238,0.13901658,0.6615494,0.0,-0.34331638,-0.42364052,0.48019323,828.022,821.5751,768.3883,859.0476,1415.4945,-0.06072998046875,0.17999267578125,0.98919677734375,2.400054931640625,-4.179534912109375,0.43365478515625,480293.0402930403,8.330666666666667E7,3.3155531135531135E7,63.68347,1,1.0,1.0,1.0,1.0,65.00
2025-07-08 15:35:12.411,0.0,0.31402686,0.89833206,0.6259443,0.0,0.079754464,0.7799297,0.45553145,0.0,0.45656687,0.70522106,0.42311305,0.0,0.17220238,0.13901658,0.6615494,0.0,-0.34331638,-0.42364052,0.48019323,810.696,829.6337,764.35895,826.4103,637.4359,-0.06072998046875,0.17999267578125,0.98919677734375,2.400054931640625,-4.179534912109375,0.43365478515625,480293.0402930403,8.330666666666667E7,3.3155531135531135E7,63.68347,1,1.0,1.0,1.0,1.0,65.00
2025-07-08 15:35:12.411,0.0,0.31402686,0.89833206,0.6259443,0.0,0.079754464,0.7799297,0.45553145,0.0,0.45656687,0.70522106,0.42311305,0.0,0.17220238,0.13901658,0.6615494,0.0,-0.34331638,-0.42364052,0.48019323,804.65204,833.2601,772.01465,814.7253,372.30768,-0.06072998046875,0.17999267578125,0.98919677734375,2.400054931640625,-4.179534912109375,0.43365478515625,480293.0402930403,8.330666666666667E7,3.3155531135531135E7,63.68347,1,1.0,1.0,1.0,1.0,65.00
2025-07-08 15:35:12.411,0.0,0.31402686,0.89833206,0.6259443,0.0,0.079754464,0.7799297,0.45553145,0.0,0.45656687,0.70522106,0.42311305,0.0,0.17220238,0.13901658,0.6615494,0.0,-0.34331638,-0.42364052,0.48019323,828.8278,826.0073,782.49084,851.79486,479.08426,-0.06072998046875,0.17999267578125,0.98919677734375,2.400054931640625,-4.179534912109375,0.43365478515625,480293.0402930403,8.330666666666667E7,3.3155531135531135E7,63.68347,1,1.0,1.0,1.0,1.0,65.00
2025-07-08 15:35:12.469,0.0,0.31402686,0.89833206,0.6259443,0.0,0.079754464,0.7799297,0.45553145,0.0,0.45656687,0.70522106,0.42311305,0.0,0.17220238,0.13901658,0.6615494,0.0,-0.34331638,-0.42364052,0.48019323,829.2308,819.15753,784.5055,859.45056,738.5714,-0.0516357421875,0.1798095703125,0.985107421875,3.0206298828125,-5.286102294921875,-0.665435791015625,480293.0402930403,8.330666666666667E7,3.3155531135531135E7,63.68347,1,1.0,1.0,1.0,1.0,65.00
2025-07-08 15:35:12.470,0.0,0.31402686,0.89833206,0.6259443,0.0,0.079754464,0.7799297,0.45553145,0.0,0.45656687,0.70522106,0.42311305,0.0,0.17220238,0.13901658,0.6615494,0.0,-0.34331638,-0.42364052,0.48019323,802.23444,819.9634,783.2967,828.022,1170.9158,-0.0516357421875,0.1798095703125,0.985107421875,3.0206298828125,-5.286102294921875,-0.665435791015625,480293.0402930403,8.330666666666667E7,3.3155531135531135E7,63.68347,1,1.0,1.0,1.0,1.0,65.00
2025-07-08 15:35:12.470,0.0,0.31402686,0.89833206,0.6259443,0.0,0.079754464,0.7799297,0.45553145,0.0,0.45656687,0.70522106,0.42311305,0.0,0.17220238,0.13901658,0.6615494,0.0,-0.34331638,-0.42364052,0.48019323,802.6374,824.7985,788.93774,832.0513,1061.7216,-0.0516357421875,0.1798095703125,0.985107421875,3.0206298828125,-5.286102294921875,-0.665435791015625,480293.0402930403,8.330666666666667E7,3.3155531135531135E7,63.68347,1,1.0,1.0,1.0,1.0,65.00
2025-07-08 15:35:12.470,0.0,0.31402686,0.89833206,0.6259443,0.0,0.079754464,0.7799297,0.45553145,0.0,0.45656687,0.70522106,0.42311305,0.0,0.17220238,0.13901658,0.6615494,0.0,-0.34331638,-0.42364052,0.48019323,825.2015,821.5751,787.326,858.24176,693.8461,-0.0516357421875,0.1798095703125,0.985107421875,3.0206298828125,-5.286102294921875,-0.665435791015625,480293.0402930403,8.330666666666667E7,3.3155531135531135E7,63.68347,1,1.0,1.0,1.0,1.0,65.00
