TimeStamp,Delta_TP9,Delta_AF7,Delta_AF8,Delta_TP10,Theta_TP9,Theta_AF7,Theta_AF8,Theta_TP10,Alpha_TP9,Alpha_AF7,Alpha_AF8,Alpha_TP10,Beta_TP9,Beta_AF7,Beta_AF8,Beta_TP10,Gamma_TP9,Gamma_AF7,Gamma_AF8,Gamma_TP10,RAW_TP9,RAW_AF7,RAW_AF8,RAW_TP10,AUX_RIGHT,Accelerometer_X,Accelerometer_Y,Accelerometer_Z,Gyro_X,Gyro_Y,Gyro_Z,HeadBandOn,HSI_TP9,HSI_AF7,HSI_AF8,HSI_TP10,Battery,Elements
2023-09-08 00:25:56.861,0.36446396,0.594612,0.24407044,0.43598023,0.11151908,0.7554577,0.3355751,0.008134004,0.58880687,0.9076214,0.40497294,0.6032895,0.18939303,0.67600715,-0.08794266,0.37377346,-0.12882064,0.3344458,-0.41542578,0.36071837,803.8461,790.9524,808.2784,798.60803,734.94507,0.3255615234375,-0.169921875,0.922119140625,4.9945068359375,-3.043060302734375,-0.37384033203125,1.0,1.0,1.0,1.0,1.0,20.0,
2023-09-08 00:25:56.864,0.35346898,0.594612,0.25359327,0.44181842,0.15212585,0.7554577,0.34128958,0.0271202,0.6352754,0.9076214,0.40497294,0.6057823,0.19971164,0.67600715,-0.07655791,0.37327927,-0.13712901,0.3344458,-0.409843,0.35432267,796.1905,781.28204,802.23444,792.1612,772.4176,0.3255615234375,-0.169921875,0.922119140625,4.9945068359375,-3.043060302734375,-0.37384033203125,1.0,1.0,1.0,1.0,1.0,20.0,
2023-09-08 00:25:56.908,0.35346898,0.594612,0.25359327,0.44181842,0.15212585,0.7554577,0.34128958,0.0271202,0.6352754,0.9076214,0.40497294,0.6057823,0.19971164,0.67600715,-0.07655791,0.37327927,-0.13712901,0.3344458,-0.409843,0.35432267,789.7436,836.8865,800.6227,802.23444,913.8461,0.31597900390625,-0.1689453125,0.92041015625,6.11602783203125,-2.75146484375,-1.6748046875,1.0,1.0,1.0,1.0,1.0,20.0,
2023-09-08 00:25:56.912,0.34265056,0.594612,0.26457408,0.44360173,0.20146449,0.7554577,0.34232432,0.07259682,0.7184741,0.9076214,0.40497294,0.6119106,0.20642032,0.67600715,-0.06915596,0.37809426,-0.14843035,0.3344458,-0.40529415,0.3482561,799.81683,787.72894,796.5934,796.5934,846.9597,0.31597900390625,-0.1689453125,0.92041015625,6.11602783203125,-2.75146484375,-1.6748046875,1.0,1.0,1.0,1.0,1.0,20.0,
2023-09-08 00:25:56.953,0.34265056,0.594612,0.26457408,0.44360173,0.20146449,0.7554577,0.34232432,0.07259682,0.7184741,0.9076214,0.40497294,0.6119106,0.20642032,0.67600715,-0.06915596,0.37809426,-0.14843035,0.3344458,-0.40529415,0.3482561,811.9048,814.3223,803.8461,801.8315,637.8388,0.335205078125,-0.16961669921875,0.91741943359375,6.542205810546875,-3.5888671875,-2.94586181640625,1.0,1.0,1.0,1.0,1.0,20.0,
2023-09-08 00:25:56.988,0.34265056,0.594612,0.26457408,0.44360173,0.20146449,0.7554577,0.34232432,0.07259682,0.7184741,0.9076214,0.40497294,0.6119106,0.20642032,0.67600715,-0.06915596,0.37809426,-0.14843035,0.3344458,-0.40529415,0.3482561,795.38464,776.4469,803.8461,789.34064,651.53845,0.36456298828125,-0.174072265625,0.93353271484375,4.687957763671875,-5.57769775390625,0.88226318359375,1.0,1.0,1.0,1.0,1.0,20.0,
2023-09-08 00:25:56.995,0.33495936,0.594612,0.27386373,0.44331613,0.24722196,0.7554577,0.3434378,0.1408241,0.7810871,0.9076214,0.40497294,0.6307786,0.21091725,0.67600715,-0.068345845,0.38911188,-0.15420136,0.3344458,-0.40190527,0.34215745,809.0842,721.2454,801.4286,810.696,995.2381,0.36456298828125,-0.174072265625,0.93353271484375,4.687957763671875,-5.57769775390625,0.88226318359375,1.0,1.0,1.0,1.0,1.0,20.0,
2023-09-08 00:25:57.036,0.33495936,0.594612,0.27386373,0.44331613,0.24722196,0.7554577,0.3434378,0.1408241,0.7810871,0.9076214,0.40497294,0.6307786,0.21091725,0.67600715,-0.068345845,0.38911188,-0.15420136,0.3344458,-0.40190527,0.34215745,799.011,736.1539,804.2491,810.293,806.26373,0.36016845703125,-0.171630859375,0.92919921875,4.77020263671875,-4.358978271484375,2.953338623046875,1.0,1.0,1.0,1.0,1.0,20.0,
2023-09-08 00:25:57.103,0.33495936,0.594612,0.27386373,0.44331613,0.24722196,0.7554577,0.3434378,0.1408241,0.7810871,0.9076214,0.40497294,0.6307786,0.21091725,0.67600715,-0.068345845,0.38911188,-0.15420136,0.3344458,-0.40190527,0.34215745,797.3993,710.3663,792.96704,775.2381,755.09155,0.34320068359375,-0.1531982421875,0.91693115234375,5.630035400390625,-1.92901611328125,-0.142059326171875,1.0,1.0,1.0,1.0,1.0,20.0,
2023-09-08 00:25:57.107,0.33559877,0.594612,0.28034285,0.44163817,0.28258824,0.7554577,0.34551612,0.21520756,0.80625784,0.9076214,0.40497294,0.64626503,0.21602154,0.67600715,-0.07360782,0.4024522,-0.15417255,0.3344458,-0.39410803,0.33428964,806.6667,715.6044,795.78754,790.9524,740.58606,0.34320068359375,-0.1531982421875,0.91693115234375,5.630035400390625,-1.92901611328125,-0.142059326171875,1.0,1.0,1.0,1.0,1.0,20.0,
2023-09-08 00:25:57.208,0.33559877,0.594612,0.28034285,0.44163817,0.28258824,0.7554577,0.34551612,0.21520756,0.80625784,0.9076214,0.40497294,0.64626503,0.21602154,0.67600715,-0.07360782,0.4024522,-0.15417255,0.3344458,-0.39410803,0.33428964,798.20514,815.5311,796.1905,813.5165,919.89014,0.32916259765625,-0.1478271484375,0.9066162109375,5.390777587890625,-0.5084228515625,-2.7215576171875,1.0,1.0,1.0,1.0,1.0,20.0,
2023-09-08 00:25:57.256,0.33559877,0.594612,0.28034285,0.44163817,0.28258824,0.7554577,0.34551612,0.21520756,0.80625784,0.9076214,0.40497294,0.64626503,0.21602154,0.67600715,-0.07360782,0.4024522,-0.15417255,0.3344458,-0.39410803,0.33428964,805.05493,857.8388,788.5348,787.72894,667.25275,0.31304931640625,-0.168701171875,0.9156494140625,4.523468017578125,-1.614990234375,-3.267364501953125,1.0,1.0,1.0,1.0,1.0,20.0,
2023-09-08 00:25:57.256,0.33494008,0.594612,0.28576386,0.43687248,0.30852413,0.7554577,0.34718883,0.2800081,0.8213832,0.9076214,0.40497294,0.6655697,0.22236083,0.67600715,-0.07988122,0.4124633,-0.15706839,0.3344458,-0.3770943,0.32153383,805.4579,836.8865,790.14655,793.36993,644.68866,0.31304931640625,-0.168701171875,0.9156494140625,4.523468017578125,-1.614990234375,-3.267364501953125,1.0,1.0,1.0,1.0,1.0,20.0,
2023-09-08 00:25:57.305,0.33494008,0.594612,0.28576386,0.43687248,0.30852413,0.7554577,0.34718883,0.2800081,0.8213832,0.9076214,0.40497294,0.6655697,0.22236083,0.67600715,-0.07988122,0.4124633,-0.15706839,0.3344458,-0.3770943,0.32153383,801.02563,861.8681,798.20514,796.1905,656.3736,0.3336181640625,-0.19085693359375,0.9420166015625,4.1571044921875,-2.714080810546875,-4.3365478515625,1.0,1.0,1.0,1.0,1.0,20.0,
2023-09-08 00:25:57.360,0.33494008,0.594612,0.28576386,0.43687248,0.30852413,0.7554577,0.34718883,0.2800081,0.8213832,0.9076214,0.40497294,0.6655697,0.22236083,0.67600715,-0.07988122,0.4124633,-0.15706839,0.3344458,-0.3770943,0.32153383,796.5934,835.6777,803.8461,799.41394,707.9487,0.38525390625,-0.17095947265625,0.937744140625,5.15899658203125,-5.271148681640625,-0.142059326171875,1.0,1.0,1.0,1.0,1.0,20.0,
2023-09-08 00:25:57.362,0.33390224,0.594612,0.29250252,0.4337582,0.3251868,0.7554577,0.34770548,0.3254582,0.8322612,0.9076214,0.40497294,0.6828586,0.2289748,0.67600715,-0.08031281,0.4159581,-0.16844685,0.3344458,-0.35356158,0.3034986,790.9524,862.674,796.99634,791.75824,709.5604,0.38525390625,-0.17095947265625,0.937744140625,5.15899658203125,-5.271148681640625,-0.142059326171875,1.0,1.0,1.0,1.0,1.0,20.0,
2023-09-08 00:25:57.428,0.33390224,0.594612,0.29250252,0.4337582,0.3251868,0.7554577,0.34770548,0.3254582,0.8322612,0.9076214,0.40497294,0.6828586,0.2289748,0.67600715,-0.08031281,0.4159581,-0.16844685,0.3344458,-0.35356158,0.3034986,800.2198,770.0,805.4579,794.9817,683.36993,0.3402099609375,-0.155029296875,0.92694091796875,2.295379638671875,-1.428070068359375,5.600128173828125,1.0,1.0,1.0,1.0,1.0,20.0,
2023-09-08 00:25:57.438,0.33166933,0.594612,0.29291895,0.42978927,0.33252624,0.7554577,0.34695008,0.35146406,0.83640444,0.9076214,0.40497294,0.6832854,0.23582897,0.67600715,-0.071612224,0.41377965,-0.18281549,0.3344458,-0.33182415,0.287784,796.5934,784.90845,791.75824,804.65204,968.24176,0.3402099609375,-0.155029296875,0.92694091796875,2.295379638671875,-1.428070068359375,5.600128173828125,1.0,1.0,1.0,1.0,1.0,20.0,
2023-09-08 00:25:57.493,0.33166933,0.594612,0.29291895,0.42978927,0.33252624,0.7554577,0.34695008,0.35146406,0.83640444,0.9076214,0.40497294,0.6832854,0.23582897,0.67600715,-0.071612224,0.41377965,-0.18281549,0.3344458,-0.33182415,0.287784,792.5641,791.3553,799.41394,811.0989,991.6117,0.26702880859375,-0.1788330078125,0.89361572265625,1.801910400390625,1.60003662109375,1.188812255859375,1.0,1.0,1.0,1.0,1.0,20.0,
2023-09-08 00:25:57.554,0.33166933,0.594612,0.29291895,0.42978927,0.33252624,0.7554577,0.34695008,0.35146406,0.83640444,0.9076214,0.40497294,0.6832854,0.23582897,0.67600715,-0.071612224,0.41377965,-0.18281549,0.3344458,-0.33182415,0.287784,803.0403,886.4469,797.8022,780.4762,733.3333,0.3046875,-0.19097900390625,0.925537109375,6.519775390625,-4.50103759765625,-8.314208984375,1.0,1.0,1.0,1.0,1.0,20.0,
2023-09-08 00:25:57.559,0.32119232,0.594612,0.27136698,0.42416117,0.3291826,0.7554577,0.34116018,0.3638768,0.8371046,0.9076214,0.40497294,0.6832854,0.2434285,0.67600715,-0.056310758,0.40851405,-0.18943349,0.3344458,-0.31956473,0.2837841,794.9817,828.022,796.5934,813.1135,957.3626,0.3046875,-0.19097900390625,0.925537109375,6.519775390625,-4.50103759765625,-8.314208984375,1.0,1.0,1.0,1.0,1.0,20.0,
2023-09-08 00:25:57.591,0.32119232,0.594612,0.27136698,0.42416117,0.3291826,0.7554577,0.34116018,0.3638768,0.8371046,0.9076214,0.40497294,0.6832854,0.2434285,0.67600715,-0.056310758,0.40851405,-0.18943349,0.3344458,-0.31956473,0.2837841,792.5641,868.315,804.65204,796.1905,809.0842,0.38543701171875,-0.16497802734375,0.93414306640625,9.0020751953125,-8.740386962890625,-4.56085205078125,1.0,1.0,1.0,1.0,1.0,20.0,
2023-09-08 00:25:57.599,0.32119232,0.594612,0.27136698,0.42416117,0.3291826,0.7554577,0.34116018,0.3638768,0.8371046,0.9076214,0.40497294,0.6832854,0.2434285,0.67600715,-0.056310758,0.40851405,-0.18943349,0.3344458,-0.31956473,0.2837841,788.5348,776.8498,800.6227,802.23444,754.2857,0.3665771484375,-0.16387939453125,0.9283447265625,4.62066650390625,-1.8243408203125,1.084136962890625,1.0,1.0,1.0,1.0,1.0,20.0,
2023-09-08 00:25:57.604,0.292462,0.594612,0.22256508,0.41412863,0.3133049,0.7554577,0.32152075,0.36924794,0.8371046,0.9076214,0.40497294,0.6832854,0.250346,0.67600715,-0.039452843,0.40231085,-0.18538836,0.3344458,-0.32152554,0.29007486,791.75824,774.0293,800.2198,810.696,653.5531,0.3665771484375,-0.16387939453125,0.9283447265625,4.62066650390625,-1.8243408203125,1.084136962890625,1.0,1.0,1.0,1.0,1.0,20.0,
2023-09-08 00:25:57.749,0.292462,0.594612,0.22256508,0.41412863,0.3133049,0.7554577,0.32152075,0.36924794,0.8371046,0.9076214,0.40497294,0.6832854,0.250346,0.67600715,-0.039452843,0.40231085,-0.18538836,0.3344458,-0.32152554,0.29007486,785.31134,796.5934,794.9817,798.60803,645.4945,0.32183837890625,-0.172607421875,0.90228271484375,3.46923828125,-3.18511962890625,3.132781982421875,1.0,1.0,1.0,1.0,1.0,20.0,
2023-09-08 00:25:57.758,0.25710455,0.594612,0.16087005,0.39982647,0.28544283,0.7554577,0.27830523,0.37070057,0.8371046,0.9076214,0.40523475,0.68331033,0.2544421,0.67600715,-0.025209451,0.3965236,-0.17765646,0.3344458,-0.33975485,0.29419774,795.78754,869.12085,801.8315,801.02563,699.0842,0.32183837890625,-0.172607421875,0.90228271484375,3.46923828125,-3.18511962890625,3.132781982421875,1.0,1.0,1.0,1.0,1.0,20.0,
2023-09-08 00:25:57.766,0.25710455,0.594612,0.16087005,0.39982647,0.28544283,0.7554577,0.27830523,0.37070057,0.8371046,0.9076214,0.40523475,0.68331033,0.2544421,0.67600715,-0.025209451,0.3965236,-0.17765646,0.3344458,-0.33975485,0.29419774,796.99634,819.5604,800.6227,797.8022,691.02563,0.32421875,-0.17633056640625,0.9200439453125,6.32537841796875,-5.263671875,-0.6280517578125,1.0,1.0,1.0,1.0,1.0,20.0,
2023-09-08 00:25:57.817,0.25710455,0.594612,0.16087005,0.39982647,0.28544283,0.7554577,0.27830523,0.37070057,0.8371046,0.9076214,0.40523475,0.68331033,0.2544421,0.67600715,-0.025209451,0.3965236,-0.17765646,0.3344458,-0.33975485,0.29419774,794.9817,755.09155,794.57874,785.31134,736.9597,0.3575439453125,-0.16204833984375,0.9215087890625,7.40203857421875,-5.091705322265625,-1.6748046875,1.0,1.0,1.0,1.0,1.0,20.0,
2023-09-08 00:25:57.856,0.25710455,0.594612,0.16087005,0.39982647,0.28544283,0.7554577,0.27830523,0.37070057,0.8371046,0.9076214,0.40523475,0.68331033,0.2544421,0.67600715,-0.025209451,0.3965236,-0.17765646,0.3344458,-0.33975485,0.29419774,786.52014,744.21246,796.5934,790.9524,839.707,0.3668212890625,-0.161376953125,0.92926025390625,5.3533935546875,-4.702911376953125,0.889739990234375,1.0,1.0,1.0,1.0,1.0,20.0,
2023-09-08 00:25:57.857,0.22002928,0.594612,0.109982274,0.373088,0.2529269,0.7554577,0.21005276,0.36712223,0.8371046,0.9076214,0.39435843,0.6710585,0.25599983,0.67600715,-0.016932312,0.39255607,-0.17601456,0.3344458,-0.3706361,0.28772265,790.9524,783.2967,798.20514,790.54944,761.53845,0.3668212890625,-0.161376953125,0.92926025390625,5.3533935546875,-4.702911376953125,0.889739990234375,1.0,1.0,1.0,1.0,1.0,20.0,
2023-09-08 00:25:57.894,0.22002928,0.594612,0.109982274,0.373088,0.2529269,0.7554577,0.21005276,0.36712223,0.8371046,0.9076214,0.39435843,0.6710585,0.25599983,0.67600715,-0.016932312,0.39255607,-0.17601456,0.3344458,-0.3706361,0.28772265,786.52014,760.7326,797.3993,790.14655,791.75824,0.3577880859375,-0.16107177734375,0.91778564453125,4.42626953125,-4.044952392578125,2.340240478515625,1.0,1.0,1.0,1.0,1.0,20.0,
2023-09-08 00:25:57.939,0.18299288,0.594612,0.08920892,0.33445147,0.22679691,0.7554577,0.12811162,0.35891855,0.8371046,0.9076214,0.32400846,0.6409069,0.25816536,0.67600715,-0.016290179,0.38984892,-0.18486676,0.3344458,-0.40289712,0.2731781,802.6374,730.9158,791.3553,805.05493,725.2747,0.3577880859375,-0.16107177734375,0.91778564453125,4.42626953125,-4.044952392578125,2.340240478515625,1.0,1.0,1.0,1.0,1.0,20.0,
2023-09-08 00:25:57.984,0.18299288,0.594612,0.08920892,0.33445147,0.22679691,0.7554577,0.12811162,0.35891855,0.8371046,0.9076214,0.32400846,0.6409069,0.25816536,0.67600715,-0.016290179,0.38984892,-0.18486676,0.3344458,-0.40289712,0.2731781,794.57874,782.49084,796.99634,801.8315,935.2015,0.34906005859375,-0.14898681640625,0.90496826171875,5.8917236328125,-2.355194091796875,0.55328369140625,1.0,1.0,1.0,1.0,1.0,20.0,
2023-09-08 00:25:58.033,0.18299288,0.594612,0.08920892,0.33445147,0.22679691,0.7554577,0.12811162,0.35891855,0.8371046,0.9076214,0.32400846,0.6409069,0.25816536,0.67600715,-0.016290179,0.38984892,-0.18486676,0.3344458,-0.40289712,0.2731781,812.71063,872.3443,800.2198,801.8315,727.28937,0.290771484375,-0.14349365234375,0.90826416015625,6.68426513671875,-0.560760498046875,-0.82244873046875,1.0,1.0,1.0,1.0,1.0,20.0,
2023-09-08 00:25:58.036,0.14994155,0.594612,0.087862305,0.2928619,0.21628866,0.7554577,0.050048817,0.3491993,0.83197874,0.9076214,0.24972446,0.63079876,0.2624447,0.67600715,-0.021921553,0.38701928,-0.201278,0.3344458,-0.42330745,0.25848675,804.65204,813.5165,799.011,806.26373,864.2857,0.290771484375,-0.14349365234375,0.90826416015625,6.68426513671875,-0.560760498046875,-0.82244873046875,1.0,1.0,1.0,1.0,1.0,20.0,
2023-09-08 00:25:58.085,0.14994155,0.594612,0.087862305,0.2928619,0.21628866,0.7554577,0.050048817,0.3491993,0.83197874,0.9076214,0.24972446,0.63079876,0.2624447,0.67600715,-0.021921553,0.38701928,-0.201278,0.3344458,-0.42330745,0.25848675,811.9048,867.9121,798.20514,784.10254,631.79486,0.3326416015625,-0.177734375,0.937255859375,4.762725830078125,-4.47113037109375,-7.2674560546875,1.0,1.0,1.0,1.0,1.0,20.0,
2023-09-08 00:25:58.136,0.14994155,0.594612,0.087862305,0.2928619,0.21628866,0.7554577,0.050048817,0.3491993,0.83197874,0.9076214,0.24972446,0.63079876,0.2624447,0.67600715,-0.021921553,0.38701928,-0.201278,0.3344458,-0.42330745,0.25848675,796.99634,822.7839,807.0696,799.81683,764.35895,0.39227294921875,-0.16656494140625,0.93890380859375,6.826324462890625,-6.7889404296875,-1.637420654296875,1.0,1.0,1.0,1.0,1.0,20.0,
2023-09-08 00:25:58.140,0.14249851,0.594612,0.085753225,0.26473573,0.2189876,0.7554577,-0.011717894,0.34087083,0.8003661,0.9076214,0.23409158,0.6412939,0.2645362,0.67600715,-0.029625123,0.38276055,-0.2191718,0.3344458,-0.43024495,0.24933064,787.326,823.9927,807.0696,780.4762,718.8278,0.39227294921875,-0.16656494140625,0.93890380859375,6.826324462890625,-6.7889404296875,-1.637420654296875,1.0,1.0,1.0,1.0,1.0,20.0,
2023-09-08 00:25:58.254,0.14249851,0.594612,0.085753225,0.26473573,0.2189876,0.7554577,-0.011717894,0.34087083,0.8003661,0.9076214,0.23409158,0.6412939,0.2645362,0.67600715,-0.029625123,0.38276055,-0.2191718,0.3344458,-0.43024495,0.24933064,791.75824,762.3443,800.6227,790.54944,753.0769,0.36260986328125,-0.14373779296875,0.9322509765625,4.306640625,-1.368255615234375,3.102874755859375,1.0,1.0,1.0,1.0,1.0,20.0,
2023-09-08 00:25:58.259,0.18089385,0.594612,0.08496591,0.25856623,0.22063728,0.7554577,-0.05628403,0.33491445,0.7669544,0.9076214,0.23273318,0.6568347,0.2600434,0.67600715,-0.034931567,0.37601367,-0.23170508,0.3344458,-0.433234,0.24578138,792.96704,823.5897,795.38464,790.9524,901.75824,0.36260986328125,-0.14373779296875,0.9322509765625,4.306640625,-1.368255615234375,3.102874755859375,1.0,1.0,1.0,1.0,1.0,20.0,
2023-09-08 00:25:58.266,0.18089385,0.594612,0.08496591,0.25856623,0.22063728,0.7554577,-0.05628403,0.33491445,0.7669544,0.9076214,0.23273318,0.6568347,0.2600434,0.67600715,-0.034931567,0.37601367,-0.23170508,0.3344458,-0.433234,0.24578138,794.57874,820.3663,801.4286,801.8315,749.85345,0.28155517578125,-0.15625,0.888427734375,3.96270751953125,1.084136962890625,1.831817626953125,1.0,1.0,1.0,1.0,1.0,20.0,
2023-09-08 00:25:58.307,0.18089385,0.594612,0.08496591,0.25856623,0.22063728,0.7554577,-0.05628403,0.33491445,0.7669544,0.9076214,0.23273318,0.6568347,0.2600434,0.67600715,-0.034931567,0.37601367,-0.23170508,0.3344458,-0.433234,0.24578138,803.44324,885.64105,804.2491,806.6667,894.90845,0.321533203125,-0.169921875,0.9254150390625,6.153411865234375,-5.263671875,-6.871185302734375,1.0,1.0,1.0,1.0,1.0,20.0,
2023-09-08 00:25:58.313,0.27174547,0.594612,0.10028698,0.27424532,0.20883584,0.7554577,-0.085382916,0.33394322,0.75303537,0.9076214,0.22600926,0.6741373,0.2506464,0.67600715,-0.037004955,0.3643074,-0.23558395,0.3344458,-0.43844348,0.24443117,807.0696,859.85345,801.8315,786.9231,740.58606,0.321533203125,-0.169921875,0.9254150390625,6.153411865234375,-5.263671875,-6.871185302734375,1.0,1.0,1.0,1.0,1.0,20.0,
2023-09-08 00:25:58.362,0.27174547,0.594612,0.10028698,0.27424532,0.20883584,0.7554577,-0.085382916,0.33394322,0.75303537,0.9076214,0.22600926,0.6741373,0.2506464,0.67600715,-0.037004955,0.3643074,-0.23558395,0.3344458,-0.43844348,0.24443117,807.47253,880.40295,803.8461,789.7436,640.2564,0.39630126953125,-0.1485595703125,0.92340087890625,7.94036865234375,-9.151611328125,-3.357086181640625,1.0,1.0,1.0,1.0,1.0,20.0,
2023-09-08 00:25:58.432,0.27174547,0.594612,0.10028698,0.27424532,0.20883584,0.7554577,-0.085382916,0.33394322,0.75303537,0.9076214,0.22600926,0.6741373,0.2506464,0.67600715,-0.037004955,0.3643074,-0.23558395,0.3344458,-0.43844348,0.24443117,792.1612,800.2198,792.96704,798.60803,685.78754,0.38250732421875,-0.14849853515625,0.92864990234375,4.65057373046875,-1.891632080078125,-0.73272705078125,1.0,1.0,1.0,1.0,1.0,20.0,
2023-09-08 00:25:58.473,0.37746358,0.594612,0.12494308,0.29542452,0.18172428,0.7554577,-0.10127612,0.33574936,0.7450552,0.9076214,0.21410519,0.68738693,0.24210711,0.67600715,-0.039125126,0.34410682,-0.23213331,0.3344458,-0.4438176,0.2403348,797.8022,716.8132,788.5348,788.93774,734.5421,0.38250732421875,-0.14849853515625,0.92864990234375,4.65057373046875,-1.891632080078125,-0.73272705078125,1.0,1.0,1.0,1.0,1.0,20.0,
2023-09-08 00:25:58.520,0.37746358,0.594612,0.12494308,0.29542452,0.18172428,0.7554577,-0.10127612,0.33574936,0.7450552,0.9076214,0.21410519,0.68738693,0.24210711,0.67600715,-0.039125126,0.34410682,-0.23213331,0.3344458,-0.4438176,0.2403348,790.54944,779.67035,792.96704,792.5641,655.56775,0.33746337890625,-0.16558837890625,0.90679931640625,3.536529541015625,-2.093505859375,1.4056396484375,1.0,1.0,1.0,1.0,1.0,20.0,
2023-09-08 00:25:58.557,0.37746358,0.594612,0.12494308,0.29542452,0.18172428,0.7554577,-0.10127612,0.33574936,0.7450552,0.9076214,0.21410519,0.68738693,0.24210711,0.67600715,-0.039125126,0.34410682,-0.23213331,0.3344458,-0.4438176,0.2403348,796.1905,820.7692,801.8315,801.4286,719.2308,0.3455810546875,-0.16046142578125,0.9180908203125,5.360870361328125,-4.164581298828125,-0.127105712890625,1.0,1.0,1.0,1.0,1.0,20.0,
2023-09-08 00:25:58.560,0.46559995,0.594612,0.14729598,0.305284,0.14830352,0.7554577,-0.10021919,0.33079764,0.7248365,0.9076214,0.19542962,0.68738693,0.23812939,0.67600715,-0.04426393,0.3161023,-0.22393072,0.3344458,-0.44663945,0.22945793,790.54944,830.84247,798.20514,784.10254,620.5128,0.3455810546875,-0.16046142578125,0.9180908203125,5.360870361328125,-4.164581298828125,-0.127105712890625,1.0,1.0,1.0,1.0,1.0,20.0,
2023-09-08 00:25:58.601,0.46559995,0.594612,0.14729598,0.305284,0.14830352,0.7554577,-0.10021919,0.33079764,0.7248365,0.9076214,0.19542962,0.68738693,0.23812939,0.67600715,-0.04426393,0.3161023,-0.22393072,0.3344458,-0.44663945,0.22945793,801.02563,747.4359,785.31134,811.50183,988.7912,0.36126708984375,-0.14813232421875,0.924560546875,5.5328369140625,-3.760833740234375,-0.530853271484375,1.0,1.0,1.0,1.0,1.0,20.0,
2023-09-08 00:25:58.634,0.46559995,0.594612,0.14729598,0.305284,0.14830352,0.7554577,-0.10021919,0.33079764,0.7248365,0.9076214,0.19542962,0.68738693,0.23812939,0.67600715,-0.04426393,0.3161023,-0.22393072,0.3344458,-0.44663945,0.22945793,798.60803,738.5714,793.7729,806.26373,1141.5018,0.3575439453125,-0.151611328125,0.92547607421875,4.164581298828125,-3.237457275390625,-0.381317138671875,1.0,1.0,1.0,1.0,1.0,20.0,
2023-09-08 00:25:58.639,0.524473,0.594612,0.16652058,0.31152886,0.12722005,0.7554577,-0.07158264,0.3076324,0.65161425,0.9076214,0.18880196,0.68738693,0.23657525,0.67600715,-0.054215886,0.28885937,-0.2120198,0.3344458,-0.45030248,0.2125815,794.9817,817.5458,796.1905,805.4579,680.54944,0.3575439453125,-0.151611328125,0.92547607421875,4.164581298828125,-3.237457275390625,-0.381317138671875,1.0,1.0,1.0,1.0,1.0,20.0,
2023-09-08 00:25:58.765,0.524473,0.594612,0.16652058,0.31152886,0.12722005,0.7554577,-0.07158264,0.3076324,0.65161425,0.9076214,0.18880196,0.68738693,0.23657525,0.67600715,-0.054215886,0.28885937,-0.2120198,0.3344458,-0.45030248,0.2125815,804.65204,822.7839,790.9524,788.93774,703.91943,0.343017578125,-0.154541015625,0.9091796875,5.001983642578125,-1.734619140625,-0.889739990234375,1.0,1.0,1.0,1.0,1.0,20.0,
2023-09-08 00:25:58.770,0.56289107,0.594612,0.18728791,0.32007298,0.12586695,0.7554577,-0.013496722,0.26419407,0.53297687,0.9076214,0.18880884,0.68738693,0.23421845,0.67600715,-0.068741895,0.271457,-0.19565149,0.3344458,-0.4615626,0.19540274,791.75824,761.9414,792.5641,802.23444,1284.1392,0.343017578125,-0.154541015625,0.9091796875,5.001983642578125,-1.734619140625,-0.889739990234375,1.0,1.0,1.0,1.0,1.0,20.0,
2023-09-08 00:25:58.808,0.56289107,0.594612,0.18728791,0.32007298,0.12586695,0.7554577,-0.013496722,0.26419407,0.53297687,0.9076214,0.18880884,0.68738693,0.23421845,0.67600715,-0.068741895,0.271457,-0.19565149,0.3344458,-0.4615626,0.19540274,790.54944,799.81683,789.7436,779.67035,653.1502,0.352294921875,-0.15093994140625,0.91278076171875,6.452484130859375,-3.252410888671875,-1.428070068359375,1.0,1.0,1.0,1.0,1.0,20.0,
2023-09-08 00:25:58.844,0.56289107,0.594612,0.18728791,0.32007298,0.12586695,0.7554577,-0.013496722,0.26419407,0.53297687,0.9076214,0.18880884,0.68738693,0.23421845,0.67600715,-0.068741895,0.271457,-0.19565149,0.3344458,-0.4615626,0.19540274,793.36993,827.619,792.5641,791.3553,709.9634,0.3836669921875,-0.148193359375,0.92706298828125,5.14404296875,-5.510406494140625,1.233673095703125,1.0,1.0,1.0,1.0,1.0,20.0,
2023-09-08 00:25:58.849,0.5874441,0.594612,0.20714252,0.3287684,0.14025891,0.7554577,0.05735684,0.21062689,0.518932,0.9076214,0.19716612,0.682715,0.23002204,0.67600715,-0.085617885,0.26545316,-0.17678137,0.3344458,-0.4823119,0.18154919,787.326,732.9304,797.3993,797.8022,896.1172,0.3836669921875,-0.148193359375,0.92706298828125,5.14404296875,-5.510406494140625,1.233673095703125,1.0,1.0,1.0,1.0,1.0,20.0,
2023-09-08 00:25:58.862,0.5874441,0.594612,0.20714252,0.3287684,0.14025891,0.7554577,0.05735684,0.21062689,0.518932,0.9076214,0.19716612,0.682715,0.23002204,0.67600715,-0.085617885,0.26545316,-0.17678137,0.3344458,-0.4823119,0.18154919,788.93774,765.9707,790.9524,783.69965,731.31866,0.38946533203125,-0.1495361328125,0.9317626953125,4.14215087890625,-4.329071044921875,2.833709716796875,1.0,1.0,1.0,1.0,1.0,20.0,
2023-09-08 00:25:58.915,0.5874441,0.594612,0.20714252,0.3287684,0.14025891,0.7554577,0.05735684,0.21062689,0.518932,0.9076214,0.19716612,0.682715,0.23002204,0.67600715,-0.085617885,0.26545316,-0.17678137,0.3344458,-0.4823119,0.18154919,776.4469,703.91943,788.1319,780.07324,783.2967,0.36163330078125,-0.13409423828125,0.91021728515625,5.106658935546875,-0.97198486328125,1.39068603515625,1.0,1.0,1.0,1.0,1.0,20.0,
2023-09-08 00:25:58.920,0.6021002,0.594612,0.21827476,0.34550786,0.15996785,0.7554577,0.120903395,0.16494034,0.5203638,0.9076214,0.20055321,0.67006844,0.22463073,0.67600715,-0.10141706,0.2664887,-0.16008699,0.3344458,-0.5062807,0.16628511,801.8315,757.50916,784.90845,801.4286,662.01465,0.36163330078125,-0.13409423828125,0.91021728515625,5.106658935546875,-0.97198486328125,1.39068603515625,1.0,1.0,1.0,1.0,1.0,20.0,
2023-09-08 00:25:59.012,0.6021002,0.594612,0.21827476,0.34550786,0.15996785,0.7554577,0.120903395,0.16494034,0.5203638,0.9076214,0.20055321,0.67006844,0.22463073,0.67600715,-0.10141706,0.2664887,-0.16008699,0.3344458,-0.5062807,0.16628511,797.3993,810.696,792.1612,783.2967,772.4176,0.28802490234375,-0.1336669921875,0.89630126953125,4.807586669921875,1.532745361328125,-2.58697509765625,1.0,1.0,1.0,1.0,1.0,20.0,
2023-09-08 00:25:59.082,0.6021002,0.594612,0.21827476,0.34550786,0.15996785,0.7554577,0.120903395,0.16494034,0.5203638,0.9076214,0.20055321,0.67006844,0.22463073,0.67600715,-0.10141706,0.2664887,-0.16008699,0.3344458,-0.5062807,0.16628511,803.0403,902.96704,803.0403,787.72894,653.1502,0.34381103515625,-0.17718505859375,0.93304443359375,3.289794921875,-4.62066650390625,-7.34222412109375,1.0,1.0,1.0,1.0,1.0,20.0,
2023-09-08 00:25:59.084,0.6119425,0.594612,0.21642974,0.3759143,0.1766286,0.7554577,0.16453077,0.13506335,0.5122936,0.9076214,0.20560399,0.6652976,0.2195881,0.67600715,-0.11420723,0.27251256,-0.14784163,0.3344458,-0.5215565,0.14122668,803.0403,894.5055,800.6227,794.57874,695.8608,0.34381103515625,-0.17718505859375,0.93304443359375,3.289794921875,-4.62066650390625,-7.34222412109375,1.0,1.0,1.0,1.0,1.0,20.0,
2023-09-08 00:25:59.123,0.6119425,0.594612,0.21642974,0.3759143,0.1766286,0.7554577,0.16453077,0.13506335,0.5122936,0.9076214,0.20560399,0.6652976,0.2195881,0.67600715,-0.11420723,0.27251256,-0.14784163,0.3344458,-0.5215565,0.14122668,796.1905,836.4835,797.3993,799.81683,759.12085,0.43060302734375,-0.16583251953125,0.93292236328125,5.600128173828125,-8.575897216796875,0.538330078125,1.0,1.0,1.0,1.0,1.0,20.0,
2023-09-08 00:25:59.160,0.6119425,0.594612,0.21642974,0.3759143,0.1766286,0.7554577,0.16453077,0.13506335,0.5122936,0.9076214,0.20560399,0.6652976,0.2195881,0.67600715,-0.11420723,0.27251256,-0.14784163,0.3344458,-0.5215565,0.14122668,789.7436,772.8205,794.57874,776.8498,713.5897,0.35894775390625,-0.1368408203125,0.92486572265625,4.1571044921875,-0.725250244140625,6.258087158203125,1.0,1.0,1.0,1.0,1.0,20.0,
2023-09-08 00:25:59.163,0.6223374,0.594612,0.21012929,0.41145042,0.18853812,0.7554577,0.1869853,0.12025546,0.49204448,0.9076214,0.20560399,0.6652976,0.21720532,0.67600715,-0.12540941,0.28367585,-0.13711095,0.3344458,-0.5201064,0.10586881,778.0586,736.9597,795.78754,785.7143,817.9487,0.35894775390625,-0.1368408203125,0.92486572265625,4.1571044921875,-0.725250244140625,6.258087158203125,1.0,1.0,1.0,1.0,1.0,20.0,
2023-09-08 00:25:59.217,0.6223374,0.594612,0.21012929,0.41145042,0.18853812,0.7554577,0.1869853,0.12025546,0.49204448,0.9076214,0.20560399,0.6652976,0.21720532,0.67600715,-0.12540941,0.28367585,-0.13711095,0.3344458,-0.5201064,0.10586881,789.7436,754.2857,799.011,790.14655,700.696,0.26824951171875,-0.16339111328125,0.90704345703125,3.18511962890625,2.235565185546875,-1.65985107421875,1.0,1.0,1.0,1.0,1.0,20.0,
2023-09-08 00:25:59.258,0.6351689,0.594612,0.21843214,0.44614738,0.20076732,0.7554577,0.19726035,0.11580141,0.49880472,0.9076214,0.20560399,0.6652976,0.21866876,0.67600715,-0.13737488,0.3003472,-0.123125456,0.3344458,-0.50596136,0.07412178,801.8315,858.24176,800.6227,801.8315,879.19415,0.26824951171875,-0.16339111328125,0.90704345703125,3.18511962890625,2.235565185546875,-1.65985107421875,1.0,1.0,1.0,1.0,1.0,20.0,
2023-09-08 00:25:59.305,0.6351689,0.594612,0.21843214,0.44614738,0.20076732,0.7554577,0.19726035,0.11580141,0.49880472,0.9076214,0.20560399,0.6652976,0.21866876,0.67600715,-0.13737488,0.3003472,-0.123125456,0.3344458,-0.50596136,0.07412178,809.0842,850.989,806.6667,795.38464,670.07324,0.38067626953125,-0.1566162109375,0.9232177734375,6.467437744140625,-9.069366455078123,-4.844970703125,1.0,1.0,1.0,1.0,1.0,20.0,
2023-09-08 00:25:59.373,0.6351689,0.594612,0.21843214,0.44614738,0.20076732,0.7554577,0.19726035,0.11580141,0.49880472,0.9076214,0.20560399,0.6652976,0.21866876,0.67600715,-0.13737488,0.3003472,-0.123125456,0.3344458,-0.50596136,0.07412178,797.8022,805.4579,799.81683,799.41394,701.0989,0.38470458984375,-0.1474609375,0.92828369140625,6.02630615234375,-4.358978271484375,-0.6878662109375,1.0,1.0,1.0,1.0,1.0,20.0,
2023-09-08 00:25:59.379,0.65214187,0.594612,0.2513617,0.4736006,0.22004727,0.7554577,0.20579097,0.1203517,0.51588494,0.9076214,0.20560399,0.65929663,0.22312638,0.67600715,-0.1489544,0.3208956,-0.10539769,0.3344458,-0.49119622,0.062825225,799.011,757.50916,796.5934,803.44324,789.34064,0.38470458984375,-0.1474609375,0.92828369140625,6.02630615234375,-4.358978271484375,-0.6878662109375,1.0,1.0,1.0,1.0,1.0,20.0,
2023-09-08 00:25:59.421,0.65214187,0.594612,0.2513617,0.4736006,0.22004727,0.7554577,0.20579097,0.1203517,0.51588494,0.9076214,0.20560399,0.65929663,0.22312638,0.67600715,-0.1489544,0.3208956,-0.10539769,0.3344458,-0.49119622,0.062825225,792.1612,927.5458,796.99634,807.8755,831.6484,0.367431640625,-0.15362548828125,0.91107177734375,3.357086181640625,-1.622467041015625,0.88226318359375,1.0,1.0,1.0,1.0,1.0,20.0,
2023-09-08 00:25:59.437,0.65214187,0.594612,0.2513617,0.4736006,0.22004727,0.7554577,0.20579097,0.1203517,0.51588494,0.9076214,0.20560399,0.65929663,0.22312638,0.67600715,-0.1489544,0.3208956,-0.10539769,0.3344458,-0.49119622,0.062825225,805.4579,892.8938,789.7436,785.7143,688.60803,0.36077880859375,-0.158935546875,0.90936279296875,4.725341796875,-4.0374755859375,-0.19439697265625,1.0,1.0,1.0,1.0,1.0,20.0,
2023-09-08 00:25:59.443,0.67142296,0.594612,0.29803792,0.4921767,0.25302792,0.7554577,0.21844152,0.13309348,0.5421811,0.9076214,0.20155095,0.6316682,0.22834541,0.67600715,-0.1555906,0.34264857,-0.088503525,0.3344458,-0.48539016,0.0734713,802.23444,906.99634,798.60803,805.8608,708.7546,0.36077880859375,-0.158935546875,0.90936279296875,4.725341796875,-4.0374755859375,-0.19439697265625,1.0,1.0,1.0,1.0,1.0,20.0,
2023-09-08 00:25:59.505,0.67142296,0.594612,0.29803792,0.4921767,0.25302792,0.7554577,0.21844152,0.13309348,0.5421811,0.9076214,0.20155095,0.6316682,0.22834541,0.67600715,-0.1555906,0.34264857,-0.088503525,0.3344458,-0.48539016,0.0734713,787.72894,841.31866,789.7436,792.5641,671.685,0.36981201171875,-0.13885498046875,0.9173583984375,6.228179931640625,-3.686065673828125,-0.665435791015625,1.0,1.0,1.0,1.0,1.0,20.0,
2023-09-08 00:25:59.511,0.6875617,0.594612,0.33644184,0.50143963,0.29213488,0.7554577,0.23331021,0.1514801,0.54941446,0.9076214,0.1692918,0.6137491,0.23205288,0.67600715,-0.15467282,0.36032876,-0.07738672,0.3344458,-0.4911943,0.089618154,786.9231,854.21246,789.34064,790.14655,772.01465,0.36981201171875,-0.13885498046875,0.9173583984375,6.228179931640625,-3.686065673828125,-0.665435791015625,1.0,1.0,1.0,1.0,1.0,20.0,
2023-09-08 00:25:59.612,0.6875617,0.594612,0.33644184,0.50143963,0.29213488,0.7554577,0.23331021,0.1514801,0.54941446,0.9076214,0.1692918,0.6137491,0.23205288,0.67600715,-0.15467282,0.36032876,-0.07738672,0.3344458,-0.4911943,0.089618154,793.7729,843.73627,793.7729,785.7143,575.38464,0.35693359375,-0.150146484375,0.91693115234375,4.725341796875,-2.699127197265625,-1.906585693359375,1.0,1.0,1.0,1.0,1.0,20.0,
2023-09-08 00:25:59.649,0.6875617,0.594612,0.33644184,0.50143963,0.29213488,0.7554577,0.23331021,0.1514801,0.54941446,0.9076214,0.1692918,0.6137491,0.23205288,0.67600715,-0.15467282,0.36032876,-0.07738672,0.3344458,-0.4911943,0.089618154,801.4286,799.41394,801.4286,808.68134,723.2601,0.38470458984375,-0.154052734375,0.9176025390625,4.90478515625,-3.4393310546875,-1.71966552734375,1.0,1.0,1.0,1.0,1.0,20.0,
2023-09-08 00:25:59.658,0.6875617,0.594612,0.33644184,0.50143963,0.29213488,0.7554577,0.23331021,0.1514801,0.54941446,0.9076214,0.1692918,0.6137491,0.23205288,0.67600715,-0.15467282,0.36032876,-0.07738672,0.3344458,-0.4911943,0.089618154,794.9817,783.69965,794.9817,791.75824,826.4103,0.39300537109375,-0.13665771484375,0.91693115234375,5.263671875,-3.207550048828125,1.786956787109375,1.0,1.0,1.0,1.0,1.0,20.0,
2023-09-08 00:25:59.659,0.69468427,0.594612,0.364805,0.50243753,0.32028,0.7554577,0.24517442,0.16963983,0.54941446,0.9076214,0.10593583,0.6290368,0.2335912,0.67600715,-0.14910784,0.36907914,-0.07267319,0.3344458,-0.5027982,0.09495669,799.41394,802.23444,796.99634,788.5348,826.8132,0.39300537109375,-0.13665771484375,0.91693115234375,5.263671875,-3.207550048828125,1.786956787109375,1.0,1.0,1.0,1.0,1.0,20.0,
2023-09-08 00:25:59.711,0.69468427,0.594612,0.364805,0.50243753,0.32028,0.7554577,0.24517442,0.16963983,0.54941446,0.9076214,0.10593583,0.6290368,0.2335912,0.67600715,-0.14910784,0.36907914,-0.07267319,0.3344458,-0.5027982,0.09495669,796.1905,790.14655,798.60803,778.86444,747.03296,0.336669921875,-0.14556884765625,0.90167236328125,3.880462646484375,-0.411224365234375,1.973876953125,1.0,1.0,1.0,1.0,1.0,20.0,
2023-09-08 00:25:59.751,0.6870925,0.594612,0.3800672,0.49772877,0.33021012,0.7554577,0.2513522,0.1841634,0.54941446,0.9076214,0.021532504,0.6330962,0.23392907,0.67600715,-0.1438112,0.36930555,-0.07270459,0.3344458,-0.50992477,0.084338576,805.4579,771.6117,793.7729,805.4579,753.0769,0.336669921875,-0.14556884765625,0.90167236328125,3.880462646484375,-0.411224365234375,1.973876953125,1.0,1.0,1.0,1.0,1.0,20.0,
2023-09-08 00:25:59.789,0.6870925,0.594612,0.3800672,0.49772877,0.33021012,0.7554577,0.2513522,0.1841634,0.54941446,0.9076214,0.021532504,0.6330962,0.23392907,0.67600715,-0.1438112,0.36930555,-0.07270459,0.3344458,-0.50992477,0.084338576,798.60803,840.10986,797.3993,791.75824,722.8571,0.34283447265625,-0.17120361328125,0.92254638671875,4.605712890625,-2.773895263671875,-2.70660400390625,1.0,1.0,1.0,1.0,1.0,20.0,
2023-09-08 00:25:59.893,0.6870925,0.594612,0.3800672,0.49772877,0.33021012,0.7554577,0.2513522,0.1841634,0.54941446,0.9076214,0.021532504,0.6330962,0.23392907,0.67600715,-0.1438112,0.36930555,-0.07270459,0.3344458,-0.50992477,0.084338576,792.5641,818.7546,795.78754,801.4286,646.30035,0.41497802734375,-0.15093994140625,0.9345703125,5.973968505859375,-6.62445068359375,-0.31402587890625,1.0,1.0,1.0,1.0,1.0,20.0,
2023-09-08 00:25:59.898,0.655994,0.594612,0.38053536,0.48339063,0.33366436,0.7554577,0.25396332,0.19362377,0.53871953,0.9076214,-0.034333304,0.64908266,0.23520836,0.67600715,-0.14032191,0.36767805,-0.076755635,0.3344458,-0.5055208,0.06580167,805.05493,783.69965,796.99634,793.36993,654.35895,0.41497802734375,-0.15093994140625,0.9345703125,5.973968505859375,-6.62445068359375,-0.31402587890625,1.0,1.0,1.0,1.0,1.0,20.0,
2023-09-08 00:25:59.948,0.655994,0.594612,0.38053536,0.48339063,0.33366436,0.7554577,0.25396332,0.19362377,0.53871953,0.9076214,-0.034333304,0.64908266,0.23520836,0.67600715,-0.14032191,0.36767805,-0.076755635,0.3344458,-0.5055208,0.06580167,788.93774,786.9231,794.17584,801.02563,653.5531,0.37042236328125,-0.13421630859375,0.91986083984375,3.715972900390625,-1.57012939453125,4.553375244140625,1.0,1.0,1.0,1.0,1.0,20.0,
2023-09-08 00:25:59.957,0.655994,0.594612,0.38053536,0.48339063,0.33366436,0.7554577,0.25396332,0.19362377,0.53871953,0.9076214,-0.034333304,0.64908266,0.23520836,0.67600715,-0.14032191,0.36767805,-0.076755635,0.3344458,-0.5055208,0.06580167,783.69965,752.27106,790.14655,794.9817,724.0659,0.30291748046875,-0.1529541015625,0.88848876953125,2.67669677734375,1.435546875,-1.12152099609375,1.0,1.0,1.0,1.0,1.0,20.0,
2023-09-08 00:25:59.963,0.60005116,0.594612,0.36892176,0.45905232,0.34983775,0.7554577,0.25528696,0.20065802,0.5240896,0.9076214,-0.025700156,0.66135156,0.23834844,0.67600715,-0.13659334,0.37275526,-0.08531765,0.3344458,-0.48938906,0.05488929,787.72894,847.3626,789.34064,784.90845,754.68866,0.30291748046875,-0.1529541015625,0.88848876953125,2.67669677734375,1.435546875,-1.12152099609375,1.0,1.0,1.0,1.0,1.0,20.0,
2023-09-08 00:26:00.030,0.60005116,0.594612,0.36892176,0.45905232,0.34983775,0.7554577,0.25528696,0.20065802,0.5240896,0.9076214,-0.025700156,0.66135156,0.23834844,0.67600715,-0.13659334,0.37275526,-0.08531765,0.3344458,-0.48938906,0.05488929,804.2491,840.5128,799.41394,800.6227,823.1868,0.34661865234375,-0.1634521484375,0.92236328125,6.29547119140625,-5.480499267578125,-6.89361572265625,1.0,1.0,1.0,1.0,1.0,20.0,
2023-09-08 00:26:00.037,0.5247512,0.594612,0.34996146,0.42922246,0.38302335,0.7554577,0.2529264,0.20984878,0.516648,0.9076214,0.011160531,0.66374624,0.24076003,0.67600715,-0.13174506,0.38560635,-0.097864896,0.3344458,-0.46620166,0.061773606,791.3553,801.8315,788.93774,788.5348,1040.7693,0.34661865234375,-0.1634521484375,0.92236328125,6.29547119140625,-5.480499267578125,-6.89361572265625,1.0,1.0,1.0,1.0,1.0,20.0,
2023-09-08 00:26:00.070,0.5247512,0.594612,0.34996146,0.42922246,0.38302335,0.7554577,0.2529264,0.20984878,0.516648,0.9076214,0.011160531,0.66374624,0.24076003,0.67600715,-0.13174506,0.38560635,-0.097864896,0.3344458,-0.46620166,0.061773606,786.52014,813.1135,790.9524,789.7436,815.9341,0.396240234375,-0.14068603515625,0.9219970703125,6.6094970703125,-6.59454345703125,-1.95892333984375,1.0,1.0,1.0,1.0,1.0,20.0,
2023-09-08 00:26:00.131,0.5247512,0.594612,0.34996146,0.42922246,0.38302335,0.7554577,0.2529264,0.20984878,0.516648,0.9076214,0.011160531,0.66374624,0.24076003,0.67600715,-0.13174506,0.38560635,-0.097864896,0.3344458,-0.46620166,0.061773606,798.20514,792.1612,794.17584,794.9817,661.6117,0.379638671875,-0.14715576171875,0.91180419921875,2.758941650390625,-1.854248046875,1.637420654296875,1.0,1.0,1.0,1.0,1.0,20.0,
2023-09-08 00:26:00.136,0.4450141,0.594612,0.32460925,0.3993721,0.417576,0.7554577,0.24088404,0.22447355,0.5162592,0.9076214,0.0897306,0.66662604,0.2398804,0.67600715,-0.12562555,0.39874297,-0.11227525,0.3344458,-0.442397,0.08212969,792.96704,753.8828,793.36993,799.81683,853.00366,0.379638671875,-0.14715576171875,0.91180419921875,2.758941650390625,-1.854248046875,1.637420654296875,1.0,1.0,1.0,1.0,1.0,20.0,
2023-09-08 00:26:00.189,0.4450141,0.594612,0.32460925,0.3993721,0.417576,0.7554577,0.24088404,0.22447355,0.5162592,0.9076214,0.0897306,0.66662604,0.2398804,0.67600715,-0.12562555,0.39874297,-0.11227525,0.3344458,-0.442397,0.08212969,792.1612,784.10254,794.9817,793.36993,794.9817,0.35968017578125,-0.16204833984375,0.90643310546875,3.349609375,-3.401947021484375,2.03369140625,1.0,1.0,1.0,1.0,1.0,20.0,
2023-09-08 00:26:00.217,0.4450141,0.594612,0.32460925,0.3993721,0.417576,0.7554577,0.24088404,0.22447355,0.5162592,0.9076214,0.0897306,0.66662604,0.2398804,0.67600715,-0.12562555,0.39874297,-0.11227525,0.3344458,-0.442397,0.08212969,791.3553,809.0842,790.9524,810.696,834.87177,0.3900146484375,-0.15228271484375,0.9110107421875,5.75714111328125,-4.6954345703125,0.059814453125,1.0,1.0,1.0,1.0,1.0,20.0,
2023-09-08 00:26:00.255,0.37508878,0.594612,0.29433337,0.37889987,0.44282353,0.7554577,0.21368763,0.24148369,0.53430456,0.9076214,0.17533542,0.66879743,0.2358745,0.67600715,-0.11912853,0.40284804,-0.12655148,0.3344458,-0.42322734,0.10264829,809.4872,800.2198,795.78754,815.5311,716.8132,0.3900146484375,-0.15228271484375,0.9110107421875,5.75714111328125,-4.6954345703125,0.059814453125,1.0,1.0,1.0,1.0,1.0,20.0,
2023-09-08 00:26:00.359,0.37508878,0.594612,0.29433337,0.37889987,0.44282353,0.7554577,0.21368763,0.24148369,0.53430456,0.9076214,0.17533542,0.66879743,0.2358745,0.67600715,-0.11912853,0.40284804,-0.12655148,0.3344458,-0.42322734,0.10264829,792.5641,792.1612,791.75824,797.3993,695.8608,0.3873291015625,-0.13470458984375,0.91021728515625,5.286102294921875,-2.340240478515625,0.052337646484375,1.0,1.0,1.0,1.0,1.0,20.0,
2023-09-08 00:26:00.402,0.37508878,0.594612,0.29433337,0.37889987,0.44282353,0.7554577,0.21368763,0.24148369,0.53430456,0.9076214,0.17533542,0.66879743,0.2358745,0.67600715,-0.11912853,0.40284804,-0.12655148,0.3344458,-0.42322734,0.10264829,798.20514,802.23444,773.6264,798.20514,667.25275,0.33563232421875,-0.13787841796875,0.907958984375,4.26177978515625,-0.04486083984375,-0.695343017578125,1.0,1.0,1.0,1.0,1.0,20.0,
2023-09-08 00:26:00.406,0.32508358,0.594612,0.26536697,0.3740109,0.4605403,0.7554577,0.17250845,0.25720435,0.57276064,0.9076214,0.26227576,0.6691894,0.23044251,0.67600715,-0.11297238,0.39557,-0.1399397,0.3344458,-0.41231382,0.11385315,790.54944,831.6484,778.86444,809.4872,688.60803,0.33563232421875,-0.13787841796875,0.907958984375,4.26177978515625,-0.04486083984375,-0.695343017578125,1.0,1.0,1.0,1.0,1.0,20.0,
2023-09-08 00:26:00.421,0.32508358,0.594612,0.26536697,0.3740109,0.4605403,0.7554577,0.17250845,0.25720435,0.57276064,0.9076214,0.26227576,0.6691894,0.23044251,0.67600715,-0.11297238,0.39557,-0.1399397,0.3344458,-0.41231382,0.11385315,790.54944,842.1245,763.1502,791.75824,765.9707,0.3565673828125,-0.1661376953125,0.9066162109375,3.925323486328125,-3.289794921875,-4.598236083984375,1.0,1.0,1.0,1.0,1.0,20.0,
2023-09-08 00:26:00.460,0.32508358,0.594612,0.26536697,0.3740109,0.4605403,0.7554577,0.17250845,0.25720435,0.57276064,0.9076214,0.26227576,0.6691894,0.23044251,0.67600715,-0.11297238,0.39557,-0.1399397,0.3344458,-0.41231382,0.11385315,794.9817,821.978,763.95605,806.6667,898.1319,0.39385986328125,-0.1639404296875,0.9368896484375,5.001983642578125,-3.768310546875,-2.803802490234375,1.0,1.0,1.0,1.0,1.0,20.0,
2023-09-08 00:26:00.464,0.29820046,0.594612,0.2557953,0.38246545,0.47639316,0.7554577,0.12611781,0.2718574,0.60402226,0.9076214,0.31973132,0.6929488,0.22439897,0.67600715,-0.10963468,0.3812173,-0.152148,0.3344458,-0.40984043,0.114067964,789.7436,829.6337,766.77655,811.50183,873.95605,0.39385986328125,-0.1639404296875,0.9368896484375,5.001983642578125,-3.768310546875,-2.803802490234375,1.0,1.0,1.0,1.0,1.0,20.0,
2023-09-08 00:26:00.517,0.29820046,0.594612,0.2557953,0.38246545,0.47639316,0.7554577,0.12611781,0.2718574,0.60402226,0.9076214,0.31973132,0.6929488,0.22439897,0.67600715,-0.10963468,0.3812173,-0.152148,0.3344458,-0.40984043,0.114067964,790.54944,828.022,772.4176,784.10254,788.93774,0.3883056640625,-0.15142822265625,0.921630859375,2.7215576171875,-3.117828369140625,3.656158447265625,1.0,1.0,1.0,1.0,1.0,20.0,
2023-09-08 00:26:00.567,0.29532135,0.594612,0.3033632,0.3998267,0.49237224,0.7554577,0.08773949,0.29249015,0.6114904,0.9076214,0.3228857,0.71537167,0.21641932,0.67600715,-0.11118659,0.3663781,-0.16292492,0.3344458,-0.41044512,0.10803824,785.7143,731.7216,773.6264,805.8608,1208.3883,0.3883056640625,-0.15142822265625,0.921630859375,2.7215576171875,-3.117828369140625,3.656158447265625,1.0,1.0,1.0,1.0,1.0,20.0,
2023-09-08 00:26:00.598,0.29532135,0.594612,0.3033632,0.3998267,0.49237224,0.7554577,0.08773949,0.29249015,0.6114904,0.9076214,0.3228857,0.71537167,0.21641932,0.67600715,-0.11118659,0.3663781,-0.16292492,0.3344458,-0.41044512,0.10803824,794.17584,807.0696,777.25275,795.78754,712.7839,0.32562255859375,-0.15869140625,0.886962890625,3.551483154296875,0.13458251953125,2.85614013671875,1.0,1.0,1.0,1.0,1.0,20.0,
2023-09-08 00:26:00.675,0.29532135,0.594612,0.3033632,0.3998267,0.49237224,0.7554577,0.08773949,0.29249015,0.6114904,0.9076214,0.3228857,0.71537167,0.21641932,0.67600715,-0.11118659,0.3663781,-0.16292492,0.3344458,-0.41044512,0.10803824,800.2198,846.9597,786.52014,791.75824,649.5238,0.31707763671875,-0.158203125,0.90777587890625,7.439422607421875,-2.714080810546875,-4.687957763671875,1.0,1.0,1.0,1.0,1.0,20.0,
2023-09-08 00:26:00.681,0.30948904,0.594612,0.4322138,0.4188294,0.50628537,0.7554577,0.06697169,0.31986266,0.6095771,0.9076214,0.3228857,0.736115,0.20437339,0.67600715,-0.11778957,0.35555628,-0.17278425,0.3344458,-0.4096561,0.100819275,807.8755,826.4103,785.31134,809.4872,780.07324,0.31707763671875,-0.158203125,0.90777587890625,7.439422607421875,-2.714080810546875,-4.687957763671875,1.0,1.0,1.0,1.0,1.0,20.0,
2023-09-08 00:26:00.749,0.30948904,0.594612,0.4322138,0.4188294,0.50628537,0.7554577,0.06697169,0.31986266,0.6095771,0.9076214,0.3228857,0.736115,0.20437339,0.67600715,-0.11778957,0.35555628,-0.17278425,0.3344458,-0.4096561,0.100819275,805.8608,859.85345,785.31134,799.41394,606.8132,0.401123046875,-0.14361572265625,0.931396484375,6.916046142578125,-7.633819580078125,-5.62255859375,1.0,1.0,1.0,1.0,1.0,20.0,
2023-09-08 00:26:00.785,0.30948904,0.594612,0.4322138,0.4188294,0.50628537,0.7554577,0.06697169,0.31986266,0.6095771,0.9076214,0.3228857,0.736115,0.20437339,0.67600715,-0.11778957,0.35555628,-0.17278425,0.3344458,-0.4096561,0.100819275,795.78754,774.0293,793.7729,800.6227,747.8388,0.40313720703125,-0.1416015625,0.92279052734375,4.658050537109375,-4.94964599609375,1.5850830078125,1.0,1.0,1.0,1.0,1.0,20.0,
2023-09-08 00:26:00.793,0.3244272,0.594612,0.59221315,0.42708984,0.5145102,0.7554577,0.05754134,0.34482348,0.60843575,0.9076214,0.3228857,0.7438872,0.18846618,0.67600715,-0.1254665,0.34961006,-0.18486057,0.3344458,-0.4070821,0.09334108,786.52014,759.12085,784.90845,794.57874,662.4176,0.40313720703125,-0.1416015625,0.92279052734375,4.658050537109375,-4.94964599609375,1.5850830078125,1.0,1.0,1.0,1.0,1.0,20.0,
2023-09-08 00:26:00.847,0.3244272,0.594612,0.59221315,0.42708984,0.5145102,0.7554577,0.05754134,0.34482348,0.60843575,0.9076214,0.3228857,0.7438872,0.18846618,0.67600715,-0.1254665,0.34961006,-0.18486057,0.3344458,-0.4070821,0.09334108,793.7729,770.80585,786.1172,798.60803,763.1502,0.36083984375,-0.15057373046875,0.90460205078125,3.028106689453125,-1.36077880859375,1.712188720703125,1.0,1.0,1.0,1.0,1.0,20.0,
2023-09-08 00:26:00.904,0.3244272,0.594612,0.59221315,0.42708984,0.5145102,0.7554577,0.05754134,0.34482348,0.60843575,0.9076214,0.3228857,0.7438872,0.18846618,0.67600715,-0.1254665,0.34961006,-0.18486057,0.3344458,-0.4070821,0.09334108,797.3993,809.4872,800.2198,811.50183,772.01465,0.3592529296875,-0.16204833984375,0.8951416015625,4.912261962890625,-3.701019287109375,-0.82244873046875,1.0,1.0,1.0,1.0,1.0,20.0,
2023-09-08 00:26:00.906,0.32551518,0.594612,0.59948516,0.42217612,0.5150412,0.7554577,0.03598943,0.35769373,0.60721546,0.9076214,0.3228857,0.7442749,0.17221278,0.67600715,-0.1216217,0.34805703,-0.20006242,0.3344458,-0.40893862,0.08304287,797.3993,794.9817,799.011,808.68134,736.1539,0.3592529296875,-0.16204833984375,0.8951416015625,4.912261962890625,-3.701019287109375,-0.82244873046875,1.0,1.0,1.0,1.0,1.0,20.0,
2023-09-08 00:26:00.951,0.32551518,0.594612,0.59948516,0.42217612,0.5150412,0.7554577,0.03598943,0.35769373,0.60721546,0.9076214,0.3228857,0.7442749,0.17221278,0.67600715,-0.1216217,0.34805703,-0.20006242,0.3344458,-0.40893862,0.08304287,794.17584,813.1135,795.38464,799.011,778.46155,0.3905029296875,-0.15093994140625,0.91534423828125,5.802001953125,-5.480499267578125,-0.785064697265625,1.0,1.0,1.0,1.0,1.0,20.0,
2023-09-08 00:26:00.961,0.32551518,0.594612,0.59948516,0.42217612,0.5150412,0.7554577,0.03598943,0.35769373,0.60721546,0.9076214,0.3228857,0.7442749,0.17221278,0.67600715,-0.1216217,0.34805703,-0.20006242,0.3344458,-0.40893862,0.08304287,807.47253,808.2784,793.36993,797.8022,764.35895,0.3861083984375,-0.1448974609375,0.91400146484375,5.4730224609375,-3.730926513671875,0.261688232421875,1.0,1.0,1.0,1.0,1.0,20.0,
2023-09-08 00:26:00.963,0.30882496,0.594612,0.6004968,0.40611914,0.50514036,0.7554577,0.0053695706,0.35511518,0.600059,0.9076214,0.3228857,0.74462014,0.16085798,0.67600715,-0.11658454,0.3506546,-0.21501672,0.3344458,-0.40475708,0.0679039,792.5641,761.13556,788.93774,796.99634,1003.2967,0.3861083984375,-0.1448974609375,0.91400146484375,5.4730224609375,-3.730926513671875,0.261688232421875,1.0,1.0,1.0,1.0,1.0,20.0,
2023-09-08 00:26:01.045,0.30882496,0.594612,0.6004968,0.40611914,0.50514036,0.7554577,0.0053695706,0.35511518,0.600059,0.9076214,0.3228857,0.74462014,0.16085798,0.67600715,-0.11658454,0.3506546,-0.21501672,0.3344458,-0.40475708,0.0679039,797.3993,784.5055,793.7729,802.23444,684.17584,0.37579345703125,-0.14501953125,0.9052734375,5.226287841796875,-2.6019287109375,-1.65985107421875,1.0,1.0,1.0,1.0,1.0,20.0,
2023-09-08 00:26:01.118,0.28281903,0.594612,0.60368556,0.3861571,0.48691556,0.7554577,-0.025851099,0.34146154,0.57776874,0.9076214,0.3228857,0.74354565,0.15764886,0.67600715,-0.11283353,0.35759938,-0.22289604,0.3344458,-0.39260912,0.05189598,797.3993,745.42126,783.2967,792.96704,900.9524,0.37579345703125,-0.14501953125,0.9052734375,5.226287841796875,-2.6019287109375,-1.65985107421875,1.0,1.0,1.0,1.0,1.0,20.0,
2023-09-08 00:26:01.162,0.28281903,0.594612,0.60368556,0.3861571,0.48691556,0.7554577,-0.025851099,0.34146154,0.57776874,0.9076214,0.3228857,0.74354565,0.15764886,0.67600715,-0.11283353,0.35759938,-0.22289604,0.3344458,-0.39260912,0.05189598,801.02563,806.6667,789.34064,802.23444,675.7143,0.38037109375,-0.1475830078125,0.91357421875,5.51788330078125,-3.57391357421875,-1.801910400390625,1.0,1.0,1.0,1.0,1.0,20.0,
2023-09-08 00:26:01.170,0.28281903,0.594612,0.60368556,0.3861571,0.48691556,0.7554577,-0.025851099,0.34146154,0.57776874,0.9076214,0.3228857,0.74354565,0.15764886,0.67600715,-0.11283353,0.35759938,-0.22289604,0.3344458,-0.39260912,0.05189598,804.2491,803.44324,798.60803,802.23444,772.8205,0.3944091796875,-0.14227294921875,0.9073486328125,5.15899658203125,-4.18701171875,0.2691650390625,1.0,1.0,1.0,1.0,1.0,20.0,
2023-09-08 00:26:01.173,0.2579657,0.594612,0.66803855,0.36362144,0.46761274,0.7554577,0.02104042,0.32422888,0.55241466,0.9076214,0.3358138,0.7398034,0.16181305,0.67600715,-0.08850855,0.368828,-0.21809748,0.3344458,-0.3847785,0.042687103,798.60803,835.2747,801.4286,789.34064,658.3883,0.3944091796875,-0.14227294921875,0.9073486328125,5.15899658203125,-4.18701171875,0.2691650390625,1.0,1.0,1.0,1.0,1.0,20.0,
2023-09-08 00:26:01.231,0.2579657,0.594612,0.66803855,0.36362144,0.46761274,0.7554577,0.02104042,0.32422888,0.55241466,0.9076214,0.3358138,0.7398034,0.16181305,0.67600715,-0.08850855,0.368828,-0.21809748,0.3344458,-0.3847785,0.042687103,797.3993,802.23444,796.5934,803.0403,807.0696,0.386962890625,-0.142333984375,0.90863037109375,5.495452880859375,-3.2000732421875,0.276641845703125,1.0,1.0,1.0,1.0,1.0,20.0,
2023-09-08 00:26:01.288,0.2579657,0.594612,0.66803855,0.36362144,0.46761274,0.7554577,0.02104042,0.32422888,0.55241466,0.9076214,0.3358138,0.7398034,0.16181305,0.67600715,-0.08850855,0.368828,-0.21809748,0.3344458,-0.3847785,0.042687103,782.8938,786.9231,792.96704,794.57874,747.8388,0.39324951171875,-0.141357421875,0.9088134765625,5.211334228515625,-2.579498291015625,-0.10467529296875,1.0,1.0,1.0,1.0,1.0,20.0,
2023-09-08 00:26:01.295,0.23670931,0.594612,0.7071287,0.3392661,0.4522001,0.7554577,0.10302569,0.30513185,0.54751956,0.9076214,0.3358138,0.7265122,0.17013685,0.67600715,-0.06452995,0.38196543,-0.20109956,0.3344458,-0.37295303,0.04354142,794.57874,835.2747,793.36993,790.54944,740.58606,0.39324951171875,-0.141357421875,0.9088134765625,5.211334228515625,-2.579498291015625,-0.10467529296875,1.0,1.0,1.0,1.0,1.0,20.0,
2023-09-08 00:26:01.375,0.23670931,0.594612,0.7071287,0.3392661,0.4522001,0.7554577,0.10302569,0.30513185,0.54751956,0.9076214,0.3358138,0.7265122,0.17013685,0.67600715,-0.06452995,0.38196543,-0.20109956,0.3344458,-0.37295303,0.04354142,801.8315,813.91943,795.78754,794.17584,669.2674,0.377685546875,-0.13427734375,0.90533447265625,4.844970703125,-1.62994384765625,0.800018310546875,1.0,1.0,1.0,1.0,1.0,20.0,
2023-09-08 00:26:01.383,0.22286266,0.594612,0.73545,0.32083803,0.43635044,0.7554577,0.17786866,0.27855718,0.5486466,0.9076214,0.33571678,0.7238381,0.17798729,0.67600715,-0.044728152,0.39262146,-0.17733784,0.3344458,-0.36261788,0.048125483,807.47253,840.10986,797.8022,803.8461,650.32965,0.377685546875,-0.13427734375,0.90533447265625,4.844970703125,-1.62994384765625,0.800018310546875,1.0,1.0,1.0,1.0,1.0,20.0,
2023-09-08 00:26:01.444,0.22286266,0.594612,0.73545,0.32083803,0.43635044,0.7554577,0.17786866,0.27855718,0.5486466,0.9076214,0.33571678,0.7238381,0.17798729,0.67600715,-0.044728152,0.39262146,-0.17733784,0.3344458,-0.36261788,0.048125483,803.8461,844.5421,797.3993,800.2198,625.7509,0.33599853515625,-0.15234375,0.92431640625,4.149627685546875,-0.859832763671875,-1.1065673828125,1.0,1.0,1.0,1.0,1.0,20.0,
2023-09-08 00:26:01.483,0.22286266,0.594612,0.73545,0.32083803,0.43635044,0.7554577,0.17786866,0.27855718,0.5486466,0.9076214,0.33571678,0.7238381,0.17798729,0.67600715,-0.044728152,0.39262146,-0.17733784,0.3344458,-0.36261788,0.048125483,802.23444,863.0769,806.6667,807.47253,678.93774,0.396484375,-0.16033935546875,0.91693115234375,3.147735595703125,-4.3365478515625,-3.46923828125,1.0,1.0,1.0,1.0,1.0,20.0,
2023-09-08 00:26:01.498,0.22286266,0.594612,0.73545,0.32083803,0.43635044,0.7554577,0.17786866,0.27855718,0.5486466,0.9076214,0.33571678,0.7238381,0.17798729,0.67600715,-0.044728152,0.39262146,-0.17733784,0.3344458,-0.36261788,0.048125483,800.6227,811.50183,796.99634,787.326,732.9304,0.3905029296875,-0.14959716796875,0.91522216796875,3.57391357421875,-2.549591064453125,2.190704345703125,1.0,1.0,1.0,1.0,1.0,20.0,
2023-09-08 00:26:01.499,0.21534078,0.594612,0.7522224,0.31239936,0.41122895,0.7554577,0.2279441,0.23788548,0.5486466,0.9076214,0.3312879,0.7238381,0.18091527,0.67600715,-0.027309015,0.3968506,-0.15509376,0.3344458,-0.3595501,0.04653515,799.41394,794.17584,799.011,801.02563,831.6484,0.3905029296875,-0.14959716796875,0.91522216796875,3.57391357421875,-2.549591064453125,2.190704345703125,1.0,1.0,1.0,1.0,1.0,20.0,
2023-09-08 00:26:01.532,0.21534078,0.594612,0.7522224,0.31239936,0.41122895,0.7554577,0.2279441,0.23788548,0.5486466,0.9076214,0.3312879,0.7238381,0.18091527,0.67600715,-0.027309015,0.3968506,-0.15509376,0.3344458,-0.3595501,0.04653515,809.0842,782.8938,811.50183,813.91943,729.707,0.344482421875,-0.14990234375,0.8890380859375,4.38140869140625,-1.338348388671875,1.876678466796875,1.0,1.0,1.0,1.0,1.0,20.0,
2023-09-08 00:26:01.593,0.21743283,0.594612,0.7630312,0.3103595,0.37379718,0.7554577,0.25573757,0.1845489,0.5504975,0.9076214,0.32806554,0.71825475,0.17771208,0.67600715,-0.008819523,0.3957039,-0.14170662,0.3344458,-0.36765042,0.03603245,803.8461,801.02563,791.3553,799.011,695.05493,0.344482421875,-0.14990234375,0.8890380859375,4.38140869140625,-1.338348388671875,1.876678466796875,1.0,1.0,1.0,1.0,1.0,20.0,
2023-09-08 00:26:01.643,0.21743283,0.594612,0.7630312,0.3103595,0.37379718,0.7554577,0.25573757,0.1845489,0.5504975,0.9076214,0.32806554,0.71825475,0.17771208,0.67600715,-0.008819523,0.3957039,-0.14170662,0.3344458,-0.36765042,0.03603245,806.26373,857.4359,801.4286,806.26373,742.6007,0.332275390625,-0.151123046875,0.90545654296875,6.841278076171875,-2.7813720703125,-4.658050537109375,1.0,1.0,1.0,1.0,1.0,20.0,
2023-09-08 00:26:01.693,0.21743283,0.594612,0.7630312,0.3103595,0.37379718,0.7554577,0.25573757,0.1845489,0.5504975,0.9076214,0.32806554,0.71825475,0.17771208,0.67600715,-0.008819523,0.3957039,-0.14170662,0.3344458,-0.36765042,0.03603245,787.326,842.9304,790.9524,802.23444,706.7399,0.4144287109375,-0.125,0.93707275390625,6.392669677734375,-7.155303955078125,-3.162689208984375,1.0,1.0,1.0,1.0,1.0,20.0,
2023-09-08 00:26:01.697,0.23299415,0.594612,0.77585787,0.3103359,0.3310786,0.7554577,0.27613786,0.13184223,0.5583992,0.9076214,0.32719064,0.7428199,0.17095612,0.67600715,0.010048291,0.39493048,-0.13938269,0.3344458,-0.3869998,0.023381362,792.96704,802.6374,791.3553,795.38464,759.5238,0.4144287109375,-0.125,0.93707275390625,6.392669677734375,-7.155303955078125,-3.162689208984375,1.0,1.0,1.0,1.0,1.0,20.0,
2023-09-08 00:26:01.745,0.23299415,0.594612,0.77585787,0.3103359,0.3310786,0.7554577,0.27613786,0.13184223,0.5583992,0.9076214,0.32719064,0.7428199,0.17095612,0.67600715,0.010048291,0.39493048,-0.13938269,0.3344458,-0.3869998,0.023381362,794.17584,796.99634,791.3553,799.011,716.4103,0.4034423828125,-0.13800048828125,0.90716552734375,2.10845947265625,-2.40753173828125,1.45050048828125,1.0,1.0,1.0,1.0,1.0,20.0,
2023-09-08 00:26:01.827,0.23299415,0.594612,0.77585787,0.3103359,0.3310786,0.7554577,0.27613786,0.13184223,0.5583992,0.9076214,0.32719064,0.7428199,0.17095612,0.67600715,0.010048291,0.39493048,-0.13938269,0.3344458,-0.3869998,0.023381362,805.05493,757.9121,794.17584,806.6667,705.5311,0.36260986328125,-0.15997314453125,0.8953857421875,2.22808837890625,-1.136474609375,1.4056396484375,1.0,1.0,1.0,1.0,1.0,20.0,
2023-09-08 00:26:01.833,0.25789776,0.594612,0.79232335,0.30526236,0.29181594,0.7554577,0.29147324,0.096812874,0.57437265,0.9076214,0.31735033,0.7500579,0.16507195,0.67600715,0.024518868,0.40117243,-0.14469393,0.3344458,-0.40959176,0.016647179,782.8938,790.54944,796.99634,792.5641,846.9597,0.36260986328125,-0.15997314453125,0.8953857421875,2.22808837890625,-1.136474609375,1.4056396484375,1.0,1.0,1.0,1.0,1.0,20.0,
2023-09-08 00:26:01.884,0.25789776,0.594612,0.79232335,0.30526236,0.29181594,0.7554577,0.29147324,0.096812874,0.57437265,0.9076214,0.31735033,0.7500579,0.16507195,0.67600715,0.024518868,0.40117243,-0.14469393,0.3344458,-0.40959176,0.016647179,794.9817,809.0842,795.38464,799.011,686.99634,0.36456298828125,-0.1529541015625,0.9036865234375,5.4730224609375,-2.43743896484375,-1.7047119140625,1.0,1.0,1.0,1.0,1.0,20.0,
2023-09-08 00:26:01.890,0.2782182,0.594612,0.80964977,0.28722438,0.2576816,0.7554577,0.29504097,0.08386439,0.58600307,0.9076214,0.3172425,0.7579582,0.16344866,0.67600715,0.030877419,0.4144792,-0.14992517,0.3344458,-0.42199063,0.016134461,802.23444,775.2381,802.6374,816.7399,1082.674,0.36456298828125,-0.1529541015625,0.9036865234375,5.4730224609375,-2.43743896484375,-1.7047119140625,1.0,1.0,1.0,1.0,1.0,20.0,
2023-09-08 00:26:01.928,0.2782182,0.594612,0.80964977,0.28722438,0.2576816,0.7554577,0.29504097,0.08386439,0.58600307,0.9076214,0.3172425,0.7579582,0.16344866,0.67600715,0.030877419,0.4144792,-0.14992517,0.3344458,-0.42199063,0.016134461,798.60803,811.50183,806.26373,794.57874,697.0696,0.3853759765625,-0.14599609375,0.90740966796875,5.4730224609375,-4.18701171875,-2.31781005859375,1.0,1.0,1.0,1.0,1.0,20.0,
2023-09-08 00:26:01.991,0.2782182,0.594612,0.80964977,0.28722438,0.2576816,0.7554577,0.29504097,0.08386439,0.58600307,0.9076214,0.3172425,0.7579582,0.16344866,0.67600715,0.030877419,0.4144792,-0.14992517,0.3344458,-0.42199063,0.016134461,798.20514,789.34064,792.1612,805.8608,743.4066,0.38201904296875,-0.15142822265625,0.90667724609375,4.68048095703125,-2.758941650390625,-2.205657958984375,1.0,1.0,1.0,1.0,1.0,20.0,
2023-09-08 00:26:01.999,0.28424853,0.594612,0.8202026,0.24775724,0.22729279,0.7554577,0.2863287,0.07965978,0.5511589,0.9076214,0.34156594,0.8058537,0.16733885,0.67600715,0.031218186,0.43019074,-0.14898425,0.3344458,-0.41941732,0.016364427,800.2198,784.10254,805.4579,804.2491,859.45056,0.38201904296875,-0.15142822265625,0.90667724609375,4.68048095703125,-2.758941650390625,-2.205657958984375,1.0,1.0,1.0,1.0,1.0,20.0,
2023-09-08 00:26:02.035,0.28424853,0.594612,0.8202026,0.24775724,0.22729279,0.7554577,0.2863287,0.07965978,0.5511589,0.9076214,0.34156594,0.8058537,0.16733885,0.67600715,0.031218186,0.43019074,-0.14898425,0.3344458,-0.41941732,0.016364427,807.47253,817.5458,806.26373,798.20514,798.60803,0.38739013671875,-0.1541748046875,0.908935546875,4.643096923828125,-3.5589599609375,-0.351409912109375,1.0,1.0,1.0,1.0,1.0,20.0,
2023-09-08 00:26:02.076,0.28424853,0.594612,0.8202026,0.24775724,0.22729279,0.7554577,0.2863287,0.07965978,0.5511589,0.9076214,0.34156594,0.8058537,0.16733885,0.67600715,0.031218186,0.43019074,-0.14898425,0.3344458,-0.41941732,0.016364427,797.8022,812.71063,799.41394,786.1172,680.14655,0.3861083984375,-0.1514892578125,0.90545654296875,4.53094482421875,-4.26177978515625,0.91217041015625,1.0,1.0,1.0,1.0,1.0,20.0,
2023-09-08 00:26:02.121,0.266675,0.594612,0.8095539,0.16959377,0.20184459,0.7554577,0.2699603,0.065908894,0.4309307,0.9076214,0.36503527,0.8811507,0.17753465,0.67600715,0.03088956,0.44447458,-0.14244743,0.3344458,-0.4136097,0.016008347,799.011,788.5348,799.41394,794.9817,688.60803,0.3861083984375,-0.1514892578125,0.90545654296875,4.53094482421875,-4.26177978515625,0.91217041015625,1.0,1.0,1.0,1.0,1.0,20.0,
2023-09-08 00:26:02.160,0.266675,0.594612,0.8095539,0.16959377,0.20184459,0.7554577,0.2699603,0.065908894,0.4309307,0.9076214,0.36503527,0.8811507,0.17753465,0.67600715,0.03088956,0.44447458,-0.14244743,0.3344458,-0.4136097,0.016008347,815.9341,811.0989,792.1612,795.38464,674.90845,0.39044189453125,-0.14984130859375,0.903564453125,5.435638427734375,-4.448699951171875,1.024322509765625,1.0,1.0,1.0,1.0,1.0,20.0,
2023-09-08 00:26:02.211,0.266675,0.594612,0.8095539,0.16959377,0.20184459,0.7554577,0.2699603,0.065908894,0.4309307,0.9076214,0.36503527,0.8811507,0.17753465,0.67600715,0.03088956,0.44447458,-0.14244743,0.3344458,-0.4136097,0.016008347,790.54944,806.6667,794.9817,793.36993,577.8022,0.394287109375,-0.138916015625,0.9027099609375,6.153411865234375,-3.297271728515625,-0.142059326171875,1.0,1.0,1.0,1.0,1.0,20.0,
2023-09-08 00:26:02.214,0.2254149,0.594612,0.75351363,0.05148137,0.18580288,0.7554577,0.25006494,0.033378586,0.2656478,0.9076214,0.3932368,0.91197234,0.19371249,0.67600715,0.03496352,0.45505187,-0.13603319,0.3344458,-0.41682324,0.020989995,791.3553,804.65204,798.60803,804.65204,742.1978,0.394287109375,-0.138916015625,0.9027099609375,6.153411865234375,-3.297271728515625,-0.142059326171875,1.0,1.0,1.0,1.0,1.0,20.0,
2023-09-08 00:26:02.288,0.2254149,0.594612,0.75351363,0.05148137,0.18580288,0.7554577,0.25006494,0.033378586,0.2656478,0.9076214,0.3932368,0.91197234,0.19371249,0.67600715,0.03496352,0.45505187,-0.13603319,0.3344458,-0.41682324,0.020989995,791.75824,774.43225,786.9231,799.81683,699.4872,0.37322998046875,-0.1268310546875,0.8990478515625,6.08612060546875,-1.876678466796875,-1.517791748046875,1.0,1.0,1.0,1.0,1.0,20.0,
2023-09-08 00:26:02.327,0.2254149,0.594612,0.75351363,0.05148137,0.18580288,0.7554577,0.25006494,0.033378586,0.2656478,0.9076214,0.3932368,0.91197234,0.19371249,0.67600715,0.03496352,0.45505187,-0.13603319,0.3344458,-0.41682324,0.020989995,803.44324,810.696,803.0403,800.2198,794.17584,0.36083984375,-0.147216796875,0.9027099609375,4.56085205078125,-2.026214599609375,-3.072967529296875,1.0,1.0,1.0,1.0,1.0,20.0,
2023-09-08 00:26:02.331,0.17296599,0.594612,0.62137085,-0.08128267,0.18199785,0.7554577,0.23174243,-0.008448918,0.26165512,0.9076214,0.410257,0.9013428,0.2131754,0.67600715,0.04345796,0.46023822,-0.13337053,0.3344458,-0.42564163,0.034380905,797.8022,811.0989,806.6667,798.60803,893.2967,0.36083984375,-0.147216796875,0.9027099609375,4.56085205078125,-2.026214599609375,-3.072967529296875,1.0,1.0,1.0,1.0,1.0,20.0,
2023-09-08 00:26:02.346,0.17296599,0.594612,0.62137085,-0.08128267,0.18199785,0.7554577,0.23174243,-0.008448918,0.26165512,0.9076214,0.410257,0.9013428,0.2131754,0.67600715,0.04345796,0.46023822,-0.13337053,0.3344458,-0.42564163,0.034380905,810.293,842.9304,808.2784,801.8315,715.2015,0.394287109375,-0.1580810546875,0.923095703125,4.553375244140625,-4.7552490234375,-2.811279296875,1.0,1.0,1.0,1.0,1.0,20.0,
2023-09-08 00:26:02.394,0.12209709,0.594612,0.6035655,-0.16785043,0.19014817,0.7554577,0.21859671,-0.038443677,0.41721904,0.9076214,0.45149374,0.88260716,0.23241134,0.67600715,0.035474688,0.4581734,-0.13366663,0.3344458,-0.42038572,0.051398445,800.2198,797.3993,802.6374,807.8755,965.42126,0.394287109375,-0.1580810546875,0.923095703125,4.553375244140625,-4.7552490234375,-2.811279296875,1.0,1.0,1.0,1.0,1.0,20.0,
2023-09-08 00:26:02.428,0.12209709,0.594612,0.6035655,-0.16785043,0.19014817,0.7554577,0.21859671,-0.038443677,0.41721904,0.9076214,0.45149374,0.88260716,0.23241134,0.67600715,0.035474688,0.4581734,-0.13366663,0.3344458,-0.42038572,0.051398445,794.17584,802.6374,798.60803,797.8022,979.12085,0.41802978515625,-0.15093994140625,0.912841796875,4.65057373046875,-4.17205810546875,1.248626708984375,1.0,1.0,1.0,1.0,1.0,20.0,
2023-09-08 00:26:02.491,0.12209709,0.594612,0.6035655,-0.16785043,0.19014817,0.7554577,0.21859671,-0.038443677,0.41721904,0.9076214,0.45149374,0.88260716,0.23241134,0.67600715,0.035474688,0.4581734,-0.13366663,0.3344458,-0.42038572,0.051398445,786.9231,787.326,801.8315,782.8938,659.59705,0.37921142578125,-0.1419677734375,0.8992919921875,4.164581298828125,-2.16827392578125,4.149627685546875,1.0,1.0,1.0,1.0,1.0,20.0,
2023-09-08 00:26:02.499,0.08545422,0.594612,0.5870987,-0.17852505,0.20672329,0.7554577,0.21897577,-0.040130865,0.53371185,0.9076214,0.5265926,0.8907526,0.2483198,0.67600715,0.029779023,0.44866508,-0.13312405,0.3344458,-0.41130677,0.06626032,806.26373,815.5311,796.5934,788.93774,667.25275,0.37921142578125,-0.1419677734375,0.8992919921875,4.164581298828125,-2.16827392578125,4.149627685546875,1.0,1.0,1.0,1.0,1.0,20.0,
2023-09-08 00:26:02.542,0.08545422,0.594612,0.5870987,-0.17852505,0.20672329,0.7554577,0.21897577,-0.040130865,0.53371185,0.9076214,0.5265926,0.8907526,0.2483198,0.67600715,0.029779023,0.44866508,-0.13312405,0.3344458,-0.41130677,0.06626032,793.7729,831.2454,794.17584,799.81683,738.5714,0.32427978515625,-0.14703369140625,0.88958740234375,6.11602783203125,-0.67291259765625,-1.973876953125,1.0,1.0,1.0,1.0,1.0,20.0,
2023-09-08 00:26:02.578,0.08545422,0.594612,0.5870987,-0.17852505,0.20672329,0.7554577,0.21897577,-0.040130865,0.53371185,0.9076214,0.5265926,0.8907526,0.2483198,0.67600715,0.029779023,0.44866508,-0.13312405,0.3344458,-0.41130677,0.06626032,793.7729,839.707,795.78754,780.07324,630.58606,0.39990234375,-0.12921142578125,0.92041015625,7.28240966796875,-7.01324462890625,-6.47491455078125,1.0,1.0,1.0,1.0,1.0,20.0,
2023-09-08 00:26:02.591,0.066562414,0.594612,0.5739355,-0.14429407,0.22131594,0.7554577,0.22974071,-0.020269264,0.5651141,0.9076214,0.5646748,0.8944176,0.25908634,0.67600715,0.024492813,0.43466634,-0.13142331,0.3344458,-0.4026254,0.07768439,796.1905,880.0,808.2784,792.5641,788.93774,0.39990234375,-0.12921142578125,0.92041015625,7.28240966796875,-7.01324462890625,-6.47491455078125,1.0,1.0,1.0,1.0,1.0,20.0,
2023-09-08 00:26:02.657,0.066562414,0.594612,0.5739355,-0.14429407,0.22131594,0.7554577,0.22974071,-0.020269264,0.5651141,0.9076214,0.5646748,0.8944176,0.25908634,0.67600715,0.024492813,0.43466634,-0.13142331,0.3344458,-0.4026254,0.07768439,790.9524,765.16486,796.5934,799.41394,743.4066,0.42987060546875,-0.13287353515625,0.91510009765625,4.1571044921875,-5.06927490234375,-0.052337646484375,1.0,1.0,1.0,1.0,1.0,20.0,
2023-09-08 00:26:02.700,0.066562414,0.594612,0.5739355,-0.14429407,0.22131594,0.7554577,0.22974071,-0.020269264,0.5651141,0.9076214,0.5646748,0.8944176,0.25908634,0.67600715,0.024492813,0.43466634,-0.13142331,0.3344458,-0.4026254,0.07768439,800.2198,746.2271,784.90845,781.28204,722.0513,0.39471435546875,-0.15142822265625,0.89471435546875,2.205657958984375,-0.0,1.697235107421875,1.0,1.0,1.0,1.0,1.0,20.0,
2023-09-08 00:26:02.701,0.05739321,0.594612,0.50291574,-0.09185227,0.22631678,0.7554577,0.22905451,0.0023933114,0.5651141,0.9076214,0.56846,0.8946421,0.26439905,0.67600715,0.011752686,0.42100337,-0.13343519,0.3344458,-0.3917034,0.0890381,799.011,772.01465,785.7143,783.69965,678.5348,0.39471435546875,-0.15142822265625,0.89471435546875,2.205657958984375,-0.0,1.697235107421875,1.0,1.0,1.0,1.0,1.0,20.0,
2023-09-08 00:26:02.756,0.05739321,0.594612,0.50291574,-0.09185227,0.22631678,0.7554577,0.22905451,0.0023933114,0.5651141,0.9076214,0.56846,0.8946421,0.26439905,0.67600715,0.011752686,0.42100337,-0.13343519,0.3344458,-0.3917034,0.0890381,792.5641,778.86444,794.57874,801.8315,793.36993,0.384765625,-0.1451416015625,0.89678955078125,5.600128173828125,-2.893524169921875,0.889739990234375,1.0,1.0,1.0,1.0,1.0,20.0,
2023-09-08 00:26:02.794,0.05739321,0.594612,0.50291574,-0.09185227,0.22631678,0.7554577,0.22905451,0.0023933114,0.5651141,0.9076214,0.56846,0.8946421,0.26439905,0.67600715,0.011752686,0.42100337,-0.13343519,0.3344458,-0.3917034,0.0890381,789.34064,799.011,789.34064,792.96704,823.5897,0.38525390625,-0.13427734375,0.9036865234375,5.390777587890625,-3.581390380859375,-1.398162841796875,1.0,1.0,1.0,1.0,1.0,20.0,
2023-09-08 00:26:02.796,0.058388337,0.594612,0.4496575,-0.03731946,0.22278182,0.7554577,0.2148134,0.016269555,0.5651141,0.9076214,0.56846,0.8946421,0.2647527,0.67600715,-0.004206987,0.41115442,-0.1436579,0.3344458,-0.39055148,0.1056116,799.011,764.35895,796.1905,797.8022,870.32965,0.38525390625,-0.13427734375,0.9036865234375,5.390777587890625,-3.581390380859375,-1.398162841796875,1.0,1.0,1.0,1.0,1.0,20.0,
2023-09-08 00:26:02.846,0.058388337,0.594612,0.4496575,-0.03731946,0.22278182,0.7554577,0.2148134,0.016269555,0.5651141,0.9076214,0.56846,0.8946421,0.2647527,0.67600715,-0.004206987,0.41115442,-0.1436579,0.3344458,-0.39055148,0.1056116,797.3993,814.7253,794.9817,788.93774,696.6667,0.398681640625,-0.1380615234375,0.90850830078125,5.1739501953125,-2.7813720703125,-2.31781005859375,1.0,1.0,1.0,1.0,1.0,20.0,
2023-09-08 00:26:02.903,0.063200325,0.594612,0.4067562,0.002236409,0.21677913,0.7554577,0.2012299,0.0210194,0.5651141,0.9076214,0.56846,0.8946421,0.26257056,0.67600715,-0.01804565,0.4064196,-0.16092026,0.3344458,-0.3971123,0.12815532,794.57874,777.6557,801.8315,792.1612,794.9817,0.398681640625,-0.1380615234375,0.90850830078125,5.1739501953125,-2.7813720703125,-2.31781005859375,1.0,1.0,1.0,1.0,1.0,20.0,
2023-09-08 00:26:02.939,0.063200325,0.594612,0.4067562,0.002236409,0.21677913,0.7554577,0.2012299,0.0210194,0.5651141,0.9076214,0.56846,0.8946421,0.26257056,0.67600715,-0.01804565,0.4064196,-0.16092026,0.3344458,-0.3971123,0.12815532,797.3993,809.89014,802.6374,801.8315,687.3993,0.4012451171875,-0.14654541015625,0.909423828125,3.9178466796875,-2.82623291015625,-1.0467529296875,1.0,1.0,1.0,1.0,1.0,20.0,
2023-09-08 00:26:02.985,0.063200325,0.594612,0.4067562,0.002236409,0.21677913,0.7554577,0.2012299,0.0210194,0.5651141,0.9076214,0.56846,0.8946421,0.26257056,0.67600715,-0.01804565,0.4064196,-0.16092026,0.3344458,-0.3971123,0.12815532,799.81683,792.5641,794.17584,792.1612,662.4176,0.39056396484375,-0.138427734375,0.9058837890625,4.77020263671875,-2.43743896484375,0.411224365234375,1.0,1.0,1.0,1.0,1.0,20.0,
2023-09-08 00:26:02.994,0.064096145,0.594612,0.38713038,0.028553128,0.20975982,0.7554577,0.20242886,0.021874525,0.5651141,0.9076214,0.56846,0.8946421,0.26127124,0.67600715,-0.029034272,0.40784594,-0.1788764,0.3344458,-0.40643108,0.15301782,791.3553,825.6044,794.17584,780.87915,750.2564,0.39056396484375,-0.138427734375,0.9058837890625,4.77020263671875,-2.43743896484375,0.411224365234375,1.0,1.0,1.0,1.0,1.0,20.0,
2023-09-08 00:26:03.050,0.064096145,0.594612,0.38713038,0.028553128,0.20975982,0.7554577,0.20242886,0.021874525,0.5651141,0.9076214,0.56846,0.8946421,0.26127124,0.67600715,-0.029034272,0.40784594,-0.1788764,0.3344458,-0.40643108,0.15301782,792.96704,803.44324,796.99634,794.9817,755.4945,0.37591552734375,-0.13818359375,0.90283203125,5.076751708984375,-2.310333251953125,-1.375732421875,1.0,1.0,1.0,1.0,1.0,20.0,
2023-09-08 00:26:03.129,0.064096145,0.594612,0.38713038,0.028553128,0.20975982,0.7554577,0.20242886,0.021874525,0.5651141,0.9076214,0.56846,0.8946421,0.26127124,0.67600715,-0.029034272,0.40784594,-0.1788764,0.3344458,-0.40643108,0.15301782,805.4579,813.5165,790.9524,798.60803,782.49084,0.39630126953125,-0.1402587890625,0.90234375,5.69732666015625,-3.1402587890625,-0.8673095703125,1.0,1.0,1.0,1.0,1.0,20.0,
2023-09-08 00:26:03.135,0.053365685,0.594612,0.38619345,0.047683,0.19740261,0.7554577,0.21706115,0.023486178,0.5651141,0.9076214,0.56846,0.8946421,0.26275355,0.67600715,-0.04063047,0.4164392,-0.18982065,0.3344458,-0.41359246,0.17357859,797.3993,867.50916,796.5934,804.2491,938.8278,0.39630126953125,-0.1402587890625,0.90234375,5.69732666015625,-3.1402587890625,-0.8673095703125,1.0,1.0,1.0,1.0,1.0,20.0,
2023-09-08 00:26:03.180,0.053365685,0.594612,0.38619345,0.047683,0.19740261,0.7554577,0.21706115,0.023486178,0.5651141,0.9076214,0.56846,0.8946421,0.26275355,0.67600715,-0.04063047,0.4164392,-0.18982065,0.3344458,-0.41359246,0.17357859,800.6227,839.707,800.2198,801.4286,728.49817,0.39697265625,-0.1439208984375,0.907958984375,4.38140869140625,-3.536529541015625,0.6878662109375,1.0,1.0,1.0,1.0,1.0,20.0,
2023-09-08 00:26:03.187,0.023562899,0.594612,0.3850594,0.06125312,0.177432,0.7554577,0.22533353,0.023289016,0.5651141,0.9076214,0.56846,0.8946421,0.2665127,0.67600715,-0.053943347,0.43094468,-0.18896769,0.3344458,-0.41611227,0.18658553,796.99634,761.9414,799.41394,818.3516,1079.8535,0.39697265625,-0.1439208984375,0.907958984375,4.38140869140625,-3.536529541015625,0.6878662109375,1.0,1.0,1.0,1.0,1.0,20.0,
2023-09-08 00:26:03.212,0.023562899,0.594612,0.3850594,0.06125312,0.177432,0.7554577,0.22533353,0.023289016,0.5651141,0.9076214,0.56846,0.8946421,0.2665127,0.67600715,-0.053943347,0.43094468,-0.18896769,0.3344458,-0.41611227,0.18658553,791.3553,845.34796,793.7729,809.4872,957.3626,0.4031982421875,-0.14593505859375,0.9066162109375,4.418792724609375,-3.30474853515625,0.695343017578125,1.0,1.0,1.0,1.0,1.0,20.0,
2023-09-08 00:26:03.283,0.023562899,0.594612,0.3850594,0.06125312,0.177432,0.7554577,0.22533353,0.023289016,0.5651141,0.9076214,0.56846,0.8946421,0.2665127,0.67600715,-0.053943347,0.43094468,-0.18896769,0.3344458,-0.41611227,0.18658553,796.99634,826.4103,801.8315,780.87915,583.0403,0.40411376953125,-0.1409912109375,0.9002685546875,4.493560791015625,-2.7215576171875,0.007476806640625,1.0,1.0,1.0,1.0,1.0,20.0,
2023-09-08 00:26:03.320,0.023562899,0.594612,0.3850594,0.06125312,0.177432,0.7554577,0.22533353,0.023289016,0.5651141,0.9076214,0.56846,0.8946421,0.2665127,0.67600715,-0.053943347,0.43094468,-0.18896769,0.3344458,-0.41611227,0.18658553,799.011,828.022,795.78754,798.20514,644.2857,0.38018798828125,-0.1441650390625,0.900146484375,3.96270751953125,-2.310333251953125,-0.52337646484375,1.0,1.0,1.0,1.0,1.0,20.0,
2023-09-08 00:26:03.321,-0.0230533,0.594612,0.37047437,0.06406872,0.15372795,0.7554577,0.22023411,0.014680012,0.5651141,0.9076214,0.56846,0.89048505,0.27038908,0.67600715,-0.065903865,0.44699606,-0.17733626,0.3344458,-0.4165759,0.19551669,796.1905,789.34064,800.2198,804.65204,793.36993,0.38018798828125,-0.1441650390625,0.900146484375,3.96270751953125,-2.310333251953125,-0.52337646484375,1.0,1.0,1.0,1.0,1.0,20.0,
2023-09-08 00:26:03.369,-0.0230533,0.594612,0.37047437,0.06406872,0.15372795,0.7554577,0.22023411,0.014680012,0.5651141,0.9076214,0.56846,0.89048505,0.27038908,0.67600715,-0.065903865,0.44699606,-0.17733626,0.3344458,-0.4165759,0.19551669,796.5934,800.6227,794.17584,796.99634,727.6923,0.3782958984375,-0.14117431640625,0.8984375,4.717864990234375,-2.729034423828125,-1.577606201171875,1.0,1.0,1.0,1.0,1.0,20.0,
2023-09-08 00:26:03.426,-0.06305021,0.594612,0.3421298,0.059949994,0.13171703,0.7554577,0.21105342,-0.002328083,0.5651141,0.9076214,0.56846,0.88792473,0.2736662,0.67600715,-0.072546124,0.45901105,-0.16198818,0.3344458,-0.41737992,0.20698377,786.52014,823.1868,788.1319,794.57874,725.2747,0.3782958984375,-0.14117431640625,0.8984375,4.717864990234375,-2.729034423828125,-1.577606201171875,1.0,1.0,1.0,1.0,1.0,20.0,
2023-09-08 00:26:03.465,-0.06305021,0.594612,0.3421298,0.059949994,0.13171703,0.7554577,0.21105342,-0.002328083,0.5651141,0.9076214,0.56846,0.88792473,0.2736662,0.67600715,-0.072546124,0.45901105,-0.16198818,0.3344458,-0.41737992,0.20698377,797.3993,815.12823,801.8315,805.05493,828.022,0.38018798828125,-0.13616943359375,0.89935302734375,6.437530517578125,-3.342132568359375,-2.392578125,1.0,1.0,1.0,1.0,1.0,20.0,
2023-09-08 00:26:03.514,-0.06305021,0.594612,0.3421298,0.059949994,0.13171703,0.7554577,0.21105342,-0.002328083,0.5651141,0.9076214,0.56846,0.88792473,0.2736662,0.67600715,-0.072546124,0.45901105,-0.16198818,0.3344458,-0.41737992,0.20698377,801.4286,824.3956,796.5934,798.60803,745.42126,0.40142822265625,-0.13690185546875,0.9072265625,5.330963134765625,-3.768310546875,-2.34771728515625,1.0,1.0,1.0,1.0,1.0,20.0,
2023-09-08 00:26:03.520,-0.075760216,0.594612,0.31051615,0.049608342,0.113471866,0.7554577,0.20615943,-0.015626183,0.56444365,0.9076214,0.56634796,0.8867956,0.2758513,0.67600715,-0.07186436,0.4629641,-0.1515325,0.3344458,-0.4160072,0.2225335,801.02563,830.84247,795.38464,801.02563,775.2381,0.40142822265625,-0.13690185546875,0.9072265625,5.330963134765625,-3.768310546875,-2.34771728515625,1.0,1.0,1.0,1.0,1.0,20.0,
2023-09-08 00:26:03.594,-0.075760216,0.594612,0.31051615,0.049608342,0.113471866,0.7554577,0.20615943,-0.015626183,0.56444365,0.9076214,0.56634796,0.8867956,0.2758513,0.67600715,-0.07186436,0.4629641,-0.1515325,0.3344458,-0.4160072,0.2225335,807.47253,823.5897,801.02563,791.3553,714.7985,0.4185791015625,-0.144287109375,0.90673828125,3.491668701171875,-3.626251220703125,0.814971923828125,1.0,1.0,1.0,1.0,1.0,20.0,
2023-09-08 00:26:03.649,-0.075760216,0.594612,0.31051615,0.049608342,0.113471866,0.7554577,0.20615943,-0.015626183,0.56444365,0.9076214,0.56634796,0.8867956,0.2758513,0.67600715,-0.07186436,0.4629641,-0.1515325,0.3344458,-0.4160072,0.2225335,801.4286,793.36993,794.57874,797.3993,724.0659,0.39764404296875,-0.13909912109375,0.89739990234375,4.65057373046875,-2.2430419921875,1.996307373046875,1.0,1.0,1.0,1.0,1.0,20.0,
2023-09-08 00:26:03.659,-0.068603225,0.594612,0.28392902,0.038677346,0.098374,0.7554577,0.20615436,-0.01236172,0.5540693,0.9076214,0.5638807,0.8835995,0.27505755,0.67600715,-0.06558252,0.4581799,-0.14936502,0.3344458,-0.4049937,0.23604687,792.5641,725.6777,801.4286,801.02563,1261.1721,0.39764404296875,-0.13909912109375,0.89739990234375,4.65057373046875,-2.2430419921875,1.996307373046875,1.0,1.0,1.0,1.0,1.0,20.0,
2023-09-08 00:26:03.717,-0.068603225,0.594612,0.28392902,0.038677346,0.098374,0.7554577,0.20615436,-0.01236172,0.5540693,0.9076214,0.5638807,0.8835995,0.27505755,0.67600715,-0.06558252,0.4581799,-0.14936502,0.3344458,-0.4049937,0.23604687,800.2198,822.7839,793.36993,786.1172,661.2088,0.34954833984375,-0.143798828125,0.89886474609375,5.734710693359375,-1.158905029296875,-1.39068603515625,1.0,1.0,1.0,1.0,1.0,20.0,
2023-09-08 00:26:03.723,-0.060310747,0.594612,0.2567557,0.029232766,0.08512924,0.7554577,0.20639116,0.0071131224,0.5521456,0.9076214,0.55193007,0.84827316,0.2698953,0.67600715,-0.058953386,0.44978568,-0.1505341,0.3344458,-0.38036585,0.23998797,801.4286,787.326,801.4286,797.3993,870.32965,0.34954833984375,-0.143798828125,0.89886474609375,5.734710693359375,-1.158905029296875,-1.39068603515625,1.0,1.0,1.0,1.0,1.0,20.0,
2023-09-08 00:26:03.784,-0.060310747,0.594612,0.2567557,0.029232766,0.08512924,0.7554577,0.20639116,0.0071131224,0.5521456,0.9076214,0.55193007,0.84827316,0.2698953,0.67600715,-0.058953386,0.44978568,-0.1505341,0.3344458,-0.38036585,0.23998797,794.57874,855.82416,792.96704,786.1172,699.4872,0.42108154296875,-0.13751220703125,0.91351318359375,5.48797607421875,-4.837493896484375,-4.74029541015625,1.0,1.0,1.0,1.0,1.0,20.0,
2023-09-08 00:26:03.823,-0.060310747,0.594612,0.2567557,0.029232766,0.08512924,0.7554577,0.20639116,0.0071131224,0.5521456,0.9076214,0.55193007,0.84827316,0.2698953,0.67600715,-0.058953386,0.44978568,-0.1505341,0.3344458,-0.38036585,0.23998797,795.38464,782.8938,805.05493,791.75824,698.68134,0.4322509765625,-0.13690185546875,0.912841796875,3.461761474609375,-3.78326416015625,2.549591064453125,1.0,1.0,1.0,1.0,1.0,20.0,
2023-09-08 00:26:03.831,-0.060000226,0.594612,0.22770792,0.019957855,0.07405788,0.7554577,0.20279518,0.026938587,0.5521456,0.9076214,0.521209,0.79875547,0.26153666,0.67600715,-0.057618853,0.44536504,-0.14720339,0.3344458,-0.34970313,0.23292452,796.5934,761.53845,799.011,788.93774,628.5714,0.4322509765625,-0.13690185546875,0.912841796875,3.461761474609375,-3.78326416015625,2.549591064453125,1.0,1.0,1.0,1.0,1.0,20.0,
2023-09-08 00:26:03.845,-0.060000226,0.594612,0.22770792,0.019957855,0.07405788,0.7554577,0.20279518,0.026938587,0.5521456,0.9076214,0.521209,0.79875547,0.26153666,0.67600715,-0.057618853,0.44536504,-0.14720339,0.3344458,-0.34970313,0.23292452,797.8022,723.2601,801.02563,798.20514,893.69965,0.3673095703125,-0.14556884765625,0.8853759765625,3.21502685546875,-0.2093505859375,1.622467041015625,1.0,1.0,1.0,1.0,1.0,20.0,
2023-09-08 00:26:03.902,-0.060000226,0.594612,0.22770792,0.019957855,0.07405788,0.7554577,0.20279518,0.026938587,0.5521456,0.9076214,0.521209,0.79875547,0.26153666,0.67600715,-0.057618853,0.44536504,-0.14720339,0.3344458,-0.34970313,0.23292452,795.78754,807.8755,792.1612,803.44324,750.65936,0.35699462890625,-0.15008544921875,0.889404296875,6.6094970703125,-1.00189208984375,-6.138458251953125,1.0,1.0,1.0,1.0,1.0,20.0,
2023-09-08 00:26:03.966,-0.05378617,0.594612,0.19933538,0.0058334996,0.06318597,0.7554577,0.19378018,0.034403004,0.55016476,0.9076214,0.4977965,0.7745798,0.25123316,0.67600715,-0.06389306,0.44858542,-0.13417369,0.3344458,-0.3234452,0.22078209,804.65204,866.7033,803.44324,790.14655,666.04395,0.35699462890625,-0.15008544921875,0.889404296875,6.6094970703125,-1.00189208984375,-6.138458251953125,1.0,1.0,1.0,1.0,1.0,20.0,
2023-09-08 00:26:04.001,-0.05378617,0.594612,0.19933538,0.0058334996,0.06318597,0.7554577,0.19378018,0.034403004,0.55016476,0.9076214,0.4977965,0.7745798,0.25123316,0.67600715,-0.06389306,0.44858542,-0.13417369,0.3344458,-0.3234452,0.22078209,814.7253,846.9597,810.696,801.4286,683.36993,0.43511962890625,-0.1240234375,0.91943359375,7.2076416015625,-6.3104248046875,-3.21502685546875,1.0,1.0,1.0,1.0,1.0,20.0,
2023-09-08 00:26:04.017,-0.05378617,0.594612,0.19933538,0.0058334996,0.06318597,0.7554577,0.19378018,0.034403004,0.55016476,0.9076214,0.4977965,0.7745798,0.25123316,0.67600715,-0.06389306,0.44858542,-0.13417369,0.3344458,-0.3234452,0.22078209,792.1612,790.54944,803.8461,801.4286,694.65204,0.41473388671875,-0.13116455078125,0.91119384765625,2.572021484375,-2.639312744140625,2.392578125,1.0,1.0,1.0,1.0,1.0,20.0,
2023-09-08 00:26:04.020,-0.042001177,0.594612,0.17099424,-0.009295152,0.048760734,0.7554577,0.1788079,0.027662685,0.529672,0.9076214,0.4706352,0.7480179,0.23858431,0.67600715,-0.075042106,0.45587185,-0.11309487,0.3344458,-0.30549282,0.21109805,797.3993,764.35895,798.60803,792.5641,685.38464,0.41473388671875,-0.13116455078125,0.91119384765625,2.572021484375,-2.639312744140625,2.392578125,1.0,1.0,1.0,1.0,1.0,20.0,
2023-09-08 00:26:04.081,-0.042001177,0.594612,0.17099424,-0.009295152,0.048760734,0.7554577,0.1788079,0.027662685,0.529672,0.9076214,0.4706352,0.7480179,0.23858431,0.67600715,-0.075042106,0.45587185,-0.11309487,0.3344458,-0.30549282,0.21109805,794.9817,805.4579,797.3993,790.54944,686.5934,0.370361328125,-0.14508056640625,0.88592529296875,3.701019287109375,-0.40374755859375,1.502838134765625,1.0,1.0,1.0,1.0,1.0,20.0,
2023-09-08 00:26:04.123,-0.042001177,0.594612,0.17099424,-0.009295152,0.048760734,0.7554577,0.1788079,0.027662685,0.529672,0.9076214,0.4706352,0.7480179,0.23858431,0.67600715,-0.075042106,0.45587185,-0.11309487,0.3344458,-0.30549282,0.21109805,803.44324,794.57874,797.8022,788.5348,750.2564,0.38555908203125,-0.13751220703125,0.89361572265625,6.160888671875,-3.177642822265625,-1.727142333984375,1.0,1.0,1.0,1.0,1.0,20.0,
2023-09-08 00:26:04.127,-0.030406417,0.594612,0.13470462,-0.020088788,0.033627905,0.7554577,0.16083117,0.01752061,0.43740585,0.9076214,0.39429247,0.7020996,0.22372466,0.67600715,-0.08452971,0.46068892,-0.09071903,0.3344458,-0.2938547,0.20680873,805.4579,809.0842,801.8315,790.54944,805.8608,0.38555908203125,-0.13751220703125,0.89361572265625,6.160888671875,-3.177642822265625,-1.727142333984375,1.0,1.0,1.0,1.0,1.0,20.0,
2023-09-08 00:26:04.159,-0.030406417,0.594612,0.13470462,-0.020088788,0.033627905,0.7554577,0.16083117,0.01752061,0.43740585,0.9076214,0.39429247,0.7020996,0.22372466,0.67600715,-0.08452971,0.46068892,-0.09071903,0.3344458,-0.2938547,0.20680873,800.6227,813.1135,801.8315,810.293,761.13556,0.39898681640625,-0.1370849609375,0.9068603515625,4.56085205078125,-4.2767333984375,-1.308441162109375,1.0,1.0,1.0,1.0,1.0,20.0,
2023-09-08 00:26:04.203,-0.016919183,0.594612,0.09307877,-0.02319269,0.027319342,0.7554577,0.14986336,0.023958167,0.3264415,0.9076214,0.2829945,0.6332317,0.21018158,0.67600715,-0.086075,0.4600201,-0.07274128,0.3344458,-0.28546438,0.2033143,790.54944,817.5458,801.02563,796.5934,737.76556,0.39898681640625,-0.1370849609375,0.9068603515625,4.56085205078125,-4.2767333984375,-1.308441162109375,1.0,1.0,1.0,1.0,1.0,20.0,
2023-09-08 00:26:04.293,-0.016919183,0.594612,0.09307877,-0.02319269,0.027319342,0.7554577,0.14986336,0.023958167,0.3264415,0.9076214,0.2829945,0.6332317,0.21018158,0.67600715,-0.086075,0.4600201,-0.07274128,0.3344458,-0.28546438,0.2033143,798.60803,830.0366,798.20514,789.7436,690.2198,0.40606689453125,-0.1424560546875,0.9080810546875,4.179534912109375,-3.476715087890625,0.022430419921875,1.0,1.0,1.0,1.0,1.0,20.0,
2023-09-08 00:26:04.305,-0.016919183,0.594612,0.09307877,-0.02319269,0.027319342,0.7554577,0.14986336,0.023958167,0.3264415,0.9076214,0.2829945,0.6332317,0.21018158,0.67600715,-0.086075,0.4600201,-0.07274128,0.3344458,-0.28546438,0.2033143,792.5641,834.87177,801.8315,813.91943,801.8315,0.3900146484375,-0.14178466796875,0.90789794921875,4.007568359375,-2.370147705078125,-0.665435791015625,1.0,1.0,1.0,1.0,1.0,20.0,
2023-09-08 00:26:04.311,-0.0022609734,0.594612,0.057088092,-0.015911084,0.039713513,0.7554577,0.15425001,0.060522977,0.22192898,0.9076214,0.20829174,0.5979898,0.20250966,0.67600715,-0.07893222,0.45687124,-0.059567295,0.3344458,-0.280443,0.19286512,799.011,823.9927,803.0403,794.17584,669.67035,0.3900146484375,-0.14178466796875,0.90789794921875,4.007568359375,-2.370147705078125,-0.665435791015625,1.0,1.0,1.0,1.0,1.0,20.0,
2023-09-08 00:26:04.404,-0.0022609734,0.594612,0.057088092,-0.015911084,0.039713513,0.7554577,0.15425001,0.060522977,0.22192898,0.9076214,0.20829174,0.5979898,0.20250966,0.67600715,-0.07893222,0.45687124,-0.059567295,0.3344458,-0.280443,0.19286512,797.8022,846.9597,808.68134,796.99634,868.315,0.382568359375,-0.14178466796875,0.8935546875,4.38140869140625,-2.100982666015625,-1.188812255859375,1.0,1.0,1.0,1.0,1.0,20.0,
2023-09-08 00:26:04.421,-0.0022609734,0.594612,0.057088092,-0.015911084,0.039713513,0.7554577,0.15425001,0.060522977,0.22192898,0.9076214,0.20829174,0.5979898,0.20250966,0.67600715,-0.07893222,0.45687124,-0.059567295,0.3344458,-0.280443,0.19286512,799.81683,823.1868,796.5934,790.14655,624.5421,0.39044189453125,-0.13262939453125,0.89794921875,6.138458251953125,-3.611297607421875,0.112152099609375,1.0,1.0,1.0,1.0,1.0,20.0,
2023-09-08 00:26:04.429,0.013448748,0.594612,0.02573682,0.002070975,0.069964334,0.7554577,0.16579004,0.11374702,0.15231748,0.9076214,0.19292414,0.58467776,0.19960786,0.67600715,-0.069361545,0.45677066,-0.04671851,0.3344458,-0.27897856,0.17369875,792.1612,859.85345,792.5641,794.9817,762.74725,0.39044189453125,-0.13262939453125,0.89794921875,6.138458251953125,-3.611297607421875,0.112152099609375,1.0,1.0,1.0,1.0,1.0,20.0,
2023-09-08 00:26:04.507,0.013448748,0.594612,0.02573682,0.002070975,0.069964334,0.7554577,0.16579004,0.11374702,0.15231748,0.9076214,0.19292414,0.58467776,0.19960786,0.67600715,-0.069361545,0.45677066,-0.04671851,0.3344458,-0.27897856,0.17369875,795.38464,843.73627,796.1905,789.34064,654.7619,0.38397216796875,-0.13116455078125,0.9093017578125,5.794525146484375,-3.6785888671875,-1.637420654296875,1.0,1.0,1.0,1.0,1.0,20.0,
2023-09-08 00:26:04.560,0.013448748,0.594612,0.02573682,0.002070975,0.069964334,0.7554577,0.16579004,0.11374702,0.15231748,0.9076214,0.19292414,0.58467776,0.19960786,0.67600715,-0.069361545,0.45677066,-0.04671851,0.3344458,-0.27897856,0.17369875,788.93774,792.5641,792.5641,788.1319,678.1319,0.40460205078125,-0.14068603515625,0.90533447265625,4.97955322265625,-2.893524169921875,-2.99072265625,1.0,1.0,1.0,1.0,1.0,20.0,
2023-09-08 00:26:04.561,0.032855563,0.594612,-0.013886815,0.021025032,0.1084464,0.7554577,0.16910464,0.15944928,0.14467777,0.9076214,0.20348407,0.5840966,0.19606212,0.67600715,-0.0663124,0.46092093,-0.028805725,0.3344458,-0.2782633,0.15037139,783.2967,795.78754,792.96704,794.57874,732.1245,0.40460205078125,-0.14068603515625,0.90533447265625,4.97955322265625,-2.893524169921875,-2.99072265625,1.0,1.0,1.0,1.0,1.0,20.0,
2023-09-08 00:26:04.599,0.032855563,0.594612,-0.013886815,0.021025032,0.1084464,0.7554577,0.16910464,0.15944928,0.14467777,0.9076214,0.20348407,0.5840966,0.19606212,0.67600715,-0.0663124,0.46092093,-0.028805725,0.3344458,-0.2782633,0.15037139,795.78754,782.8938,792.5641,793.36993,728.0952,0.407958984375,-0.14990234375,0.908203125,4.2169189453125,-3.970184326171875,0.112152099609375,1.0,1.0,1.0,1.0,1.0,20.0,
2023-09-08 00:26:04.629,0.032855563,0.594612,-0.013886815,0.021025032,0.1084464,0.7554577,0.16910464,0.15944928,0.14467777,0.9076214,0.20348407,0.5840966,0.19606212,0.67600715,-0.0663124,0.46092093,-0.028805725,0.3344458,-0.2782633,0.15037139,810.293,811.50183,800.2198,802.23444,789.34064,0.42340087890625,-0.14813232421875,0.89990234375,3.865509033203125,-4.194488525390625,2.983245849609375,1.0,1.0,1.0,1.0,1.0,20.0,
2023-09-08 00:26:04.632,0.05380774,0.594612,-0.071692415,0.03394069,0.1447735,0.7554577,0.16125152,0.18961073,0.14467777,0.9076214,0.20910202,0.60330456,0.18932815,0.67600715,-0.07241313,0.4642626,-0.007090542,0.3344458,-0.27501056,0.12880567,792.5641,755.4945,797.8022,801.4286,783.2967,0.42340087890625,-0.14813232421875,0.89990234375,3.865509033203125,-4.194488525390625,2.983245849609375,1.0,1.0,1.0,1.0,1.0,20.0,
2023-09-08 00:26:04.668,0.05380774,0.594612,-0.071692415,0.03394069,0.1447735,0.7554577,0.16125152,0.18961073,0.14467777,0.9076214,0.20910202,0.60330456,0.18932815,0.67600715,-0.07241313,0.4642626,-0.007090542,0.3344458,-0.27501056,0.12880567,799.81683,777.25275,790.54944,786.1172,686.99634,0.38909912109375,-0.13189697265625,0.89080810546875,5.316009521484375,-1.607513427734375,1.652374267578125,1.0,1.0,1.0,1.0,1.0,20.0,
2023-09-08 00:26:04.739,0.07499504,0.594612,-0.13392025,0.041304003,0.17332248,0.7554577,0.15527326,0.21897236,0.14650731,0.9076214,0.23391488,0.63660794,0.18135384,0.67600715,-0.083183,0.46109346,0.011958999,0.3344458,-0.26920146,0.10897236,792.1612,792.1612,794.57874,799.41394,775.64105,0.38909912109375,-0.13189697265625,0.89080810546875,5.316009521484375,-1.607513427734375,1.652374267578125,1.0,1.0,1.0,1.0,1.0,20.0,
2023-09-08 00:26:04.785,0.07499504,0.594612,-0.13392025,0.041304003,0.17332248,0.7554577,0.15527326,0.21897236,0.14650731,0.9076214,0.23391488,0.63660794,0.18135384,0.67600715,-0.083183,0.46109346,0.011958999,0.3344458,-0.26920146,0.10897236,795.78754,823.1868,790.9524,791.3553,620.9158,0.35003662109375,-0.1329345703125,0.89202880859375,5.988922119140625,-0.979461669921875,-3.36456298828125,1.0,1.0,1.0,1.0,1.0,20.0,
2023-09-08 00:26:04.823,0.07499504,0.594612,-0.13392025,0.041304003,0.17332248,0.7554577,0.15527326,0.21897236,0.14650731,0.9076214,0.23391488,0.63660794,0.18135384,0.67600715,-0.083183,0.46109346,0.011958999,0.3344458,-0.26920146,0.10897236,800.6227,861.4652,796.99634,788.5348,632.6007,0.404052734375,-0.1422119140625,0.90960693359375,5.75714111328125,-4.882354736328125,-5.585174560546875,1.0,1.0,1.0,1.0,1.0,20.0,
2023-09-08 00:26:04.827,0.09438959,0.594612,-0.16290143,0.046970583,0.19238818,0.7554577,0.16495201,0.26728395,0.15159176,0.9076214,0.26430586,0.66602093,0.17484537,0.67600715,-0.091492474,0.45223004,0.023757176,0.3344458,-0.26374993,0.08670949,794.9817,852.1978,797.8022,792.1612,796.5934,0.404052734375,-0.1422119140625,0.90960693359375,5.75714111328125,-4.882354736328125,-5.585174560546875,1.0,1.0,1.0,1.0,1.0,20.0,
2023-09-08 00:26:04.904,0.09438959,0.594612,-0.16290143,0.046970583,0.19238818,0.7554577,0.16495201,0.26728395,0.15159176,0.9076214,0.26430586,0.66602093,0.17484537,0.67600715,-0.091492474,0.45223004,0.023757176,0.3344458,-0.26374993,0.08670949,782.49084,846.9597,799.41394,797.8022,682.5641,0.44415283203125,-0.1416015625,0.91522216796875,4.373931884765625,-5.18890380859375,-0.25421142578125,1.0,1.0,1.0,1.0,1.0,20.0,
2023-09-08 00:26:04.915,0.09438959,0.594612,-0.16290143,0.046970583,0.19238818,0.7554577,0.16495201,0.26728395,0.15159176,0.9076214,0.26430586,0.66602093,0.17484537,0.67600715,-0.091492474,0.45223004,0.023757176,0.3344458,-0.26374993,0.08670949,785.7143,745.0183,793.36993,759.92676,746.63007,0.40167236328125,-0.14801025390625,0.88885498046875,2.938385009765625,-2.519683837890625,3.75335693359375,1.0,1.0,1.0,1.0,1.0,20.0,
2023-09-08 00:26:04.921,0.09900646,0.594612,-0.14914264,0.052168254,0.20470716,0.7554577,0.19060066,0.33062285,0.15159176,0.9076214,0.241327,0.6735656,0.16979584,0.67600715,-0.09518343,0.44474506,0.028528254,0.3344458,-0.26199868,0.059577852,788.93774,806.26373,799.41394,799.41394,832.0513,0.40167236328125,-0.14801025390625,0.88885498046875,2.938385009765625,-2.519683837890625,3.75335693359375,1.0,1.0,1.0,1.0,1.0,20.0,
2023-09-08 00:26:04.996,0.09900646,0.594612,-0.14914264,0.052168254,0.20470716,0.7554577,0.19060066,0.33062285,0.15159176,0.9076214,0.241327,0.6735656,0.16979584,0.67600715,-0.09518343,0.44474506,0.028528254,0.3344458,-0.26199868,0.059577852,793.7729,833.2601,796.99634,791.3553,745.42126,0.35479736328125,-0.14154052734375,0.87872314453125,6.32537841796875,-0.43365478515625,-0.8673095703125,1.0,1.0,1.0,1.0,1.0,20.0,
2023-09-08 00:26:05.008,0.0943878,0.594612,-0.119241446,0.059614755,0.21461114,0.7554577,0.22279504,0.38616547,0.15159176,0.9076214,0.20853628,0.64625466,0.16531125,0.67600715,-0.096511655,0.44454566,0.029268427,0.3344458,-0.26451907,0.030523378,810.696,830.84247,805.05493,807.8755,748.24176,0.35479736328125,-0.14154052734375,0.87872314453125,6.32537841796875,-0.43365478515625,-0.8673095703125,1.0,1.0,1.0,1.0,1.0,20.0,
2023-09-08 00:26:05.045,0.0943878,0.594612,-0.119241446,0.059614755,0.21461114,0.7554577,0.22279504,0.38616547,0.15159176,0.9076214,0.20853628,0.64625466,0.16531125,0.67600715,-0.096511655,0.44454566,0.029268427,0.3344458,-0.26451907,0.030523378,810.696,852.6007,803.8461,803.0403,648.315,0.42132568359375,-0.11883544921875,0.9195556640625,7.31231689453125,-5.839385986328125,-4.3365478515625,1.0,1.0,1.0,1.0,1.0,20.0,
2023-09-08 00:26:05.120,0.0943878,0.594612,-0.119241446,0.059614755,0.21461114,0.7554577,0.22279504,0.38616547,0.15159176,0.9076214,0.20853628,0.64625466,0.16531125,0.67600715,-0.096511655,0.44454566,0.029268427,0.3344458,-0.26451907,0.030523378,790.54944,840.9158,802.6374,801.4286,679.7436,0.412353515625,-0.12261962890625,0.9041748046875,3.63372802734375,-3.60382080078125,0.231781005859375,1.0,1.0,1.0,1.0,1.0,20.0,
2023-09-08 00:26:05.167,0.0943878,0.594612,-0.119241446,0.059614755,0.21461114,0.7554577,0.22279504,0.38616547,0.15159176,0.9076214,0.20853628,0.64625466,0.16531125,0.67600715,-0.096511655,0.44454566,0.029268427,0.3344458,-0.26451907,0.030523378,786.9231,824.3956,790.14655,807.0696,738.97437,0.40240478515625,-0.14794921875,0.8817138671875,2.714080810546875,-2.01873779296875,0.478515625,1.0,1.0,1.0,1.0,1.0,20.0,
2023-09-08 00:26:05.169,0.09939463,0.594612,-0.09303086,0.08204055,0.22561282,0.7554577,0.25354213,0.41865402,0.15730599,0.9076214,0.17417495,0.6350054,0.16145793,0.67600715,-0.095998935,0.45004475,0.029280193,0.3344458,-0.2706908,0.0060834945,788.1319,810.696,790.14655,798.20514,675.7143,0.40240478515625,-0.14794921875,0.8817138671875,2.714080810546875,-2.01873779296875,0.478515625,1.0,1.0,1.0,1.0,1.0,20.0,
2023-09-08 00:26:05.205,0.09939463,0.594612,-0.09303086,0.08204055,0.22561282,0.7554577,0.25354213,0.41865402,0.15730599,0.9076214,0.17417495,0.6350054,0.16145793,0.67600715,-0.095998935,0.45004475,0.029280193,0.3344458,-0.2706908,0.0060834945,802.23444,811.0989,795.38464,796.99634,655.16486,0.392333984375,-0.14056396484375,0.9068603515625,5.345916748046875,-3.6785888671875,0.605621337890625,1.0,1.0,1.0,1.0,1.0,20.0,
2023-09-08 00:26:05.246,0.12530234,0.594612,-0.07400052,0.13373752,0.2382114,0.7554577,0.27800727,0.4294482,0.17381127,0.9076214,0.14293298,0.68269616,0.15757549,0.67600715,-0.09007178,0.4547427,0.028943392,0.3344458,-0.28180346,-0.008967601,790.9524,819.5604,793.36993,782.49084,728.0952,0.392333984375,-0.14056396484375,0.9068603515625,5.345916748046875,-3.6785888671875,0.605621337890625,1.0,1.0,1.0,1.0,1.0,20.0,
2023-09-08 00:26:05.277,0.12530234,0.594612,-0.07400052,0.13373752,0.2382114,0.7554577,0.27800727,0.4294482,0.17381127,0.9076214,0.14293298,0.68269616,0.15757549,0.67600715,-0.09007178,0.4547427,0.028943392,0.3344458,-0.28180346,-0.008967601,803.44324,795.38464,797.8022,787.72894,703.5165,0.4017333984375,-0.131103515625,0.90020751953125,5.301055908203125,-3.289794921875,-0.575714111328125,1.0,1.0,1.0,1.0,1.0,20.0,
2023-09-08 00:26:05.336,0.12530234,0.594612,-0.07400052,0.13373752,0.2382114,0.7554577,0.27800727,0.4294482,0.17381127,0.9076214,0.14293298,0.68269616,0.15757549,0.67600715,-0.09007178,0.4547427,0.028943392,0.3344458,-0.28180346,-0.008967601,803.44324,810.696,805.4579,795.38464,682.5641,0.3990478515625,-0.13140869140625,0.89520263671875,4.47113037109375,-2.811279296875,-0.097198486328125,1.0,1.0,1.0,1.0,1.0,20.0,
2023-09-08 00:26:05.339,0.16465752,0.594612,-0.063974395,0.20121765,0.2513845,0.7554577,0.29508343,0.43109748,0.19924486,0.9076214,0.12363141,0.7187077,0.15173395,0.67600715,-0.07287578,0.45462772,0.02813877,0.3344458,-0.30024707,-0.014968746,811.9048,801.8315,799.011,796.99634,698.68134,0.3990478515625,-0.13140869140625,0.89520263671875,4.47113037109375,-2.811279296875,-0.097198486328125,1.0,1.0,1.0,1.0,1.0,20.0,
2023-09-08 00:26:05.385,0.16465752,0.594612,-0.063974395,0.20121765,0.2513845,0.7554577,0.29508343,0.43109748,0.19924486,0.9076214,0.12363141,0.7187077,0.15173395,0.67600715,-0.07287578,0.45462772,0.02813877,0.3344458,-0.30024707,-0.014968746,809.4872,801.8315,799.011,814.3223,804.2491,0.39849853515625,-0.13177490234375,0.8994140625,4.882354736328125,-3.686065673828125,0.2691650390625,1.0,1.0,1.0,1.0,1.0,20.0,
2023-09-08 00:26:05.462,0.16465752,0.594612,-0.063974395,0.20121765,0.2513845,0.7554577,0.29508343,0.43109748,0.19924486,0.9076214,0.12363141,0.7187077,0.15173395,0.67600715,-0.07287578,0.45462772,0.02813877,0.3344458,-0.30024707,-0.014968746,800.2198,783.2967,795.38464,813.5165,936.0073,0.393310546875,-0.13348388671875,0.897216796875,5.7421875,-3.102874755859375,-2.46734619140625,1.0,1.0,1.0,1.0,1.0,20.0,
2023-09-08 00:26:05.470,0.20409063,0.594612,-0.062378276,0.26930273,0.26162508,0.7554577,0.30660412,0.43694445,0.22207329,0.9076214,0.121795006,0.7385874,0.14229052,0.67600715,-0.04426752,0.45126292,0.024156451,0.3344458,-0.32703736,-0.018391406,804.2491,807.47253,789.34064,791.3553,875.56775,0.393310546875,-0.13348388671875,0.897216796875,5.7421875,-3.102874755859375,-2.46734619140625,1.0,1.0,1.0,1.0,1.0,20.0,
2023-09-08 00:26:05.539,0.20409063,0.594612,-0.062378276,0.26930273,0.26162508,0.7554577,0.30660412,0.43694445,0.22207329,0.9076214,0.121795006,0.7385874,0.14229052,0.67600715,-0.04426752,0.45126292,0.024156451,0.3344458,-0.32703736,-0.018391406,800.6227,817.9487,810.293,799.81683,640.2564,0.41656494140625,-0.13714599609375,0.90484619140625,4.91973876953125,-3.566436767578125,-2.923431396484375,1.0,1.0,1.0,1.0,1.0,20.0,
2023-09-08 00:26:05.544,0.23413438,0.594612,-0.06022713,0.3119494,0.2666053,0.7554577,0.3134848,0.45138183,0.23803747,0.9076214,0.122484654,0.74109733,0.12966225,0.67600715,-0.012431912,0.45086166,0.013723646,0.3344458,-0.35956624,-0.023891708,799.41394,802.23444,801.8315,784.90845,635.82416,0.41656494140625,-0.13714599609375,0.90484619140625,4.91973876953125,-3.566436767578125,-2.923431396484375,1.0,1.0,1.0,1.0,1.0,20.0,
2023-09-08 00:26:05.575,0.23413438,0.594612,-0.06022713,0.3119494,0.2666053,0.7554577,0.3134848,0.45138183,0.23803747,0.9076214,0.122484654,0.74109733,0.12966225,0.67600715,-0.012431912,0.45086166,0.013723646,0.3344458,-0.35956624,-0.023891708,794.17584,819.9634,809.4872,793.7729,632.1978,0.42803955078125,-0.13970947265625,0.90570068359375,4.044952392578125,-3.940277099609375,2.213134765625,1.0,1.0,1.0,1.0,1.0,20.0,
2023-09-08 00:26:05.609,0.23413438,0.594612,-0.06022713,0.3119494,0.2666053,0.7554577,0.3134848,0.45138183,0.23803747,0.9076214,0.122484654,0.74109733,0.12966225,0.67600715,-0.012431912,0.45086166,0.013723646,0.3344458,-0.35956624,-0.023891708,799.81683,805.05493,801.8315,796.1905,581.8315,0.40301513671875,-0.12957763671875,0.8936767578125,4.83001708984375,-2.340240478515625,1.734619140625,1.0,1.0,1.0,1.0,1.0,20.0,
2023-09-08 00:26:05.617,0.25248274,0.594612,-0.045470025,0.3234552,0.26673675,0.7554577,0.3142243,0.4696803,0.2792409,0.9076214,0.10663078,0.74109733,0.11576344,0.67600715,0.011334181,0.45905176,-0.0019111776,0.3344458,-0.39137805,-0.02790947,819.5604,827.619,795.78754,805.4579,649.12085,0.40301513671875,-0.12957763671875,0.8936767578125,4.83001708984375,-2.340240478515625,1.734619140625,1.0,1.0,1.0,1.0,1.0,20.0,
2023-09-08 00:26:05.643,0.25248274,0.594612,-0.045470025,0.3234552,0.26673675,0.7554577,0.3142243,0.4696803,0.2792409,0.9076214,0.10663078,0.74109733,0.11576344,0.67600715,0.011334181,0.45905176,-0.0019111776,0.3344458,-0.39137805,-0.02790947,807.0696,813.1135,799.81683,813.91943,756.30035,0.39862060546875,-0.131103515625,0.888916015625,4.5159912109375,-2.041168212890625,-2.73651123046875,1.0,1.0,1.0,1.0,1.0,20.0,
2023-09-08 00:26:05.745,0.25248274,0.594612,-0.045470025,0.3234552,0.26673675,0.7554577,0.3142243,0.4696803,0.2792409,0.9076214,0.10663078,0.74109733,0.11576344,0.67600715,0.011334181,0.45905176,-0.0019111776,0.3344458,-0.39137805,-0.02790947,792.1612,797.8022,800.2198,807.47253,753.47986,0.411376953125,-0.12652587890625,0.892578125,4.83001708984375,-1.9439697265625,-1.27105712890625,1.0,1.0,1.0,1.0,1.0,20.0,
2023-09-08 00:26:05.785,0.2659024,0.594612,-0.01868087,0.31179938,0.26529545,0.7554577,0.30676743,0.48266032,0.28381112,0.9076214,0.104281835,0.74109733,0.10170437,0.67600715,0.018889856,0.47449574,-0.017092424,0.3344458,-0.41492048,-0.019560488,800.2198,809.4872,789.34064,790.54944,759.5238,0.411376953125,-0.12652587890625,0.892578125,4.83001708984375,-1.9439697265625,-1.27105712890625,1.0,1.0,1.0,1.0,1.0,20.0,
2023-09-08 00:26:05.804,0.2659024,0.594612,-0.01868087,0.31179938,0.26529545,0.7554577,0.30676743,0.48266032,0.28381112,0.9076214,0.104281835,0.74109733,0.10170437,0.67600715,0.018889856,0.47449574,-0.017092424,0.3344458,-0.41492048,-0.019560488,788.1319,826.0073,799.011,798.20514,759.12085,0.382568359375,-0.14288330078125,0.9071044921875,3.970184326171875,-2.071075439453125,-0.01495361328125,1.0,1.0,1.0,1.0,1.0,20.0,
2023-09-08 00:26:05.836,0.2659024,0.594612,-0.01868087,0.31179938,0.26529545,0.7554577,0.30676743,0.48266032,0.28381112,0.9076214,0.104281835,0.74109733,0.10170437,0.67600715,0.018889856,0.47449574,-0.017092424,0.3344458,-0.41492048,-0.019560488,792.96704,821.1722,790.14655,799.011,704.7253,0.42694091796875,-0.1468505859375,0.91583251953125,4.508514404296875,-5.12908935546875,-2.61688232421875,1.0,1.0,1.0,1.0,1.0,20.0,
2023-09-08 00:26:05.839,0.27650413,0.594612,0.013339758,0.28499404,0.26229066,0.7554577,0.29105186,0.48328763,0.3207618,0.9076214,0.12899472,0.74109733,0.091267616,0.67600715,0.010345011,0.49072728,-0.02727691,0.3344458,-0.42576674,0.004731851,796.5934,789.34064,790.9524,808.2784,878.3883,0.42694091796875,-0.1468505859375,0.91583251953125,4.508514404296875,-5.12908935546875,-2.61688232421875,1.0,1.0,1.0,1.0,1.0,20.0,
2023-09-08 00:26:05.930,0.27650413,0.594612,0.013339758,0.28499404,0.26229066,0.7554577,0.29105186,0.48328763,0.3207618,0.9076214,0.12899472,0.74109733,0.091267616,0.67600715,0.010345011,0.49072728,-0.02727691,0.3344458,-0.42576674,0.004731851,792.5641,814.7253,786.9231,775.2381,654.7619,0.43304443359375,-0.1337890625,0.8980712890625,3.282318115234375,-2.22808837890625,2.4822998046875,1.0,1.0,1.0,1.0,1.0,20.0,
2023-09-08 00:26:05.964,0.27650413,0.594612,0.013339758,0.28499404,0.26229066,0.7554577,0.29105186,0.48328763,0.3207618,0.9076214,0.12899472,0.74109733,0.091267616,0.67600715,0.010345011,0.49072728,-0.02727691,0.3344458,-0.42576674,0.004731851,797.8022,810.293,798.60803,793.36993,664.43225,0.3697509765625,-0.14947509765625,0.87042236328125,3.566436767578125,-0.13458251953125,2.9010009765625,1.0,1.0,1.0,1.0,1.0,20.0,
2023-09-08 00:26:05.968,0.2773463,0.594612,0.056831837,0.255484,0.25484955,0.7554577,0.27016214,0.47138983,0.37239674,0.9076214,0.13800065,0.74109733,0.09388097,0.67600715,-0.006517866,0.50238407,-0.033755668,0.3344458,-0.42488113,0.03430986,798.20514,787.326,796.1905,809.89014,919.4872,0.3697509765625,-0.14947509765625,0.87042236328125,3.566436767578125,-0.13458251953125,2.9010009765625,1.0,1.0,1.0,1.0,1.0,20.0,
2023-09-08 00:26:06.004,0.2773463,0.594612,0.056831837,0.255484,0.25484955,0.7554577,0.27016214,0.47138983,0.37239674,0.9076214,0.13800065,0.74109733,0.09388097,0.67600715,-0.006517866,0.50238407,-0.033755668,0.3344458,-0.42488113,0.03430986,795.38464,815.9341,796.99634,796.1905,721.6484,0.36358642578125,-0.14898681640625,0.90570068359375,6.766510009765625,-2.564544677734375,-5.271148681640625,1.0,1.0,1.0,1.0,1.0,20.0,
2023-09-08 00:26:06.059,0.27507982,0.594612,0.103259355,0.23537223,0.24103309,0.7554577,0.24994963,0.4550391,0.40829718,0.9076214,0.15533988,0.74109733,0.11510369,0.67600715,-0.02100337,0.5098697,-0.044333532,0.3344458,-0.41733703,0.056536283,800.2198,843.73627,798.20514,790.54944,785.31134,0.36358642578125,-0.14898681640625,0.90570068359375,6.766510009765625,-2.564544677734375,-5.271148681640625,1.0,1.0,1.0,1.0,1.0,20.0,
2023-09-08 00:26:06.132,0.27507982,0.594612,0.103259355,0.23537223,0.24103309,0.7554577,0.24994963,0.4550391,0.40829718,0.9076214,0.15533988,0.74109733,0.11510369,0.67600715,-0.02100337,0.5098697,-0.044333532,0.3344458,-0.41733703,0.056536283,794.9817,766.77655,789.34064,815.5311,927.1429,0.43084716796875,-0.1219482421875,0.91754150390625,6.56463623046875,-6.811370849609375,-2.983245849609375,1.0,1.0,1.0,1.0,1.0,20.0,
2023-09-08 00:26:06.174,0.27507982,0.594612,0.103259355,0.23537223,0.24103309,0.7554577,0.24994963,0.4550391,0.40829718,0.9076214,0.15533988,0.74109733,0.11510369,0.67600715,-0.02100337,0.5098697,-0.044333532,0.3344458,-0.41733703,0.056536283,809.89014,812.71063,796.1905,803.8461,676.1172,0.41400146484375,-0.137939453125,0.89605712890625,1.457977294921875,-0.979461669921875,0.22430419921875,1.0,1.0,1.0,1.0,1.0,20.0,
2023-09-08 00:26:06.181,0.27481124,0.594612,0.14290611,0.22949235,0.223644,0.7554577,0.23761865,0.44226626,0.41156808,0.9076214,0.16176945,0.74109733,0.14679246,0.67600715,-0.028097317,0.51703525,-0.06400896,0.3344458,-0.40663397,0.067063145,778.0586,827.2161,786.52014,783.69965,753.47986,0.41400146484375,-0.137939453125,0.89605712890625,1.457977294921875,-0.979461669921875,0.22430419921875,1.0,1.0,1.0,1.0,1.0,20.0,
2023-09-08 00:26:06.194,0.27481124,0.594612,0.14290611,0.22949235,0.223644,0.7554577,0.23761865,0.44226626,0.41156808,0.9076214,0.16176945,0.74109733,0.14679246,0.67600715,-0.028097317,0.51703525,-0.06400896,0.3344458,-0.40663397,0.067063145,778.86444,812.71063,784.5055,777.6557,723.663,0.3934326171875,-0.1536865234375,0.88818359375,3.596343994140625,-3.087921142578125,1.36077880859375,1.0,1.0,1.0,1.0,1.0,20.0,
2023-09-08 00:26:06.224,0.27481124,0.594612,0.14290611,0.22949235,0.223644,0.7554577,0.23761865,0.44226626,0.41156808,0.9076214,0.16176945,0.74109733,0.14679246,0.67600715,-0.028097317,0.51703525,-0.06400896,0.3344458,-0.40663397,0.067063145,787.326,814.3223,787.326,806.6667,716.4103,0.3916015625,-0.1414794921875,0.89923095703125,6.886138916015625,-4.284210205078125,0.590667724609375,1.0,1.0,1.0,1.0,1.0,20.0,
2023-09-08 00:26:06.234,0.27769512,0.594612,0.16402176,0.23681709,0.20793094,0.7554577,0.23453408,0.43130383,0.41971195,0.9076214,0.14897792,0.74109733,0.17453207,0.67600715,-0.031014545,0.52739805,-0.08997014,0.3344458,-0.39340094,0.06994704,797.8022,833.2601,785.31134,816.7399,760.7326,0.3916015625,-0.1414794921875,0.89923095703125,6.886138916015625,-4.284210205078125,0.590667724609375,1.0,1.0,1.0,1.0,1.0,20.0,
2023-09-08 00:26:06.312,0.27769512,0.594612,0.16402176,0.23681709,0.20793094,0.7554577,0.23453408,0.43130383,0.41971195,0.9076214,0.14897792,0.74109733,0.17453207,0.67600715,-0.031014545,0.52739805,-0.08997014,0.3344458,-0.39340094,0.06994704,810.696,800.2198,788.1319,796.5934,606.8132,0.41748046875,-0.135009765625,0.904296875,5.443115234375,-5.14404296875,-0.3289794921875,1.0,1.0,1.0,1.0,1.0,20.0,
2023-09-08 00:26:06.344,0.27769512,0.594612,0.16402176,0.23681709,0.20793094,0.7554577,0.23453408,0.43130383,0.41971195,0.9076214,0.14897792,0.74109733,0.17453207,0.67600715,-0.031014545,0.52739805,-0.08997014,0.3344458,-0.39340094,0.06994704,796.1905,795.78754,790.9524,796.99634,734.94507,0.4266357421875,-0.14471435546875,0.9031982421875,4.38140869140625,-3.87298583984375,1.1065673828125,1.0,1.0,1.0,1.0,1.0,20.0,
2023-09-08 00:26:06.345,0.283599,0.594612,0.16644266,0.2550279,0.19658133,0.7554577,0.23400328,0.4112505,0.421665,0.9076214,0.14368433,0.74109733,0.19304754,0.67600715,-0.03423688,0.54222375,-0.11280898,0.3344458,-0.37748557,0.07015864,800.6227,776.4469,787.72894,798.60803,757.50916,0.4266357421875,-0.14471435546875,0.9031982421875,4.38140869140625,-3.87298583984375,1.1065673828125,1.0,1.0,1.0,1.0,1.0,20.0,
2023-09-08 00:26:06.436,0.283599,0.594612,0.16644266,0.2550279,0.19658133,0.7554577,0.23400328,0.4112505,0.421665,0.9076214,0.14368433,0.74109733,0.19304754,0.67600715,-0.03423688,0.54222375,-0.11280898,0.3344458,-0.37748557,0.07015864,800.6227,767.1795,789.7436,799.81683,737.76556,0.4150390625,-0.13031005859375,0.89459228515625,4.53094482421875,-2.803802490234375,0.43365478515625,1.0,1.0,1.0,1.0,1.0,20.0,
2023-09-08 00:26:06.474,0.283599,0.594612,0.16644266,0.2550279,0.19658133,0.7554577,0.23400328,0.4112505,0.421665,0.9076214,0.14368433,0.74109733,0.19304754,0.67600715,-0.03423688,0.54222375,-0.11280898,0.3344458,-0.37748557,0.07015864,800.6227,767.1795,782.49084,786.9231,865.89746,0.389404296875,-0.12432861328125,0.88055419921875,4.912261962890625,-1.457977294921875,-0.605621337890625,1.0,1.0,1.0,1.0,1.0,20.0,
2023-09-08 00:26:06.476,0.29983383,0.594612,0.17180157,0.2733337,0.1891532,0.7554577,0.22601987,0.37736773,0.421665,0.9076214,0.13135661,0.73865294,0.20750439,0.67600715,-0.03749959,0.5609614,-0.12200058,0.3344458,-0.36037952,0.072563164,799.41394,785.7143,786.1172,781.685,709.9634,0.389404296875,-0.12432861328125,0.88055419921875,4.912261962890625,-1.457977294921875,-0.605621337890625,1.0,1.0,1.0,1.0,1.0,20.0,
2023-09-08 00:26:06.508,0.29983383,0.594612,0.17180157,0.2733337,0.1891532,0.7554577,0.22601987,0.37736773,0.421665,0.9076214,0.13135661,0.73865294,0.20750439,0.67600715,-0.03749959,0.5609614,-0.12200058,0.3344458,-0.36037952,0.072563164,795.38464,817.5458,795.38464,813.1135,729.707,0.3868408203125,-0.1483154296875,0.88720703125,3.93280029296875,-3.170166015625,-3.222503662109375,1.0,1.0,1.0,1.0,1.0,20.0,
2023-09-08 00:26:06.546,0.32446602,0.594612,0.1922276,0.2854267,0.18381006,0.7554577,0.20649667,0.33911094,0.42366126,0.9076214,0.14736749,0.70522016,0.2233947,0.67600715,-0.03886547,0.58113605,-0.11664808,0.3344458,-0.3449114,0.0817868,798.20514,838.0952,798.60803,786.9231,714.3956,0.3868408203125,-0.1483154296875,0.88720703125,3.93280029296875,-3.170166015625,-3.222503662109375,1.0,1.0,1.0,1.0,1.0,20.0,
2023-09-08 00:26:06.637,0.32446602,0.594612,0.1922276,0.2854267,0.18381006,0.7554577,0.20649667,0.33911094,0.42366126,0.9076214,0.14736749,0.70522016,0.2233947,0.67600715,-0.03886547,0.58113605,-0.11664808,0.3344458,-0.3449114,0.0817868,803.8461,850.58606,802.23444,803.44324,803.44324,0.43011474609375,-0.15203857421875,0.91351318359375,5.884246826171875,-6.220703125,-1.435546875,1.0,1.0,1.0,1.0,1.0,20.0,
2023-09-08 00:26:06.678,0.32446602,0.594612,0.1922276,0.2854267,0.18381006,0.7554577,0.20649667,0.33911094,0.42366126,0.9076214,0.14736749,0.70522016,0.2233947,0.67600715,-0.03886547,0.58113605,-0.11664808,0.3344458,-0.3449114,0.0817868,780.07324,795.78754,793.7729,796.5934,601.978,0.45758056640625,-0.1424560546875,0.908203125,4.964599609375,-4.83001708984375,1.03179931640625,1.0,1.0,1.0,1.0,1.0,20.0,
2023-09-08 00:26:06.684,0.34867156,0.594612,0.2231197,0.28295463,0.17596342,0.7554577,0.1824874,0.31185362,0.4337043,0.9076214,0.15796567,0.6576103,0.23934177,0.67600715,-0.03779379,0.5996055,-0.10690215,0.3344458,-0.33344156,0.09796897,794.9817,783.2967,793.7729,782.49084,835.2747,0.45758056640625,-0.1424560546875,0.908203125,4.964599609375,-4.83001708984375,1.03179931640625,1.0,1.0,1.0,1.0,1.0,20.0,
2023-09-08 00:26:06.690,0.34867156,0.594612,0.2231197,0.28295463,0.17596342,0.7554577,0.1824874,0.31185362,0.4337043,0.9076214,0.15796567,0.6576103,0.23934177,0.67600715,-0.03779379,0.5996055,-0.10690215,0.3344458,-0.33344156,0.09796897,791.75824,786.52014,794.17584,789.7436,635.82416,0.410888671875,-0.14013671875,0.880615234375,3.282318115234375,-1.114044189453125,3.237457275390625,1.0,1.0,1.0,1.0,1.0,20.0,
2023-09-08 00:26:06.748,0.34867156,0.594612,0.2231197,0.28295463,0.17596342,0.7554577,0.1824874,0.31185362,0.4337043,0.9076214,0.15796567,0.6576103,0.23934177,0.67600715,-0.03779379,0.5996055,-0.10690215,0.3344458,-0.33344156,0.09796897,794.17584,772.01465,794.9817,807.8755,763.1502,0.34930419921875,-0.14520263671875,0.879150390625,5.988922119140625,-1.614990234375,-1.263580322265625,1.0,1.0,1.0,1.0,1.0,20.0,
2023-09-08 00:26:06.754,0.3640867,0.594612,0.25747466,0.25686797,0.15976271,0.7554577,0.16612795,0.30142146,0.44407943,0.9076214,0.20542577,0.6513933,0.25195816,0.67600715,-0.036675856,0.6145841,-0.10194918,0.3344458,-0.32561967,0.11701874,791.75824,781.28204,783.69965,792.1612,913.0403,0.34930419921875,-0.14520263671875,0.879150390625,5.988922119140625,-1.614990234375,-1.263580322265625,1.0,1.0,1.0,1.0,1.0,20.0,
2023-09-08 00:26:06.844,0.3640867,0.594612,0.25747466,0.25686797,0.15976271,0.7554577,0.16612795,0.30142146,0.44407943,0.9076214,0.20542577,0.6513933,0.25195816,0.67600715,-0.036675856,0.6145841,-0.10194918,0.3344458,-0.32561967,0.11701874,803.44324,828.022,801.4286,802.23444,853.4066,0.44586181640625,-0.1307373046875,0.9078369140625,6.62445068359375,-6.198272705078125,-6.317901611328125,1.0,1.0,1.0,1.0,1.0,20.0,
2023-09-08 00:26:06.852,0.36588788,0.594612,0.29882008,0.208362,0.13182135,0.7554577,0.16065472,0.29770595,0.44407943,0.9076214,0.23379685,0.68783206,0.26282755,0.67600715,-0.03996916,0.6263406,-0.10174887,0.3344458,-0.31905434,0.13419332,803.44324,799.81683,797.3993,786.9231,642.27106,0.44586181640625,-0.1307373046875,0.9078369140625,6.62445068359375,-6.198272705078125,-6.317901611328125,1.0,1.0,1.0,1.0,1.0,20.0,
2023-09-08 00:26:06.898,0.36588788,0.594612,0.29882008,0.208362,0.13182135,0.7554577,0.16065472,0.29770595,0.44407943,0.9076214,0.23379685,0.68783206,0.26282755,0.67600715,-0.03996916,0.6263406,-0.10174887,0.3344458,-0.31905434,0.13419332,801.8315,810.293,796.1905,796.5934,713.1868,0.441650390625,-0.13037109375,0.90240478515625,5.256195068359375,-5.420684814453125,1.4056396484375,1.0,1.0,1.0,1.0,1.0,20.0,
2023-09-08 00:26:06.948,0.36588788,0.594612,0.29882008,0.208362,0.13182135,0.7554577,0.16065472,0.29770595,0.44407943,0.9076214,0.23379685,0.68783206,0.26282755,0.67600715,-0.03996916,0.6263406,-0.10174887,0.3344458,-0.31905434,0.13419332,799.011,802.23444,795.78754,808.2784,787.72894,0.41363525390625,-0.13922119140625,0.88726806640625,3.51409912109375,-1.98883056640625,2.6617431640625,1.0,1.0,1.0,1.0,1.0,20.0,
2023-09-08 00:26:06.988,0.36588788,0.594612,0.29882008,0.208362,0.13182135,0.7554577,0.16065472,0.29770595,0.44407943,0.9076214,0.23379685,0.68783206,0.26282755,0.67600715,-0.03996916,0.6263406,-0.10174887,0.3344458,-0.31905434,0.13419332,801.8315,830.84247,788.93774,791.3553,678.93774,0.4022216796875,-0.1461181640625,0.88037109375,5.09918212890625,-3.30474853515625,0.485992431640625,1.0,1.0,1.0,1.0,1.0,20.0,
2023-09-08 00:26:06.989,0.35978505,0.594612,0.34276772,0.13744438,0.09530476,0.7554577,0.15997669,0.28650248,0.44407943,0.9076214,0.24169976,0.72493976,0.2775756,0.67600715,-0.048826855,0.63646454,-0.09668543,0.3344458,-0.31144983,0.14959499,803.8461,815.5311,793.36993,790.9524,628.97437,0.4022216796875,-0.1461181640625,0.88037109375,5.09918212890625,-3.30474853515625,0.485992431640625,1.0,1.0,1.0,1.0,1.0,20.0,
2023-09-08 00:26:07.067,0.35978505,0.594612,0.34276772,0.13744438,0.09530476,0.7554577,0.15997669,0.28650248,0.44407943,0.9076214,0.24169976,0.72493976,0.2775756,0.67600715,-0.048826855,0.63646454,-0.09668543,0.3344458,-0.31144983,0.14959499,807.47253,836.8865,803.8461,796.5934,664.43225,0.41912841796875,-0.13134765625,0.8936767578125,6.093597412109375,-5.51788330078125,0.19439697265625,1.0,1.0,1.0,1.0,1.0,20.0,
2023-09-08 00:26:07.109,0.3576605,0.594612,0.3781364,0.07653706,0.057999533,0.7554577,0.16083978,0.26242384,0.44407943,0.9076214,0.23427403,0.7354196,0.29838812,0.67600715,-0.061307717,0.6447145,-0.07832929,0.3344458,-0.30351835,0.1655013,787.72894,830.4396,803.44324,791.3553,703.5165,0.41912841796875,-0.13134765625,0.8936767578125,6.093597412109375,-5.51788330078125,0.19439697265625,1.0,1.0,1.0,1.0,1.0,20.0,
2023-09-08 00:26:07.179,0.3576605,0.594612,0.3781364,0.07653706,0.057999533,0.7554577,0.16083978,0.26242384,0.44407943,0.9076214,0.23427403,0.7354196,0.29838812,0.67600715,-0.061307717,0.6447145,-0.07832929,0.3344458,-0.30351835,0.1655013,799.81683,808.2784,805.05493,788.93774,671.28204,0.4278564453125,-0.13409423828125,0.89501953125,4.373931884765625,-4.717864990234375,0.37384033203125,1.0,1.0,1.0,1.0,1.0,20.0,
2023-09-08 00:26:07.193,0.3576605,0.594612,0.3781364,0.07653706,0.057999533,0.7554577,0.16083978,0.26242384,0.44407943,0.9076214,0.23427403,0.7354196,0.29838812,0.67600715,-0.061307717,0.6447145,-0.07832929,0.3344458,-0.30351835,0.1655013,795.78754,798.20514,792.1612,783.69965,658.3883,0.422119140625,-0.12921142578125,0.88775634765625,4.598236083984375,-3.491668701171875,0.142059326171875,1.0,1.0,1.0,1.0,1.0,20.0,
2023-09-08 00:26:07.197,0.36309034,0.594612,0.39582282,0.04814742,0.025943069,0.7554577,0.16938506,0.22653912,0.4420905,0.9076214,0.23043178,0.73744375,0.32000068,0.67600715,-0.074279144,0.64862716,-0.050376765,0.3344458,-0.29861456,0.17987469,793.7729,786.9231,792.1612,794.9817,908.60803,0.422119140625,-0.12921142578125,0.88775634765625,4.598236083984375,-3.491668701171875,0.142059326171875,1.0,1.0,1.0,1.0,1.0,20.0,
2023-09-08 00:26:07.256,0.36309034,0.594612,0.39582282,0.04814742,0.025943069,0.7554577,0.16938506,0.22653912,0.4420905,0.9076214,0.23043178,0.73744375,0.32000068,0.67600715,-0.074279144,0.64862716,-0.050376765,0.3344458,-0.29861456,0.17987469,795.38464,759.12085,790.14655,799.41394,950.9158,0.4169921875,-0.13494873046875,0.8839111328125,4.643096923828125,-2.968292236328125,-0.2093505859375,1.0,1.0,1.0,1.0,1.0,20.0,
2023-09-08 00:26:07.265,0.36309034,0.594612,0.39582282,0.04814742,0.025943069,0.7554577,0.16938506,0.22653912,0.4420905,0.9076214,0.23043178,0.73744375,0.32000068,0.67600715,-0.074279144,0.64862716,-0.050376765,0.3344458,-0.29861456,0.17987469,813.1135,806.6667,799.41394,803.8461,744.61536,0.41192626953125,-0.12713623046875,0.8831787109375,6.407623291015625,-3.790740966796875,-0.545806884765625,1.0,1.0,1.0,1.0,1.0,20.0,
2023-09-08 00:26:07.270,0.364468,0.594612,0.39903003,0.040587682,-0.0031452563,0.7554577,0.18716602,0.18537508,0.42293584,0.9076214,0.24898262,0.73744375,0.33532226,0.67600715,-0.08488334,0.6483521,-0.023897894,0.3344458,-0.2974975,0.18693939,800.6227,790.54944,801.8315,805.05493,879.19415,0.41192626953125,-0.12713623046875,0.8831787109375,6.407623291015625,-3.790740966796875,-0.545806884765625,1.0,1.0,1.0,1.0,1.0,20.0,
