TimeStamp,Delta_TP9,Delta_AF7,Delta_AF8,Delta_TP10,Theta_TP9,Theta_AF7,Theta_AF8,Theta_TP10,Alpha_TP9,Alpha_AF7,Alpha_AF8,Alpha_TP10,Beta_TP9,Beta_AF7,Beta_AF8,Beta_TP10,Gamma_TP9,Gamma_AF7,Gamma_AF8,Gamma_TP10,RAW_TP9,RAW_AF7,RAW_AF8,RAW_TP10,AUX_RIGHT,Accelerometer_X,Accelerometer_Y,Accelerometer_Z,Gyro_X,Gyro_Y,Gyro_Z,HeadBandOn,HSI_TP9,HSI_AF7,HSI_AF8,HSI_TP10,Battery,Elements
2023-09-10 00:11:11.273,0.5953851,0.1889711,0.12501915,0.07214517,0.10081143,-0.02837003,0.050872397,0.14758769,0.09791098,0.25676417,0.12997177,-0.041655082,0.32615614,0.09245209,-0.13649866,0.2696033,0.13437021,-0.37149373,-0.40974292,0.11702481,790.14655,796.1905,790.54944,801.4286,775.2381,0.115234375,-0.21307373046875,0.96746826171875,4.747772216796875,-3.147735595703125,0.37384033203125,1.0,1.0,1.0,1.0,1.0,30.0,
2023-09-10 00:11:11.332,0.5953851,0.1889711,0.12501915,0.07214517,0.10081143,-0.02837003,0.050872397,0.14758769,0.09791098,0.25676417,0.12997177,-0.041655082,0.32615614,0.09245209,-0.13649866,0.2696033,0.13437021,-0.37149373,-0.40974292,0.11702481,790.54944,797.3993,790.54944,787.326,682.1612,0.09619140625,-0.21929931640625,0.97076416015625,5.15899658203125,-1.936492919921875,-0.949554443359375,1.0,1.0,1.0,1.0,1.0,30.0,
2023-09-10 00:11:11.335,0.56868607,0.16805324,0.119044155,0.07214517,0.17668048,0.014298787,0.022481492,0.14758769,0.20707975,0.25676417,0.13272959,-0.041655082,0.32234144,0.08377321,-0.12727524,0.2696033,0.11511864,-0.39917246,-0.4271766,0.11702481,790.9524,801.8315,794.9817,802.6374,721.6484,0.09619140625,-0.21929931640625,0.97076416015625,5.15899658203125,-1.936492919921875,-0.949554443359375,1.0,1.0,1.0,1.0,1.0,30.0,
2023-09-10 00:11:11.344,0.56868607,0.16805324,0.119044155,0.07214517,0.17668048,0.014298787,0.022481492,0.14758769,0.20707975,0.25676417,0.13272959,-0.041655082,0.32234144,0.08377321,-0.12727524,0.2696033,0.11511864,-0.39917246,-0.4271766,0.11702481,804.65204,796.99634,798.20514,809.4872,759.12085,0.11102294921875,-0.21868896484375,0.97027587890625,4.059906005859375,-3.925323486328125,-1.652374267578125,1.0,1.0,1.0,1.0,1.0,30.0,
2023-09-10 00:11:11.356,0.56868607,0.16805324,0.119044155,0.07214517,0.17668048,0.014298787,0.022481492,0.14758769,0.20707975,0.25676417,0.13272959,-0.041655082,0.32234144,0.08377321,-0.12727524,0.2696033,0.11511864,-0.39917246,-0.4271766,0.11702481,794.9817,793.36993,790.54944,795.78754,681.75824,0.1195068359375,-0.21624755859375,0.976318359375,4.553375244140625,-3.147735595703125,-0.8673095703125,1.0,1.0,1.0,1.0,1.0,30.0,
2023-09-10 00:11:11.358,0.53260016,0.15287216,0.10952739,0.80606455,0.22634059,0.0572,-0.00027226534,0.0736915,0.24853356,0.25676417,0.13272959,0.30154508,0.307219,0.06819886,-0.1250614,0.4758864,0.101237535,-0.42864558,-0.44218108,0.32466874,791.75824,787.326,788.5348,786.9231,849.7802,0.1195068359375,-0.21624755859375,0.976318359375,4.553375244140625,-3.147735595703125,-0.8673095703125,1.0,1.0,1.0,1.0,1.0,30.0,
2023-09-10 00:11:11.364,0.53260016,0.15287216,0.10952739,0.80606455,0.22634059,0.0572,-0.00027226534,0.0736915,0.24853356,0.25676417,0.13272959,0.30154508,0.307219,0.06819886,-0.1250614,0.4758864,0.101237535,-0.42864558,-0.44218108,0.32466874,799.81683,794.9817,794.9817,792.96704,680.54944,0.11761474609375,-0.21466064453125,0.96337890625,4.3963623046875,-1.263580322265625,-0.9271240234375,1.0,1.0,1.0,1.0,1.0,30.0,
2023-09-10 00:11:11.376,0.53260016,0.15287216,0.10952739,0.80606455,0.22634059,0.0572,-0.00027226534,0.0736915,0.24853356,0.25676417,0.13272959,0.30154508,0.307219,0.06819886,-0.1250614,0.4758864,0.101237535,-0.42864558,-0.44218108,0.32466874,793.7729,790.14655,794.9817,796.5934,784.90845,0.100341796875,-0.211669921875,0.97564697265625,3.701019287109375,-1.00189208984375,-2.026214599609375,1.0,1.0,1.0,1.0,1.0,30.0,
2023-09-10 00:11:11.382,0.5033357,0.1492088,0.0934126,0.81192845,0.24911074,0.08632084,-0.023278186,0.100189984,0.28505015,0.25676417,0.13272959,0.3075943,0.2832592,0.04753978,-0.12493874,0.45071483,0.09012098,-0.45193115,-0.45725393,0.29085687,786.52014,790.54944,792.5641,792.5641,779.67035,0.100341796875,-0.211669921875,0.97564697265625,3.701019287109375,-1.00189208984375,-2.026214599609375,1.0,1.0,1.0,1.0,1.0,30.0,
2023-09-10 00:11:11.398,0.5033357,0.1492088,0.0934126,0.81192845,0.24911074,0.08632084,-0.023278186,0.100189984,0.28505015,0.25676417,0.13272959,0.3075943,0.2832592,0.04753978,-0.12493874,0.45071483,0.09012098,-0.45193115,-0.45725393,0.29085687,798.60803,792.96704,791.3553,794.9817,676.1172,0.1031494140625,-0.2091064453125,0.9708251953125,5.271148681640625,-1.86920166015625,-1.323394775390625,1.0,1.0,1.0,1.0,1.0,30.0,
2023-09-10 00:11:11.403,0.47967264,0.16074133,0.069919944,0.78620255,0.25552765,0.099594586,-0.049422834,0.122366965,0.3152243,0.25676417,0.13272959,0.33874795,0.25971356,0.025729433,-0.12247342,0.43416193,0.07987364,-0.45974603,-0.47117352,0.25906208,793.7729,793.7729,790.54944,803.44324,614.87177,0.1031494140625,-0.2091064453125,0.9708251953125,5.271148681640625,-1.86920166015625,-1.323394775390625,1.0,1.0,1.0,1.0,1.0,30.0,
2023-09-10 00:11:11.408,0.47967264,0.16074133,0.069919944,0.78620255,0.25552765,0.099594586,-0.049422834,0.122366965,0.3152243,0.25676417,0.13272959,0.33874795,0.25971356,0.025729433,-0.12247342,0.43416193,0.07987364,-0.45974603,-0.47117352,0.25906208,806.6667,801.8315,799.011,818.7546,951.31866,0.10113525390625,-0.2371826171875,0.97222900390625,4.44122314453125,-1.256103515625,-3.69354248046875,1.0,1.0,1.0,1.0,1.0,30.0,
2023-09-10 00:11:11.451,0.47967264,0.16074133,0.069919944,0.78620255,0.25552765,0.099594586,-0.049422834,0.122366965,0.3152243,0.25676417,0.13272959,0.33874795,0.25971356,0.025729433,-0.12247342,0.43416193,0.07987364,-0.45974603,-0.47117352,0.25906208,786.1172,792.1612,790.14655,789.7436,716.0073,0.12933349609375,-0.2152099609375,0.9720458984375,5.7720947265625,-2.8411865234375,-0.35888671875,1.0,1.0,1.0,1.0,1.0,30.0,
2023-09-10 00:11:11.455,0.45605266,0.17570852,0.04309941,0.7411034,0.2543387,0.100159615,-0.076822765,0.13522975,0.33047536,0.26196074,0.13369213,0.40334105,0.24505372,0.005954421,-0.117680945,0.43110523,0.070125945,-0.45057464,-0.48026296,0.24088849,790.54944,799.41394,793.36993,800.6227,924.7253,0.12933349609375,-0.2152099609375,0.9720458984375,5.7720947265625,-2.8411865234375,-0.35888671875,1.0,1.0,1.0,1.0,1.0,30.0,
2023-09-10 00:11:11.458,0.45605266,0.17570852,0.04309941,0.7411034,0.2543387,0.100159615,-0.076822765,0.13522975,0.33047536,0.26196074,0.13369213,0.40334105,0.24505372,0.005954421,-0.117680945,0.43110523,0.070125945,-0.45057464,-0.48026296,0.24088849,799.81683,802.6374,796.1905,801.02563,777.25275,0.11572265625,-0.20220947265625,0.9857177734375,6.5496826171875,-2.07855224609375,6.168365478515625,1.0,1.0,1.0,1.0,1.0,30.0,
2023-09-10 00:11:11.466,0.45605266,0.17570852,0.04309941,0.7411034,0.2543387,0.100159615,-0.076822765,0.13522975,0.33047536,0.26196074,0.13369213,0.40334105,0.24505372,0.005954421,-0.117680945,0.43110523,0.070125945,-0.45057464,-0.48026296,0.24088849,796.5934,793.7729,787.72894,798.60803,729.304,0.1041259765625,-0.178955078125,0.97076416015625,6.347808837890625,1.83929443359375,4.47113037109375,1.0,1.0,1.0,1.0,1.0,30.0,
2023-09-10 00:11:11.515,0.43302447,0.18402264,0.017380163,0.69368726,0.24637595,0.09235507,-0.10118672,0.1374451,0.3357539,0.27873284,0.1361989,0.48616964,0.24116826,-0.011105566,-0.11434441,0.43500805,0.05979101,-0.43235686,-0.48299083,0.23936577,788.1319,794.9817,790.9524,811.50183,945.6777,0.1041259765625,-0.178955078125,0.97076416015625,6.347808837890625,1.83929443359375,4.47113037109375,1.0,1.0,1.0,1.0,1.0,30.0,
2023-09-10 00:11:11.562,0.43302447,0.18402264,0.017380163,0.69368726,0.24637595,0.09235507,-0.10118672,0.1374451,0.3357539,0.27873284,0.1361989,0.48616964,0.24116826,-0.011105566,-0.11434441,0.43500805,0.05979101,-0.43235686,-0.48299083,0.23936577,811.0989,799.81683,789.7436,804.65204,750.2564,0.0206298828125,-0.221923828125,1.0006103515625,9.188995361328123,5.510406494140625,-0.112152099609375,1.0,1.0,1.0,1.0,1.0,30.0,
2023-09-10 00:11:11.620,0.43302447,0.18402264,0.017380163,0.69368726,0.24637595,0.09235507,-0.10118672,0.1374451,0.3357539,0.27873284,0.1361989,0.48616964,0.24116826,-0.011105566,-0.11434441,0.43500805,0.05979101,-0.43235686,-0.48299083,0.23936577,799.41394,790.9524,789.34064,810.293,1156.8132,0.08575439453125,-0.207275390625,0.970458984375,5.151519775390625,-0.11962890625,-7.88055419921875,1.0,1.0,1.0,1.0,1.0,30.0,
2023-09-10 00:11:11.621,0.41322064,0.18023503,-0.006733106,0.65161264,0.23127054,0.07993584,-0.12017529,0.13154942,0.34651962,0.28978837,0.1361989,0.5650683,0.24380027,-0.02691031,-0.11526774,0.4378308,0.048436437,-0.41366017,-0.48244816,0.24976481,806.6667,796.99634,796.99634,805.8608,652.74725,0.08575439453125,-0.207275390625,0.970458984375,5.151519775390625,-0.11962890625,-7.88055419921875,1.0,1.0,1.0,1.0,1.0,30.0,
2023-09-10 00:11:11.652,0.41322064,0.18023503,-0.006733106,0.65161264,0.23127054,0.07993584,-0.12017529,0.13154942,0.34651962,0.28978837,0.1361989,0.5650683,0.24380027,-0.02691031,-0.11526774,0.4378308,0.048436437,-0.41366017,-0.48244816,0.24976481,790.9524,791.3553,799.011,794.9817,679.34064,0.1126708984375,-0.20135498046875,0.98614501953125,3.54400634765625,-4.50103759765625,-0.418701171875,1.0,1.0,1.0,1.0,1.0,30.0,
2023-09-10 00:11:11.658,0.41322064,0.18023503,-0.006733106,0.65161264,0.23127054,0.07993584,-0.12017529,0.13154942,0.34651962,0.28978837,0.1361989,0.5650683,0.24380027,-0.02691031,-0.11526774,0.4378308,0.048436437,-0.41366017,-0.48244816,0.24976481,782.0879,784.5055,803.44324,794.57874,744.21246,0.11285400390625,-0.18646240234375,0.96405029296875,0.725250244140625,-5.031890869140625,7.64129638671875,1.0,1.0,1.0,1.0,1.0,30.0,
2023-09-10 00:11:11.660,0.39384907,0.11998235,-0.06136067,0.6125639,0.21167925,0.042854115,-0.18097088,0.12353924,0.36218074,0.2917629,0.07569896,0.605899,0.24787724,-0.055864055,-0.12244565,0.43764228,0.03669744,-0.40185547,-0.5095744,0.26870975,776.8498,795.78754,797.8022,784.5055,661.6117,0.11285400390625,-0.18646240234375,0.96405029296875,0.725250244140625,-5.031890869140625,7.64129638671875,1.0,1.0,1.0,1.0,1.0,30.0,
2023-09-10 00:11:11.802,0.39384907,0.11998235,-0.06136067,0.6125639,0.21167925,0.042854115,-0.18097088,0.12353924,0.36218074,0.2917629,0.07569896,0.605899,0.24787724,-0.055864055,-0.12244565,0.43764228,0.03669744,-0.40185547,-0.5095744,0.26870975,792.96704,796.1905,795.78754,785.31134,709.5604,0.04486083984375,-0.24560546875,0.9639892578125,-1.136474609375,-2.55706787109375,5.203857421875,1.0,1.0,1.0,1.0,1.0,30.0,
2023-09-10 00:11:11.807,0.37672505,0.085750766,-0.099521674,0.5759033,0.19167145,0.025098315,-0.25771812,0.1179369,0.37671182,0.2848901,0.018291904,0.61014587,0.25100097,-0.08827887,-0.13077222,0.43931583,0.027478267,-0.39384294,-0.5375925,0.29819754,799.011,801.4286,796.5934,799.011,860.65936,0.04486083984375,-0.24560546875,0.9639892578125,-1.136474609375,-2.55706787109375,5.203857421875,1.0,1.0,1.0,1.0,1.0,30.0,
2023-09-10 00:11:11.819,0.37672505,0.085750766,-0.099521674,0.5759033,0.19167145,0.025098315,-0.25771812,0.1179369,0.37671182,0.2848901,0.018291904,0.61014587,0.25100097,-0.08827887,-0.13077222,0.43931583,0.027478267,-0.39384294,-0.5375925,0.29819754,806.6667,794.17584,801.4286,805.05493,681.75824,0.0634765625,-0.2596435546875,0.95782470703125,1.95892333984375,-3.865509033203125,-3.192596435546875,1.0,1.0,1.0,1.0,1.0,30.0,
2023-09-10 00:11:11.851,0.37672505,0.085750766,-0.099521674,0.5759033,0.19167145,0.025098315,-0.25771812,0.1179369,0.37671182,0.2848901,0.018291904,0.61014587,0.25100097,-0.08827887,-0.13077222,0.43931583,0.027478267,-0.39384294,-0.5375925,0.29819754,801.4286,790.54944,790.14655,800.6227,806.26373,0.11090087890625,-0.23614501953125,0.9722900390625,7.0880126953125,-6.1907958984375,-3.57391357421875,1.0,1.0,1.0,1.0,1.0,30.0,
2023-09-10 00:11:11.857,0.3687027,0.0655749,-0.11912327,0.5453504,0.17610827,0.018604869,-0.33956653,0.118251696,0.38948843,0.24652651,-0.0056690522,0.61014587,0.25488973,-0.115232594,-0.13979793,0.44568416,0.022637662,-0.3911719,-0.5669827,0.33531994,792.5641,795.78754,786.9231,799.41394,1063.7362,0.11090087890625,-0.23614501953125,0.9722900390625,7.0880126953125,-6.1907958984375,-3.57391357421875,1.0,1.0,1.0,1.0,1.0,30.0,
2023-09-10 00:11:11.894,0.3687027,0.0655749,-0.11912327,0.5453504,0.17610827,0.018604869,-0.33956653,0.118251696,0.38948843,0.24652651,-0.0056690522,0.61014587,0.25488973,-0.115232594,-0.13979793,0.44568416,0.022637662,-0.3911719,-0.5669827,0.33531994,797.8022,802.23444,791.75824,782.8938,703.91943,0.1053466796875,-0.21722412109375,0.97698974609375,5.301055908203125,-4.11224365234375,3.289794921875,1.0,1.0,1.0,1.0,1.0,30.0,
2023-09-10 00:11:11.987,0.3687027,0.0655749,-0.11912327,0.5453504,0.17610827,0.018604869,-0.33956653,0.118251696,0.38948843,0.24652651,-0.0056690522,0.61014587,0.25488973,-0.115232594,-0.13979793,0.44568416,0.022637662,-0.3911719,-0.5669827,0.33531994,798.20514,796.1905,793.36993,800.2198,833.663,0.07342529296875,-0.228271484375,0.95928955078125,2.714080810546875,-3.6187744140625,4.725341796875,1.0,1.0,1.0,1.0,1.0,30.0,
2023-09-10 00:11:11.995,0.37248802,0.04296881,-0.13550335,0.524661,0.16952819,0.0144218635,-0.4067873,0.12944299,0.39185044,0.1567032,-0.03994318,0.61349714,0.26142642,-0.12626165,-0.14667587,0.45314962,0.021751022,-0.39039493,-0.59134656,0.36841422,805.05493,798.60803,793.36993,796.5934,806.6667,0.07342529296875,-0.228271484375,0.95928955078125,2.714080810546875,-3.6187744140625,4.725341796875,1.0,1.0,1.0,1.0,1.0,30.0,
2023-09-10 00:11:12.035,0.37248802,0.04296881,-0.13550335,0.524661,0.16952819,0.0144218635,-0.4067873,0.12944299,0.39185044,0.1567032,-0.03994318,0.61349714,0.26142642,-0.12626165,-0.14667587,0.45314962,0.021751022,-0.39039493,-0.59134656,0.36841422,793.7729,799.41394,787.72894,784.10254,704.3223,0.07830810546875,-0.236572265625,0.94586181640625,6.302947998046875,-4.844970703125,-0.246734619140625,1.0,1.0,1.0,1.0,1.0,30.0,
2023-09-10 00:11:12.123,0.37248802,0.04296881,-0.13550335,0.524661,0.16952819,0.0144218635,-0.4067873,0.12944299,0.39185044,0.1567032,-0.03994318,0.61349714,0.26142642,-0.12626165,-0.14667587,0.45314962,0.021751022,-0.39039493,-0.59134656,0.36841422,809.4872,796.1905,797.3993,800.6227,743.4066,0.1080322265625,-0.221435546875,0.97467041015625,9.61517333984375,-6.44500732421875,-1.547698974609375,1.0,1.0,1.0,1.0,1.0,30.0,
2023-09-10 00:11:12.125,0.36255357,0.008105434,-0.16635418,0.5122148,0.18122962,0.009751339,-0.441749,0.15173443,0.39185044,0.034618784,-0.03754734,0.6180078,0.26686895,-0.12087542,-0.147692,0.45668116,0.007403937,-0.3858408,-0.603054,0.38639084,799.41394,791.3553,800.6227,799.011,779.67035,0.1080322265625,-0.221435546875,0.97467041015625,9.61517333984375,-6.44500732421875,-1.547698974609375,1.0,1.0,1.0,1.0,1.0,30.0,
2023-09-10 00:11:12.191,0.36255357,0.008105434,-0.16635418,0.5122148,0.18122962,0.009751339,-0.441749,0.15173443,0.39185044,0.034618784,-0.03754734,0.6180078,0.26686895,-0.12087542,-0.147692,0.45668116,0.007403937,-0.3858408,-0.603054,0.38639084,799.41394,786.52014,789.34064,805.8608,704.7253,0.1224365234375,-0.20013427734375,0.97540283203125,9.82452392578125,-5.794525146484375,3.289794921875,1.0,1.0,1.0,1.0,1.0,30.0,
2023-09-10 00:11:12.235,0.36255357,0.008105434,-0.16635418,0.5122148,0.18122962,0.009751339,-0.441749,0.15173443,0.39185044,0.034618784,-0.03754734,0.6180078,0.26686895,-0.12087542,-0.147692,0.45668116,0.007403937,-0.3858408,-0.603054,0.38639084,798.20514,796.99634,791.3553,789.34064,699.89014,0.1065673828125,-0.19989013671875,0.98486328125,7.2674560546875,-4.3365478515625,6.153411865234375,1.0,1.0,1.0,1.0,1.0,30.0,
2023-09-10 00:11:12.238,0.36177886,-0.030253887,-0.19871956,0.5017646,0.1985882,0.0036608118,-0.44096825,0.17744797,0.39185044,0.02207775,-0.03637587,0.61805505,0.26908454,-0.110900216,-0.14129382,0.45646825,-0.004040371,-0.37515,-0.6025658,0.38770303,803.0403,792.96704,793.36993,799.011,781.685,0.1065673828125,-0.19989013671875,0.98486328125,7.2674560546875,-4.3365478515625,6.153411865234375,1.0,1.0,1.0,1.0,1.0,30.0,
2023-09-10 00:11:12.280,0.36177886,-0.030253887,-0.19871956,0.5017646,0.1985882,0.0036608118,-0.44096825,0.17744797,0.39185044,0.02207775,-0.03637587,0.61805505,0.26908454,-0.110900216,-0.14129382,0.45646825,-0.004040371,-0.37515,-0.6025658,0.38770303,794.9817,795.78754,793.36993,794.9817,754.2857,0.0926513671875,-0.19818115234375,0.969482421875,6.34033203125,-3.237457275390625,3.3197021484375,1.0,1.0,1.0,1.0,1.0,30.0,
2023-09-10 00:11:12.282,0.36340132,-0.060006656,-0.22676565,0.47266814,0.20661968,-0.00748383,-0.415564,0.21179344,0.39185044,0.021106131,-0.034740705,0.58521265,0.2647401,-0.10942744,-0.12864713,0.4569583,-0.014731966,-0.36090517,-0.59579194,0.38123864,801.4286,802.6374,792.96704,800.6227,887.6557,0.0926513671875,-0.19818115234375,0.969482421875,6.34033203125,-3.237457275390625,3.3197021484375,1.0,1.0,1.0,1.0,1.0,30.0,
2023-09-10 00:11:12.343,0.36340132,-0.060006656,-0.22676565,0.47266814,0.20661968,-0.00748383,-0.415564,0.21179344,0.39185044,0.021106131,-0.034740705,0.58521265,0.2647401,-0.10942744,-0.12864713,0.4569583,-0.014731966,-0.36090517,-0.59579194,0.38123864,792.5641,796.5934,791.75824,796.5934,758.71796,0.0946044921875,-0.21044921875,0.9793701171875,6.74407958984375,-2.534637451171875,-0.31402587890625,1.0,1.0,1.0,1.0,1.0,30.0,
2023-09-10 00:11:12.381,0.36340132,-0.060006656,-0.22676565,0.47266814,0.20661968,-0.00748383,-0.415564,0.21179344,0.39185044,0.021106131,-0.034740705,0.58521265,0.2647401,-0.10942744,-0.12864713,0.4569583,-0.014731966,-0.36090517,-0.59579194,0.38123864,801.4286,799.011,796.99634,800.6227,719.6337,0.11334228515625,-0.20306396484375,0.97015380859375,5.084228515625,-4.284210205078125,-0.94207763671875,1.0,1.0,1.0,1.0,1.0,30.0,
2023-09-10 00:11:12.387,0.35819235,-0.07674292,-0.26752457,0.42103142,0.19272603,-0.029293764,-0.38658097,0.22683641,0.38853052,0.025389042,-0.06522543,0.55412954,0.25372297,-0.11832977,-0.112477094,0.4575653,-0.027505273,-0.34529826,-0.5882363,0.37899718,807.0696,798.20514,795.78754,815.5311,997.6557,0.11334228515625,-0.20306396484375,0.97015380859375,5.084228515625,-4.284210205078125,-0.94207763671875,1.0,1.0,1.0,1.0,1.0,30.0,
2023-09-10 00:11:12.414,0.35819235,-0.07674292,-0.26752457,0.42103142,0.19272603,-0.029293764,-0.38658097,0.22683641,0.38853052,0.025389042,-0.06522543,0.55412954,0.25372297,-0.11832977,-0.112477094,0.4575653,-0.027505273,-0.34529826,-0.5882363,0.37899718,798.20514,791.3553,790.54944,794.9817,792.96704,0.109619140625,-0.19207763671875,0.9725341796875,5.86181640625,-2.474822998046875,2.1234130859375,1.0,1.0,1.0,1.0,1.0,30.0,
2023-09-10 00:11:12.474,0.35819235,-0.07674292,-0.26752457,0.42103142,0.19272603,-0.029293764,-0.38658097,0.22683641,0.38853052,0.025389042,-0.06522543,0.55412954,0.25372297,-0.11832977,-0.112477094,0.4575653,-0.027505273,-0.34529826,-0.5882363,0.37899718,801.02563,794.9817,797.3993,798.60803,616.08057,0.08843994140625,-0.19818115234375,0.983154296875,5.30853271484375,-2.220611572265625,-0.22430419921875,1.0,1.0,1.0,1.0,1.0,30.0,
2023-09-10 00:11:12.479,0.3493678,-0.08698843,-0.31730053,0.3394405,0.15698169,-0.06514259,-0.36486015,0.22936046,0.38269964,0.027261006,-0.052242976,0.5634647,0.24296273,-0.12880583,-0.09624644,0.45990548,-0.04423002,-0.32850677,-0.5824578,0.38795722,794.57874,790.9524,790.14655,780.4762,763.5531,0.08843994140625,-0.19818115234375,0.983154296875,5.30853271484375,-2.220611572265625,-0.22430419921875,1.0,1.0,1.0,1.0,1.0,30.0,
2023-09-10 00:11:12.573,0.3493678,-0.08698843,-0.31730053,0.3394405,0.15698169,-0.06514259,-0.36486015,0.22936046,0.38269964,0.027261006,-0.052242976,0.5634647,0.24296273,-0.12880583,-0.09624644,0.45990548,-0.04423002,-0.32850677,-0.5824578,0.38795722,801.4286,790.54944,789.34064,794.9817,733.73627,0.08636474609375,-0.2158203125,0.97027587890625,5.12908935546875,-1.375732421875,-4.598236083984375,1.0,1.0,1.0,1.0,1.0,30.0,
2023-09-10 00:11:12.580,0.34902877,-0.095171236,-0.35009474,0.23578449,0.109848686,-0.1138103,-0.34116623,0.2286836,0.3921028,0.029932866,-0.0148692075,0.5779538,0.24288979,-0.13225171,-0.08268108,0.46524653,-0.06267106,-0.30984387,-0.5791308,0.40468687,790.9524,797.3993,792.96704,790.9524,724.87177,0.08636474609375,-0.2158203125,0.97027587890625,5.12908935546875,-1.375732421875,-4.598236083984375,1.0,1.0,1.0,1.0,1.0,30.0,
2023-09-10 00:11:12.606,0.34902877,-0.095171236,-0.35009474,0.23578449,0.109848686,-0.1138103,-0.34116623,0.2286836,0.3921028,0.029932866,-0.0148692075,0.5779538,0.24288979,-0.13225171,-0.08268108,0.46524653,-0.06267106,-0.30984387,-0.5791308,0.40468687,786.1172,796.5934,788.1319,794.57874,738.5714,0.10302734375,-0.23211669921875,0.9744873046875,5.7720947265625,-2.67669677734375,-4.732818603515625,1.0,1.0,1.0,1.0,1.0,30.0,
2023-09-10 00:11:12.669,0.34902877,-0.095171236,-0.35009474,0.23578449,0.109848686,-0.1138103,-0.34116623,0.2286836,0.3921028,0.029932866,-0.0148692075,0.5779538,0.24288979,-0.13225171,-0.08268108,0.46524653,-0.06267106,-0.30984387,-0.5791308,0.40468687,788.93774,794.57874,794.57874,796.5934,768.3883,0.13482666015625,-0.20074462890625,0.96856689453125,10.27313232421875,-5.001983642578125,3.551483154296875,1.0,1.0,1.0,1.0,1.0,30.0,
2023-09-10 00:11:12.707,0.34902877,-0.095171236,-0.35009474,0.23578449,0.109848686,-0.1138103,-0.34116623,0.2286836,0.3921028,0.029932866,-0.0148692075,0.5779538,0.24288979,-0.13225171,-0.08268108,0.46524653,-0.06267106,-0.30984387,-0.5791308,0.40468687,795.78754,799.81683,794.17584,797.3993,916.26373,0.120361328125,-0.18548583984375,0.9686279296875,13.41339111328125,-4.762725830078125,9.981536865234377,1.0,1.0,1.0,1.0,1.0,30.0,
2023-09-10 00:11:12.708,0.3437622,-0.11308705,-0.35032398,0.13925175,0.06353621,-0.17148182,-0.30021593,0.2272108,0.39462394,0.031066341,0.010907251,0.58287054,0.25831422,-0.12772779,-0.072698824,0.47365785,-0.07722695,-0.29120305,-0.5783519,0.42287362,788.93774,800.6227,792.96704,789.7436,785.7143,0.120361328125,-0.18548583984375,0.9686279296875,13.41339111328125,-4.762725830078125,9.981536865234377,1.0,1.0,1.0,1.0,1.0,30.0,
2023-09-10 00:11:12.827,0.3437622,-0.11308705,-0.35032398,0.13925175,0.06353621,-0.17148182,-0.30021593,0.2272108,0.39462394,0.031066341,0.010907251,0.58287054,0.25831422,-0.12772779,-0.072698824,0.47365785,-0.07722695,-0.29120305,-0.5783519,0.42287362,807.0696,799.011,789.34064,792.5641,849.3773,0.11102294921875,-0.17596435546875,0.97650146484375,14.46014404296875,-2.51220703125,8.4637451171875,1.0,1.0,1.0,1.0,1.0,30.0,
2023-09-10 00:11:12.830,0.33555582,-0.15195942,-0.31991652,0.108324826,0.02217461,-0.23335531,-0.24142152,0.2260713,0.3946465,0.03375449,0.027996296,0.5891224,0.28836492,-0.119562455,-0.06520152,0.48441443,-0.08319978,-0.27602732,-0.5791487,0.4380193,798.20514,799.011,795.78754,801.4286,875.56775,0.11102294921875,-0.17596435546875,0.97650146484375,14.46014404296875,-2.51220703125,8.4637451171875,1.0,1.0,1.0,1.0,1.0,30.0,
2023-09-10 00:11:12.873,0.33555582,-0.15195942,-0.31991652,0.108324826,0.02217461,-0.23335531,-0.24142152,0.2260713,0.3946465,0.03375449,0.027996296,0.5891224,0.28836492,-0.119562455,-0.06520152,0.48441443,-0.08319978,-0.27602732,-0.5791487,0.4380193,791.3553,802.6374,787.326,800.2198,720.84247,0.10791015625,-0.1676025390625,0.97723388671875,14.781646728515623,-3.222503662109375,6.706695556640625,1.0,1.0,1.0,1.0,1.0,30.0,
2023-09-10 00:11:12.882,0.33555582,-0.15195942,-0.31991652,0.108324826,0.02217461,-0.23335531,-0.24142152,0.2260713,0.3946465,0.03375449,0.027996296,0.5891224,0.28836492,-0.119562455,-0.06520152,0.48441443,-0.08319978,-0.27602732,-0.5791487,0.4380193,802.6374,797.3993,793.36993,794.9817,650.32965,0.11614990234375,-0.15380859375,0.98211669921875,16.090087890625,-3.222503662109375,5.794525146484375,1.0,1.0,1.0,1.0,1.0,30.0,
2023-09-10 00:11:12.885,0.3381583,-0.19996488,-0.27930102,0.14292727,-0.014919299,-0.29275206,-0.17924412,0.22973162,0.3815454,0.03307602,0.031555142,0.595073,0.32877615,-0.11267638,-0.059172936,0.4947317,-0.08217242,-0.26652282,-0.5800728,0.44779915,799.011,794.57874,788.1319,806.26373,680.54944,0.11614990234375,-0.15380859375,0.98211669921875,16.090087890625,-3.222503662109375,5.794525146484375,1.0,1.0,1.0,1.0,1.0,30.0,
2023-09-10 00:11:12.921,0.3381583,-0.19996488,-0.27930102,0.14292727,-0.014919299,-0.29275206,-0.17924412,0.22973162,0.3815454,0.03307602,0.031555142,0.595073,0.32877615,-0.11267638,-0.059172936,0.4947317,-0.08217242,-0.26652282,-0.5800728,0.44779915,802.6374,791.3553,794.57874,804.2491,696.26373,0.11138916015625,-0.1357421875,0.9833984375,14.0863037109375,-3.828125,5.241241455078125,1.0,1.0,1.0,1.0,1.0,30.0,
2023-09-10 00:11:13.004,0.3381583,-0.19996488,-0.27930102,0.14292727,-0.014919299,-0.29275206,-0.17924412,0.22973162,0.3815454,0.03307602,0.031555142,0.595073,0.32877615,-0.11267638,-0.059172936,0.4947317,-0.08217242,-0.26652282,-0.5800728,0.44779915,808.68134,798.60803,785.7143,800.6227,844.94507,0.109619140625,-0.13531494140625,0.9951171875,11.2750244140625,-3.00567626953125,5.084228515625,1.0,1.0,1.0,1.0,1.0,30.0,
2023-09-10 00:11:13.009,0.35728776,-0.24227117,-0.24139792,0.18838112,-0.043247446,-0.3426326,-0.1265271,0.240013,0.3433186,0.029272644,0.03522103,0.6118629,0.37175873,-0.10870595,-0.053792734,0.50097924,-0.078780666,-0.2625523,-0.5793216,0.45218354,801.4286,800.6227,787.72894,803.0403,709.9634,0.109619140625,-0.13531494140625,0.9951171875,11.2750244140625,-3.00567626953125,5.084228515625,1.0,1.0,1.0,1.0,1.0,30.0,
2023-09-10 00:11:13.107,0.35728776,-0.24227117,-0.24139792,0.18838112,-0.043247446,-0.3426326,-0.1265271,0.240013,0.3433186,0.029272644,0.03522103,0.6118629,0.37175873,-0.10870595,-0.053792734,0.50097924,-0.078780666,-0.2625523,-0.5793216,0.45218354,803.44324,785.31134,791.75824,801.8315,1090.7325,0.107177734375,-0.1278076171875,0.98785400390625,9.21142578125,-1.443023681640625,5.106658935546875,1.0,1.0,1.0,1.0,1.0,30.0,
2023-09-10 00:11:13.114,0.3840147,-0.25326148,-0.21005383,0.21838123,-0.053262435,-0.37640288,-0.08829693,0.25134945,0.28638622,0.013676626,0.0337605,0.6118629,0.40631258,-0.10617018,-0.047120295,0.50090265,-0.07640444,-0.26394647,-0.57228965,0.4524666,800.6227,805.8608,796.5934,817.1429,834.4689,0.107177734375,-0.1278076171875,0.98785400390625,9.21142578125,-1.443023681640625,5.106658935546875,1.0,1.0,1.0,1.0,1.0,30.0,
2023-09-10 00:11:13.147,0.3840147,-0.25326148,-0.21005383,0.21838123,-0.053262435,-0.37640288,-0.08829693,0.25134945,0.28638622,0.013676626,0.0337605,0.6118629,0.40631258,-0.10617018,-0.047120295,0.50090265,-0.07640444,-0.26394647,-0.57228965,0.4524666,798.60803,792.1612,798.20514,817.5458,746.63007,0.10260009765625,-0.12652587890625,0.98260498046875,10.00396728515625,0.2691650390625,3.828125,1.0,1.0,1.0,1.0,1.0,30.0,
2023-09-10 00:11:13.155,0.3840147,-0.25326148,-0.21005383,0.21838123,-0.053262435,-0.37640288,-0.08829693,0.25134945,0.28638622,0.013676626,0.0337605,0.6118629,0.40631258,-0.10617018,-0.047120295,0.50090265,-0.07640444,-0.26394647,-0.57228965,0.4524666,797.8022,797.3993,784.10254,782.0879,858.24176,0.10186767578125,-0.11688232421875,0.9825439453125,11.028289794921877,1.256103515625,3.446807861328125,1.0,1.0,1.0,1.0,1.0,30.0,
2023-09-10 00:11:13.162,0.4078148,-0.22752534,-0.1835662,0.23521426,-0.04138484,-0.3863059,-0.06393385,0.25536606,0.26094022,-0.0018031325,0.0678766,0.60346,0.42446426,-0.10085751,-0.03613971,0.49466726,-0.07426165,-0.2694088,-0.5479623,0.44948387,802.23444,793.36993,795.38464,817.9487,777.25275,0.10186767578125,-0.11688232421875,0.9825439453125,11.028289794921877,1.256103515625,3.446807861328125,1.0,1.0,1.0,1.0,1.0,30.0,
2023-09-10 00:11:13.227,0.4078148,-0.22752534,-0.1835662,0.23521426,-0.04138484,-0.3863059,-0.06393385,0.25536606,0.26094022,-0.0018031325,0.0678766,0.60346,0.42446426,-0.10085751,-0.03613971,0.49466726,-0.07426165,-0.2694088,-0.5479623,0.44948387,807.47253,794.17584,799.81683,814.3223,801.02563,0.10675048828125,-0.10247802734375,1.01275634765625,13.51806640625,0.276641845703125,7.394561767578125,1.0,1.0,1.0,1.0,1.0,30.0,
2023-09-10 00:11:13.277,0.4078148,-0.22752534,-0.1835662,0.23521426,-0.04138484,-0.3863059,-0.06393385,0.25536606,0.26094022,-0.0018031325,0.0678766,0.60346,0.42446426,-0.10085751,-0.03613971,0.49466726,-0.07426165,-0.2694088,-0.5479623,0.44948387,784.10254,802.6374,800.2198,801.8315,715.6044,0.0604248046875,-0.11077880859375,0.95166015625,9.024505615234377,2.76641845703125,1.21124267578125,1.0,1.0,1.0,1.0,1.0,30.0,
2023-09-10 00:11:13.347,0.41994348,-0.18969509,-0.15884559,0.24598932,-0.018125731,-0.367633,-0.048151836,0.2487703,0.2584288,-0.02597776,0.11920948,0.5616566,0.4261906,-0.089145906,-0.019409701,0.48255563,-0.07142068,-0.27558032,-0.5019638,0.43967193,815.12823,790.54944,797.8022,796.5934,732.52747,0.0604248046875,-0.11077880859375,0.95166015625,9.024505615234377,2.76641845703125,1.21124267578125,1.0,1.0,1.0,1.0,1.0,30.0,
2023-09-10 00:11:13.381,0.41994348,-0.18969509,-0.15884559,0.24598932,-0.018125731,-0.367633,-0.048151836,0.2487703,0.2584288,-0.02597776,0.11920948,0.5616566,0.4261906,-0.089145906,-0.019409701,0.48255563,-0.07142068,-0.27558032,-0.5019638,0.43967193,807.8755,793.7729,794.17584,801.02563,834.87177,0.05609130859375,-0.09423828125,1.01416015625,9.8992919921875,-0.49346923828125,0.097198486328125,1.0,1.0,1.0,1.0,1.0,30.0,
2023-09-10 00:11:13.395,0.41994348,-0.18969509,-0.15884559,0.24598932,-0.018125731,-0.367633,-0.048151836,0.2487703,0.2584288,-0.02597776,0.11920948,0.5616566,0.4261906,-0.089145906,-0.019409701,0.48255563,-0.07142068,-0.27558032,-0.5019638,0.43967193,803.0403,792.96704,790.14655,794.9817,674.90845,0.09185791015625,-0.08099365234375,0.998291015625,5.2337646484375,-5.944061279296875,0.97198486328125,1.0,1.0,1.0,1.0,1.0,30.0,
2023-09-10 00:11:13.398,0.4129224,-0.15893862,-0.14273939,0.24820434,-0.0022887737,-0.32829994,-0.033286996,0.23393841,0.26528034,-0.057066318,0.14259821,0.5773866,0.41810796,-0.075047165,-0.001092692,0.465761,-0.067181155,-0.27862337,-0.4465529,0.4193188,809.89014,799.41394,793.36993,799.81683,668.0586,0.09185791015625,-0.08099365234375,0.998291015625,5.2337646484375,-5.944061279296875,0.97198486328125,1.0,1.0,1.0,1.0,1.0,30.0,
2023-09-10 00:11:13.450,0.4129224,-0.15893862,-0.14273939,0.24820434,-0.0022887737,-0.32829994,-0.033286996,0.23393841,0.26528034,-0.057066318,0.14259821,0.5773866,0.41810796,-0.075047165,-0.001092692,0.465761,-0.067181155,-0.27862337,-0.4465529,0.4193188,800.2198,792.5641,801.02563,810.696,998.0586,0.08416748046875,-0.109375,0.99029541015625,1.936492919921875,-4.643096923828125,2.011260986328125,1.0,1.0,1.0,1.0,1.0,30.0,
2023-09-10 00:11:13.543,0.4129224,-0.15893862,-0.14273939,0.24820434,-0.0022887737,-0.32829994,-0.033286996,0.23393841,0.26528034,-0.057066318,0.14259821,0.5773866,0.41810796,-0.075047165,-0.001092692,0.465761,-0.067181155,-0.27862337,-0.4465529,0.4193188,814.3223,799.011,791.75824,792.1612,863.47986,0.07550048828125,-0.126708984375,0.97760009765625,2.220611572265625,-4.987030029296875,-1.27105712890625,1.0,1.0,1.0,1.0,1.0,30.0,
2023-09-10 00:11:13.547,0.3881978,-0.13998738,-0.1331186,0.2404432,-0.004132087,-0.28755698,-0.014577311,0.21189524,0.28831598,-0.04423904,0.14259821,0.59790725,0.40956247,-0.06745002,0.013717158,0.44884682,-0.061838113,-0.27707717,-0.40072203,0.39166996,798.20514,789.7436,798.60803,791.3553,855.0183,0.07550048828125,-0.126708984375,0.97760009765625,2.220611572265625,-4.987030029296875,-1.27105712890625,1.0,1.0,1.0,1.0,1.0,30.0,
2023-09-10 00:11:13.611,0.3881978,-0.13998738,-0.1331186,0.2404432,-0.004132087,-0.28755698,-0.014577311,0.21189524,0.28831598,-0.04423904,0.14259821,0.59790725,0.40956247,-0.06745002,0.013717158,0.44884682,-0.061838113,-0.27707717,-0.40072203,0.39166996,813.5165,805.4579,797.3993,788.1319,710.3663,0.11273193359375,-0.1070556640625,0.986328125,7.43194580078125,-6.871185302734375,-0.70281982421875,1.0,1.0,1.0,1.0,1.0,30.0,
2023-09-10 00:11:13.617,0.34727934,-0.12674128,-0.12337229,0.21926597,-0.021788606,-0.257981,0.0045974054,0.18181373,0.35176805,-0.008794362,0.16480722,0.62135345,0.4065455,-0.072154574,0.021938432,0.43760252,-0.057410643,-0.27432773,-0.37298888,0.3681584,811.50183,799.011,793.36993,813.1135,1062.5275,0.11273193359375,-0.1070556640625,0.986328125,7.43194580078125,-6.871185302734375,-0.70281982421875,1.0,1.0,1.0,1.0,1.0,30.0,
2023-09-10 00:11:13.674,0.34727934,-0.12674128,-0.12337229,0.21926597,-0.021788606,-0.257981,0.0045974054,0.18181373,0.35176805,-0.008794362,0.16480722,0.62135345,0.4065455,-0.072154574,0.021938432,0.43760252,-0.057410643,-0.27432773,-0.37298888,0.3681584,809.0842,796.5934,798.60803,810.696,750.65936,0.10784912109375,-0.09521484375,1.00091552734375,6.407623291015625,-4.224395751953125,2.594451904296875,1.0,1.0,1.0,1.0,1.0,30.0,
2023-09-10 00:11:13.723,0.34727934,-0.12674128,-0.12337229,0.21926597,-0.021788606,-0.257981,0.0045974054,0.18181373,0.35176805,-0.008794362,0.16480722,0.62135345,0.4065455,-0.072154574,0.021938432,0.43760252,-0.057410643,-0.27432773,-0.37298888,0.3681584,801.02563,799.81683,788.93774,792.96704,665.2381,0.089111328125,-0.094482421875,0.97979736328125,4.897308349609375,-1.79443359375,2.639312744140625,1.0,1.0,1.0,1.0,1.0,30.0,
2023-09-10 00:11:13.730,0.29527962,-0.10738913,-0.112660185,0.1962174,-0.040772397,-0.2416401,0.016166192,0.14467369,0.45630178,0.0045336154,0.19149382,0.6105222,0.41030732,-0.0868936,0.022064911,0.43320617,-0.05590147,-0.27389187,-0.36040235,0.3572524,803.0403,791.75824,795.78754,801.4286,919.89014,0.089111328125,-0.094482421875,0.97979736328125,4.897308349609375,-1.79443359375,2.639312744140625,1.0,1.0,1.0,1.0,1.0,30.0,
2023-09-10 00:11:13.739,0.29527962,-0.10738913,-0.112660185,0.1962174,-0.040772397,-0.2416401,0.016166192,0.14467369,0.45630178,0.0045336154,0.19149382,0.6105222,0.41030732,-0.0868936,0.022064911,0.43320617,-0.05590147,-0.27389187,-0.36040235,0.3572524,808.68134,791.75824,789.7436,776.8498,707.9487,0.0892333984375,-0.072509765625,0.994384765625,6.041259765625,-3.147735595703125,0.186920166015625,1.0,1.0,1.0,1.0,1.0,30.0,
2023-09-10 00:11:13.778,0.29527962,-0.10738913,-0.112660185,0.1962174,-0.040772397,-0.2416401,0.016166192,0.14467369,0.45630178,0.0045336154,0.19149382,0.6105222,0.41030732,-0.0868936,0.022064911,0.43320617,-0.05590147,-0.27389187,-0.36040235,0.3572524,807.8755,793.36993,789.34064,794.9817,790.14655,0.05401611328125,-0.090087890625,0.9847412109375,5.90667724609375,-1.428070068359375,-6.258087158203125,1.0,1.0,1.0,1.0,1.0,30.0,
2023-09-10 00:11:13.785,0.24629693,-0.081977695,-0.104832485,0.18331891,-0.04638016,-0.2381245,0.014963291,0.10614947,0.51370585,0.01698448,0.200984,0.6053758,0.41821817,-0.10309686,0.0134823825,0.43036452,-0.056040335,-0.27500474,-0.35541812,0.35325187,803.44324,795.78754,799.81683,795.78754,730.10986,0.05401611328125,-0.090087890625,0.9847412109375,5.90667724609375,-1.428070068359375,-6.258087158203125,1.0,1.0,1.0,1.0,1.0,30.0,
2023-09-10 00:11:13.879,0.24629693,-0.081977695,-0.104832485,0.18331891,-0.04638016,-0.2381245,0.014963291,0.10614947,0.51370585,0.01698448,0.200984,0.6053758,0.41821817,-0.10309686,0.0134823825,0.43036452,-0.056040335,-0.27500474,-0.35541812,0.35325187,805.4579,792.1612,797.3993,786.52014,674.10254,0.06610107421875,-0.0941162109375,1.003173828125,5.66741943359375,-2.325286865234375,-8.38897705078125,1.0,1.0,1.0,1.0,1.0,30.0,
2023-09-10 00:11:13.928,0.24629693,-0.081977695,-0.104832485,0.18331891,-0.04638016,-0.2381245,0.014963291,0.10614947,0.51370585,0.01698448,0.200984,0.6053758,0.41821817,-0.10309686,0.0134823825,0.43036452,-0.056040335,-0.27500474,-0.35541812,0.35325187,807.47253,789.34064,803.44324,811.50183,846.55676,0.1370849609375,-0.09552001953125,1.0013427734375,0.112152099609375,-10.235748291015623,-4.26177978515625,1.0,1.0,1.0,1.0,1.0,30.0,
2023-09-10 00:11:13.929,0.20660897,-0.058229394,-0.09919674,0.1812494,-0.034807708,-0.25008854,0.0046441606,0.07475366,0.53295344,0.07614416,0.200984,0.6053758,0.4266751,-0.1143502,-0.0012061886,0.42403886,-0.052653898,-0.27555737,-0.3531569,0.34320813,802.23444,786.52014,805.4579,808.68134,729.304,0.1370849609375,-0.09552001953125,1.0013427734375,0.112152099609375,-10.235748291015623,-4.26177978515625,1.0,1.0,1.0,1.0,1.0,30.0,
2023-09-10 00:11:14.012,0.20660897,-0.058229394,-0.09919674,0.1812494,-0.034807708,-0.25008854,0.0046441606,0.07475366,0.53295344,0.07614416,0.200984,0.6053758,0.4266751,-0.1143502,-0.0012061886,0.42403886,-0.052653898,-0.27555737,-0.3531569,0.34320813,789.7436,787.72894,793.7729,796.5934,675.7143,0.16650390625,-0.097900390625,0.9722900390625,0.575714111328125,-7.768402099609375,2.82623291015625,1.0,1.0,1.0,1.0,1.0,30.0,
2023-09-10 00:11:14.049,0.20660897,-0.058229394,-0.09919674,0.1812494,-0.034807708,-0.25008854,0.0046441606,0.07475366,0.53295344,0.07614416,0.200984,0.6053758,0.4266751,-0.1143502,-0.0012061886,0.42403886,-0.052653898,-0.27555737,-0.3531569,0.34320813,796.99634,791.3553,792.1612,792.96704,733.73627,0.1063232421875,-0.12896728515625,0.98193359375,1.786956787109375,-1.069183349609375,-0.381317138671875,1.0,1.0,1.0,1.0,1.0,30.0,
2023-09-10 00:11:14.052,0.1785663,-0.030595627,-0.09350166,0.18428199,-0.014812498,-0.27727774,-0.008052874,0.055954743,0.53295344,0.16233397,0.200984,0.6053758,0.4322477,-0.1209827,-0.015018851,0.41574696,-0.043054055,-0.27543926,-0.35097548,0.32167584,794.9817,795.78754,791.75824,799.81683,873.1502,0.1063232421875,-0.12896728515625,0.98193359375,1.786956787109375,-1.069183349609375,-0.381317138671875,1.0,1.0,1.0,1.0,1.0,30.0,
2023-09-10 00:11:14.134,0.1785663,-0.030595627,-0.09350166,0.18428199,-0.014812498,-0.27727774,-0.008052874,0.055954743,0.53295344,0.16233397,0.200984,0.6053758,0.4322477,-0.1209827,-0.015018851,0.41574696,-0.043054055,-0.27543926,-0.35097548,0.32167584,798.20514,786.9231,789.7436,780.87915,797.8022,0.12432861328125,-0.1064453125,0.97723388671875,7.40203857421875,-3.0804443359375,-4.0673828125,1.0,1.0,1.0,1.0,1.0,30.0,
2023-09-10 00:11:14.137,0.15652959,0.007541435,-0.086576805,0.184279,0.00090406806,-0.31102267,-0.022065492,0.04943067,0.53295344,0.1918073,0.22206283,0.6053758,0.43108612,-0.12535258,-0.022373794,0.41034627,-0.03125498,-0.27675542,-0.34657258,0.29520988,796.5934,794.9817,796.1905,795.38464,774.43225,0.12432861328125,-0.1064453125,0.97723388671875,7.40203857421875,-3.0804443359375,-4.0673828125,1.0,1.0,1.0,1.0,1.0,30.0,
2023-09-10 00:11:14.201,0.15652959,0.007541435,-0.086576805,0.184279,0.00090406806,-0.31102267,-0.022065492,0.04943067,0.53295344,0.1918073,0.22206283,0.6053758,0.43108612,-0.12535258,-0.022373794,0.41034627,-0.03125498,-0.27675542,-0.34657258,0.29520988,802.23444,794.17584,800.2198,803.44324,744.21246,0.1229248046875,-0.0948486328125,1.00128173828125,6.422576904296875,-1.936492919921875,-0.9271240234375,1.0,1.0,1.0,1.0,1.0,30.0,
2023-09-10 00:11:14.241,0.15652959,0.007541435,-0.086576805,0.184279,0.00090406806,-0.31102267,-0.022065492,0.04943067,0.53295344,0.1918073,0.22206283,0.6053758,0.43108612,-0.12535258,-0.022373794,0.41034627,-0.03125498,-0.27675542,-0.34657258,0.29520988,802.23444,795.78754,793.7729,799.011,870.7326,0.12109375,-0.08721923828125,1.00048828125,1.353302001953125,-1.338348388671875,2.75146484375,1.0,1.0,1.0,1.0,1.0,30.0,
2023-09-10 00:11:14.246,0.15407898,0.05040725,-0.074677,0.16801652,0.0073684594,-0.33354858,-0.042984605,0.053139392,0.5330244,0.1918073,0.29330364,0.63120747,0.4197176,-0.12580454,-0.026302777,0.40939426,-0.02434728,-0.28132382,-0.33930582,0.27667588,794.57874,788.1319,804.65204,787.326,697.8755,0.12109375,-0.08721923828125,1.00048828125,1.353302001953125,-1.338348388671875,2.75146484375,1.0,1.0,1.0,1.0,1.0,30.0,
2023-09-10 00:11:14.261,0.15407898,0.05040725,-0.074677,0.16801652,0.0073684594,-0.33354858,-0.042984605,0.053139392,0.5330244,0.1918073,0.29330364,0.63120747,0.4197176,-0.12580454,-0.026302777,0.40939426,-0.02434728,-0.28132382,-0.33930582,0.27667588,796.1905,807.8755,796.5934,786.9231,698.2784,0.088134765625,-0.1085205078125,0.97113037109375,1.375732421875,-0.6280517578125,2.213134765625,1.0,1.0,1.0,1.0,1.0,30.0,
2023-09-10 00:11:14.317,0.15407898,0.05040725,-0.074677,0.16801652,0.0073684594,-0.33354858,-0.042984605,0.053139392,0.5330244,0.1918073,0.29330364,0.63120747,0.4197176,-0.12580454,-0.026302777,0.40939426,-0.02434728,-0.28132382,-0.33930582,0.27667588,799.41394,803.8461,792.1612,786.9231,805.8608,0.0841064453125,-0.11053466796875,0.979248046875,4.344024658203125,-0.934600830078125,-2.444915771484375,1.0,1.0,1.0,1.0,1.0,30.0,
2023-09-10 00:11:14.325,0.1716581,0.086959526,-0.058111664,0.12343783,0.0071777077,-0.33331323,-0.07483854,0.06000839,0.53660566,0.19122972,0.32413098,0.64426565,0.3961744,-0.11739368,-0.033520877,0.40938926,-0.026202513,-0.28892556,-0.33172706,0.2745338,804.2491,795.38464,793.7729,792.1612,587.47253,0.0841064453125,-0.11053466796875,0.979248046875,4.344024658203125,-0.934600830078125,-2.444915771484375,1.0,1.0,1.0,1.0,1.0,30.0,
2023-09-10 00:11:14.437,0.1716581,0.086959526,-0.058111664,0.12343783,0.0071777077,-0.33331323,-0.07483854,0.06000839,0.53660566,0.19122972,0.32413098,0.64426565,0.3961744,-0.11739368,-0.033520877,0.40938926,-0.026202513,-0.28892556,-0.33172706,0.2745338,803.0403,799.81683,801.8315,796.5934,690.6227,0.09619140625,-0.10662841796875,0.986572265625,4.568328857421875,-2.998199462890625,-3.66363525390625,1.0,1.0,1.0,1.0,1.0,30.0,
2023-09-10 00:11:14.445,0.19602461,0.117647834,-0.038947232,0.057351865,0.0056478935,-0.31592834,-0.11200103,0.06209307,0.54947656,0.1898984,0.33919406,0.6442509,0.36165914,-0.095561266,-0.04648834,0.40802225,-0.03431151,-0.296504,-0.32695124,0.2859059,804.2491,790.9524,795.78754,814.3223,759.5238,0.09619140625,-0.10662841796875,0.986572265625,4.568328857421875,-2.998199462890625,-3.66363525390625,1.0,1.0,1.0,1.0,1.0,30.0,
2023-09-10 00:11:14.460,0.19602461,0.117647834,-0.038947232,0.057351865,0.0056478935,-0.31592834,-0.11200103,0.06209307,0.54947656,0.1898984,0.33919406,0.6442509,0.36165914,-0.095561266,-0.04648834,0.40802225,-0.03431151,-0.296504,-0.32695124,0.2859059,802.23444,792.96704,797.3993,807.47253,748.24176,0.1068115234375,-0.1114501953125,0.98724365234375,4.18701171875,-3.768310546875,-0.725250244140625,1.0,1.0,1.0,1.0,1.0,30.0,
2023-09-10 00:11:14.500,0.19602461,0.117647834,-0.038947232,0.057351865,0.0056478935,-0.31592834,-0.11200103,0.06209307,0.54947656,0.1898984,0.33919406,0.6442509,0.36165914,-0.095561266,-0.04648834,0.40802225,-0.03431151,-0.296504,-0.32695124,0.2859059,804.2491,790.9524,784.90845,795.78754,878.3883,0.10498046875,-0.11749267578125,0.98309326171875,3.222503662109375,-4.44122314453125,-0.127105712890625,1.0,1.0,1.0,1.0,1.0,30.0,
2023-09-10 00:11:14.536,0.19602461,0.117647834,-0.038947232,0.057351865,0.0056478935,-0.31592834,-0.11200103,0.06209307,0.54947656,0.1898984,0.33919406,0.6442509,0.36165914,-0.095561266,-0.04648834,0.40802225,-0.03431151,-0.296504,-0.32695124,0.2859059,794.9817,797.3993,795.78754,784.5055,768.7912,0.10430908203125,-0.1175537109375,0.98297119140625,4.23187255859375,-4.4561767578125,-0.859832763671875,1.0,1.0,1.0,1.0,1.0,30.0,
2023-09-10 00:11:14.537,0.20242725,0.1418824,-0.023324441,-0.009787645,0.0053902115,-0.2944439,-0.14264159,0.05981136,0.56065995,0.19235794,0.3540337,0.62868696,0.32238045,-0.06325351,-0.06127899,0.4090596,-0.04365327,-0.29976034,-0.32546553,0.30016682,798.20514,798.60803,791.3553,792.1612,798.20514,0.10430908203125,-0.1175537109375,0.98297119140625,4.23187255859375,-4.4561767578125,-0.859832763671875,1.0,1.0,1.0,1.0,1.0,30.0,
2023-09-10 00:11:14.586,0.20242725,0.1418824,-0.023324441,-0.009787645,0.0053902115,-0.2944439,-0.14264159,0.05981136,0.56065995,0.19235794,0.3540337,0.62868696,0.32238045,-0.06325351,-0.06127899,0.4090596,-0.04365327,-0.29976034,-0.32546553,0.30016682,797.3993,800.2198,793.7729,800.6227,846.55676,0.11114501953125,-0.1123046875,0.98681640625,5.256195068359375,-2.385101318359375,-2.026214599609375,1.0,1.0,1.0,1.0,1.0,30.0,
2023-09-10 00:11:14.659,0.18761374,0.16516824,-0.013945566,-0.044216532,0.0062525827,-0.27746087,-0.15434548,0.07218816,0.5639427,0.19235794,0.3540337,0.6093052,0.29066092,-0.030825313,-0.074086055,0.41953602,-0.05055399,-0.29623735,-0.32613882,0.3069268,815.12823,800.6227,803.0403,804.2491,774.0293,0.11114501953125,-0.1123046875,0.98681640625,5.256195068359375,-2.385101318359375,-2.026214599609375,1.0,1.0,1.0,1.0,1.0,30.0,
2023-09-10 00:11:14.695,0.18761374,0.16516824,-0.013945566,-0.044216532,0.0062525827,-0.27746087,-0.15434548,0.07218816,0.5639427,0.19235794,0.3540337,0.6093052,0.29066092,-0.030825313,-0.074086055,0.41953602,-0.05055399,-0.29623735,-0.32613882,0.3069268,795.38464,798.20514,797.3993,791.3553,705.9341,0.10986328125,-0.10980224609375,0.984619140625,5.988922119140625,-1.92901611328125,-1.27105712890625,1.0,1.0,1.0,1.0,1.0,30.0,
2023-09-10 00:11:14.755,0.18761374,0.16516824,-0.013945566,-0.044216532,0.0062525827,-0.27746087,-0.15434548,0.07218816,0.5639427,0.19235794,0.3540337,0.6093052,0.29066092,-0.030825313,-0.074086055,0.41953602,-0.05055399,-0.29623735,-0.32613882,0.3069268,803.8461,790.9524,798.20514,801.4286,724.4689,0.10443115234375,-0.11077880859375,0.98919677734375,5.14404296875,-2.758941650390625,-1.21124267578125,1.0,1.0,1.0,1.0,1.0,30.0,
2023-09-10 00:11:14.759,0.17387746,0.19485117,-0.012325546,-0.020262593,0.010126006,-0.26424342,-0.1414738,0.11496612,0.5600504,0.19613324,0.35835075,0.60592675,0.27907598,-0.009528002,-0.08526005,0.44052398,-0.055108916,-0.29022875,-0.3328063,0.30093822,812.3077,791.75824,792.96704,805.4579,842.9304,0.10443115234375,-0.11077880859375,0.98919677734375,5.14404296875,-2.758941650390625,-1.21124267578125,1.0,1.0,1.0,1.0,1.0,30.0,
2023-09-10 00:11:14.820,0.17387746,0.19485117,-0.012325546,-0.020262593,0.010126006,-0.26424342,-0.1414738,0.11496612,0.5600504,0.19613324,0.35835075,0.60592675,0.27907598,-0.009528002,-0.08526005,0.44052398,-0.055108916,-0.29022875,-0.3328063,0.30093822,801.8315,791.3553,795.38464,792.1612,684.9817,0.1142578125,-0.11053466796875,0.99005126953125,4.74029541015625,-4.553375244140625,0.456085205078125,1.0,1.0,1.0,1.0,1.0,30.0,
2023-09-10 00:11:14.835,0.17387746,0.19485117,-0.012325546,-0.020262593,0.010126006,-0.26424342,-0.1414738,0.11496612,0.5600504,0.19613324,0.35835075,0.60592675,0.27907598,-0.009528002,-0.08526005,0.44052398,-0.055108916,-0.29022875,-0.3328063,0.30093822,805.8608,787.72894,799.81683,813.1135,714.7985,0.12347412109375,-0.0980224609375,0.98681640625,4.74029541015625,-4.5159912109375,0.844879150390625,1.0,1.0,1.0,1.0,1.0,30.0,
2023-09-10 00:11:14.839,0.17555286,0.22854364,-0.016355677,0.03193493,0.021742264,-0.25402004,-0.11392034,0.17746352,0.5640985,0.20042512,0.36059695,0.61991817,0.28941822,-0.0043076393,-0.096525416,0.46561214,-0.06016135,-0.2895984,-0.35168323,0.28621426,807.47253,799.81683,792.96704,815.9341,734.5421,0.12347412109375,-0.0980224609375,0.98681640625,4.74029541015625,-4.5159912109375,0.844879150390625,1.0,1.0,1.0,1.0,1.0,30.0,
2023-09-10 00:11:14.944,0.17555286,0.22854364,-0.016355677,0.03193493,0.021742264,-0.25402004,-0.11392034,0.17746352,0.5640985,0.20042512,0.36059695,0.61991817,0.28941822,-0.0043076393,-0.096525416,0.46561214,-0.06016135,-0.2895984,-0.35168323,0.28621426,788.5348,792.5641,795.38464,798.60803,687.3993,0.11077880859375,-0.0958251953125,0.98516845703125,4.598236083984375,-0.814971923828125,-0.530853271484375,1.0,1.0,1.0,1.0,1.0,30.0,
2023-09-10 00:11:14.951,0.19486135,0.25668675,-0.01792904,0.078012586,0.04158537,-0.24494888,-0.09146125,0.23350987,0.5671997,0.20042512,0.35932985,0.64668864,0.31033555,-0.01037071,-0.10609352,0.4892881,-0.06969057,-0.2984451,-0.38384137,0.27171174,801.4286,792.96704,794.17584,803.0403,1007.326,0.11077880859375,-0.0958251953125,0.98516845703125,4.598236083984375,-0.814971923828125,-0.530853271484375,1.0,1.0,1.0,1.0,1.0,30.0,
2023-09-10 00:11:14.997,0.19486135,0.25668675,-0.01792904,0.078012586,0.04158537,-0.24494888,-0.09146125,0.23350987,0.5671997,0.20042512,0.35932985,0.64668864,0.31033555,-0.01037071,-0.10609352,0.4892881,-0.06969057,-0.2984451,-0.38384137,0.27171174,809.89014,792.96704,793.36993,796.99634,829.6337,0.103271484375,-0.10498046875,1.016845703125,1.3458251953125,-1.831817626953125,-3.27484130859375,1.0,1.0,1.0,1.0,1.0,30.0,
2023-09-10 00:11:15.016,0.19486135,0.25668675,-0.01792904,0.078012586,0.04158537,-0.24494888,-0.09146125,0.23350987,0.5671997,0.20042512,0.35932985,0.64668864,0.31033555,-0.01037071,-0.10609352,0.4892881,-0.06969057,-0.2984451,-0.38384137,0.27171174,811.9048,794.9817,794.57874,800.2198,770.40295,0.12384033203125,-0.107666015625,0.9615478515625,0.979461669921875,-1.27105712890625,-4.50103759765625,1.0,1.0,1.0,1.0,1.0,30.0,
2023-09-10 00:11:15.026,0.220175,0.28308058,-0.01968223,0.10426452,0.059293825,-0.23788165,-0.08901156,0.26919803,0.5769664,0.20173988,0.35932985,0.649287,0.32696524,-0.01634384,-0.11248157,0.50890446,-0.08477408,-0.31324604,-0.4198489,0.26324654,820.7692,805.4579,795.38464,812.71063,805.05493,0.12384033203125,-0.107666015625,0.9615478515625,0.979461669921875,-1.27105712890625,-4.50103759765625,1.0,1.0,1.0,1.0,1.0,30.0,
2023-09-10 00:11:15.086,0.220175,0.28308058,-0.01968223,0.10426452,0.059293825,-0.23788165,-0.08901156,0.26919803,0.5769664,0.20173988,0.35932985,0.649287,0.32696524,-0.01634384,-0.11248157,0.50890446,-0.08477408,-0.31324604,-0.4198489,0.26324654,803.44324,794.57874,807.0696,805.8608,731.31866,0.0938720703125,-0.12799072265625,0.9876708984375,3.33465576171875,-0.336456298828125,-5.001983642578125,1.0,1.0,1.0,1.0,1.0,30.0,
2023-09-10 00:11:15.136,0.220175,0.28308058,-0.01968223,0.10426452,0.059293825,-0.23788165,-0.08901156,0.26919803,0.5769664,0.20173988,0.35932985,0.649287,0.32696524,-0.01634384,-0.11248157,0.50890446,-0.08477408,-0.31324604,-0.4198489,0.26324654,811.0989,797.8022,799.011,791.3553,678.93774,0.066162109375,-0.1259765625,0.97918701171875,6.4599609375,0.04486083984375,-7.7459716796875,1.0,1.0,1.0,1.0,1.0,30.0,
2023-09-10 00:11:15.147,0.2430155,0.30667546,-0.026448458,0.13162598,0.06310996,-0.23226765,-0.107282,0.28424862,0.5994789,0.20313466,0.35932985,0.6197604,0.33227542,-0.012836122,-0.11655706,0.52418566,-0.101057746,-0.3236502,-0.44835052,0.2595546,796.1905,794.17584,802.23444,807.47253,893.2967,0.066162109375,-0.1259765625,0.97918701171875,6.4599609375,0.04486083984375,-7.7459716796875,1.0,1.0,1.0,1.0,1.0,30.0,
2023-09-10 00:11:15.192,0.2430155,0.30667546,-0.026448458,0.13162598,0.06310996,-0.23226765,-0.107282,0.28424862,0.5994789,0.20313466,0.35932985,0.6197604,0.33227542,-0.012836122,-0.11655706,0.52418566,-0.101057746,-0.3236502,-0.44835052,0.2595546,802.23444,792.1612,798.60803,797.8022,655.16486,0.10821533203125,-0.10443115234375,0.9913330078125,6.407623291015625,-4.42626953125,-8.471221923828125,1.0,1.0,1.0,1.0,1.0,30.0,
2023-09-10 00:11:15.223,0.2430155,0.30667546,-0.026448458,0.13162598,0.06310996,-0.23226765,-0.107282,0.28424862,0.5994789,0.20313466,0.35932985,0.6197604,0.33227542,-0.012836122,-0.11655706,0.52418566,-0.101057746,-0.3236502,-0.44835052,0.2595546,806.26373,796.99634,801.4286,812.3077,875.56775,0.13104248046875,-0.1070556640625,1.002197265625,1.33087158203125,-7.70111083984375,-2.55706787109375,1.0,1.0,1.0,1.0,1.0,30.0,
2023-09-10 00:11:15.226,0.25709695,0.3213433,-0.039094105,0.1645457,0.05289182,-0.22669844,-0.13247646,0.28703588,0.6073841,0.20256363,0.34627226,0.5783988,0.32778227,0.0014374073,-0.11866498,0.5354698,-0.10798727,-0.31957424,-0.46743155,0.256886,799.81683,794.17584,796.99634,800.2198,662.4176,0.13104248046875,-0.1070556640625,1.002197265625,1.33087158203125,-7.70111083984375,-2.55706787109375,1.0,1.0,1.0,1.0,1.0,30.0,
2023-09-10 00:11:15.295,0.25709695,0.3213433,-0.039094105,0.1645457,0.05289182,-0.22669844,-0.13247646,0.28703588,0.6073841,0.20256363,0.34627226,0.5783988,0.32778227,0.0014374073,-0.11866498,0.5354698,-0.10798727,-0.31957424,-0.46743155,0.256886,788.93774,792.5641,795.78754,800.6227,793.36993,0.15484619140625,-0.12261962890625,0.98797607421875,-3.177642822265625,-7.596435546875,4.44122314453125,1.0,1.0,1.0,1.0,1.0,30.0,
2023-09-10 00:11:15.353,0.25709695,0.3213433,-0.039094105,0.1645457,0.05289182,-0.22669844,-0.13247646,0.28703588,0.6073841,0.20256363,0.34627226,0.5783988,0.32778227,0.0014374073,-0.11866498,0.5354698,-0.10798727,-0.31957424,-0.46743155,0.256886,796.1905,788.93774,795.38464,798.60803,923.5165,0.11785888671875,-0.1297607421875,0.96966552734375,0.0299072265625,-3.880462646484375,3.7982177734375,1.0,1.0,1.0,1.0,1.0,30.0,
2023-09-10 00:11:15.357,0.26772752,0.3228745,-0.0503004,0.20006086,0.035720315,-0.21984856,-0.14910628,0.28577834,0.58977807,0.20256363,0.32441762,0.57007843,0.32234642,0.021488972,-0.113559686,0.5440769,-0.0979167,-0.29540002,-0.48255774,0.25442553,788.5348,799.011,793.7729,802.6374,776.8498,0.11785888671875,-0.1297607421875,0.96966552734375,0.0299072265625,-3.880462646484375,3.7982177734375,1.0,1.0,1.0,1.0,1.0,30.0,
2023-09-10 00:11:15.459,0.26772752,0.3228745,-0.0503004,0.20006086,0.035720315,-0.21984856,-0.14910628,0.28577834,0.58977807,0.20256363,0.32441762,0.57007843,0.32234642,0.021488972,-0.113559686,0.5440769,-0.0979167,-0.29540002,-0.48255774,0.25442553,797.8022,794.9817,792.1612,797.8022,727.28937,0.0850830078125,-0.12158203125,0.975830078125,4.08233642578125,-4.38140869140625,-1.1663818359375,1.0,1.0,1.0,1.0,1.0,30.0,
2023-09-10 00:11:15.464,0.27595523,0.31598228,-0.05323481,0.23632364,0.01794735,-0.21429074,-0.15496309,0.28504267,0.5534763,0.19610232,0.31732014,0.57007843,0.32362595,0.042196643,-0.09781874,0.55176115,-0.07479354,-0.25678733,-0.49522892,0.25396755,790.54944,794.57874,789.34064,803.0403,1116.5201,0.0850830078125,-0.12158203125,0.975830078125,4.08233642578125,-4.38140869140625,-1.1663818359375,1.0,1.0,1.0,1.0,1.0,30.0,
2023-09-10 00:11:15.478,0.27595523,0.31598228,-0.05323481,0.23632364,0.01794735,-0.21429074,-0.15496309,0.28504267,0.5534763,0.19610232,0.31732014,0.57007843,0.32362595,0.042196643,-0.09781874,0.55176115,-0.07479354,-0.25678733,-0.49522892,0.25396755,791.75824,789.7436,791.75824,782.49084,588.68134,0.09442138671875,-0.1239013671875,0.98974609375,5.450592041015625,-4.179534912109375,-6.878662109375,1.0,1.0,1.0,1.0,1.0,30.0,
2023-09-10 00:11:15.507,0.27595523,0.31598228,-0.05323481,0.23632364,0.01794735,-0.21429074,-0.15496309,0.28504267,0.5534763,0.19610232,0.31732014,0.57007843,0.32362595,0.042196643,-0.09781874,0.55176115,-0.07479354,-0.25678733,-0.49522892,0.25396755,809.89014,795.38464,793.7729,805.4579,724.0659,0.144287109375,-0.12542724609375,0.9920654296875,3.147735595703125,-5.794525146484375,-6.886138916015625,1.0,1.0,1.0,1.0,1.0,30.0,
2023-09-10 00:11:15.512,0.27969187,0.30009383,-0.051799655,0.26363268,0.0035968996,-0.21053812,-0.15649821,0.28369555,0.5262084,0.18370453,0.31732014,0.57007843,0.3321388,0.06262312,-0.07590041,0.559193,-0.047120556,-0.21716076,-0.50117296,0.25583655,792.5641,796.5934,796.1905,798.20514,811.50183,0.144287109375,-0.12542724609375,0.9920654296875,3.147735595703125,-5.794525146484375,-6.886138916015625,1.0,1.0,1.0,1.0,1.0,30.0,
2023-09-10 00:11:15.543,0.27969187,0.30009383,-0.051799655,0.26363268,0.0035968996,-0.21053812,-0.15649821,0.28369555,0.5262084,0.18370453,0.31732014,0.57007843,0.3321388,0.06262312,-0.07590041,0.559193,-0.047120556,-0.21716076,-0.50117296,0.25583655,801.8315,805.05493,796.5934,790.14655,713.9927,0.1607666015625,-0.1285400390625,0.97943115234375,0.657958984375,-6.273040771484375,-0.4486083984375,1.0,1.0,1.0,1.0,1.0,30.0,
2023-09-10 00:11:15.634,0.27969187,0.30009383,-0.051799655,0.26363268,0.0035968996,-0.21053812,-0.15649821,0.28369555,0.5262084,0.18370453,0.31732014,0.57007843,0.3321388,0.06262312,-0.07590041,0.559193,-0.047120556,-0.21716076,-0.50117296,0.25583655,791.75824,792.1612,797.8022,799.81683,804.2491,0.14666748046875,-0.1529541015625,0.98114013671875,-0.859832763671875,-5.794525146484375,2.43743896484375,1.0,1.0,1.0,1.0,1.0,30.0,
2023-09-10 00:11:15.643,0.28369612,0.27423546,-0.048559416,0.28276134,-0.002136756,-0.20859158,-0.15997683,0.27754748,0.48616418,0.16317922,0.31732014,0.57237667,0.34388253,0.08349007,-0.055563003,0.56560886,-0.01999346,-0.18728504,-0.49582645,0.25840023,804.65204,801.8315,796.5934,790.14655,644.2857,0.14666748046875,-0.1529541015625,0.98114013671875,-0.859832763671875,-5.794525146484375,2.43743896484375,1.0,1.0,1.0,1.0,1.0,30.0,
2023-09-10 00:11:15.717,0.28369612,0.27423546,-0.048559416,0.28276134,-0.002136756,-0.20859158,-0.15997683,0.27754748,0.48616418,0.16317922,0.31732014,0.57237667,0.34388253,0.08349007,-0.055563003,0.56560886,-0.01999346,-0.18728504,-0.49582645,0.25840023,797.3993,803.0403,797.3993,807.0696,925.9341,0.1505126953125,-0.1531982421875,0.97515869140625,0.620574951171875,-3.222503662109375,0.7476806640625,1.0,1.0,1.0,1.0,1.0,30.0,
2023-09-10 00:11:15.760,0.28369612,0.27423546,-0.048559416,0.28276134,-0.002136756,-0.20859158,-0.15997683,0.27754748,0.48616418,0.16317922,0.31732014,0.57237667,0.34388253,0.08349007,-0.055563003,0.56560886,-0.01999346,-0.18728504,-0.49582645,0.25840023,793.36993,802.23444,793.36993,803.44324,999.2674,0.144287109375,-0.158203125,0.974365234375,3.476715087890625,-1.65985107421875,-0.6280517578125,1.0,1.0,1.0,1.0,1.0,30.0,
2023-09-10 00:11:15.761,0.28613648,0.24203223,-0.046189636,0.2962321,0.007226881,-0.20955244,-0.16550636,0.26485234,0.44924027,0.13941471,0.3062237,0.63698167,0.35584652,0.10269044,-0.039559074,0.5705086,0.005423997,-0.16883773,-0.4791176,0.25786236,799.011,805.4579,790.54944,795.78754,695.4579,0.144287109375,-0.158203125,0.974365234375,3.476715087890625,-1.65985107421875,-0.6280517578125,1.0,1.0,1.0,1.0,1.0,30.0,
2023-09-10 00:11:15.798,0.28613648,0.24203223,-0.046189636,0.2962321,0.007226881,-0.20955244,-0.16550636,0.26485234,0.44924027,0.13941471,0.3062237,0.63698167,0.35584652,0.10269044,-0.039559074,0.5705086,0.005423997,-0.16883773,-0.4791176,0.25786236,819.15753,806.26373,792.5641,813.5165,803.44324,0.14373779296875,-0.145263671875,0.9779052734375,6.676788330078125,-1.323394775390625,1.099090576171875,1.0,1.0,1.0,1.0,1.0,30.0,
2023-09-10 00:11:15.865,0.28613648,0.24203223,-0.046189636,0.2962321,0.007226881,-0.20955244,-0.16550636,0.26485234,0.44924027,0.13941471,0.3062237,0.63698167,0.35584652,0.10269044,-0.039559074,0.5705086,0.005423997,-0.16883773,-0.4791176,0.25786236,804.65204,803.8461,791.75824,807.47253,774.83514,0.12847900390625,-0.13702392578125,0.97528076171875,6.616973876953125,-1.143951416015625,1.757049560546875,1.0,1.0,1.0,1.0,1.0,30.0,
2023-09-10 00:11:15.868,0.28134558,0.21032514,-0.050590597,0.3092619,0.03474573,-0.21535799,-0.1699245,0.24928479,0.4367919,0.1405402,0.28927863,0.74469686,0.3650678,0.114686005,-0.027436176,0.57345694,0.027592715,-0.15746254,-0.45680422,0.25090674,808.68134,802.23444,798.20514,805.4579,714.7985,0.12847900390625,-0.13702392578125,0.97528076171875,6.616973876953125,-1.143951416015625,1.757049560546875,1.0,1.0,1.0,1.0,1.0,30.0,
2023-09-10 00:11:15.901,0.28134558,0.21032514,-0.050590597,0.3092619,0.03474573,-0.21535799,-0.1699245,0.24928479,0.4367919,0.1405402,0.28927863,0.74469686,0.3650678,0.114686005,-0.027436176,0.57345694,0.027592715,-0.15746254,-0.45680422,0.25090674,785.31134,792.5641,785.7143,796.1905,724.87177,0.1207275390625,-0.138427734375,0.98101806640625,6.23565673828125,-3.701019287109375,2.04864501953125,1.0,1.0,1.0,1.0,1.0,30.0,
2023-09-10 00:11:15.956,0.258129,0.17872833,-0.06210083,0.32240063,0.07401843,-0.22416182,-0.17163928,0.23572794,0.43472007,0.14609022,0.2628079,0.7948039,0.3684336,0.11482596,-0.018399771,0.57303786,0.044366613,-0.14966199,-0.437623,0.23783815,799.41394,801.4286,790.9524,809.0842,836.08057,0.1207275390625,-0.138427734375,0.98101806640625,6.23565673828125,-3.701019287109375,2.04864501953125,1.0,1.0,1.0,1.0,1.0,30.0,
2023-09-10 00:11:16.015,0.258129,0.17872833,-0.06210083,0.32240063,0.07401843,-0.22416182,-0.17163928,0.23572794,0.43472007,0.14609022,0.2628079,0.7948039,0.3684336,0.11482596,-0.018399771,0.57303786,0.044366613,-0.14966199,-0.437623,0.23783815,798.60803,798.20514,796.1905,796.99634,897.326,0.13348388671875,-0.14013671875,0.983642578125,4.732818603515625,-4.972076416015625,1.158905029296875,1.0,1.0,1.0,1.0,1.0,30.0,
2023-09-10 00:11:16.056,0.258129,0.17872833,-0.06210083,0.32240063,0.07401843,-0.22416182,-0.17163928,0.23572794,0.43472007,0.14609022,0.2628079,0.7948039,0.3684336,0.11482596,-0.018399771,0.57303786,0.044366613,-0.14966199,-0.437623,0.23783815,809.0842,801.8315,793.7729,808.2784,689.011,0.13433837890625,-0.13848876953125,0.975341796875,4.867401123046875,-3.409423828125,-0.0897216796875,1.0,1.0,1.0,1.0,1.0,30.0,
2023-09-10 00:11:16.062,0.22483101,0.1552632,-0.07337726,0.3381675,0.115772285,-0.23113836,-0.17407809,0.22502218,0.4083397,0.1654234,0.20906825,0.8029664,0.36428952,0.104715995,-0.011561171,0.5678497,0.05665596,-0.14724247,-0.42679727,0.22427548,806.26373,801.02563,792.1612,801.02563,739.3773,0.13433837890625,-0.13848876953125,0.975341796875,4.867401123046875,-3.409423828125,-0.0897216796875,1.0,1.0,1.0,1.0,1.0,30.0,
2023-09-10 00:11:16.093,0.22483101,0.1552632,-0.07337726,0.3381675,0.115772285,-0.23113836,-0.17407809,0.22502218,0.4083397,0.1654234,0.20906825,0.8029664,0.36428952,0.104715995,-0.011561171,0.5678497,0.05665596,-0.14724247,-0.42679727,0.22427548,804.2491,796.99634,792.1612,802.6374,975.89746,0.13018798828125,-0.14599609375,0.98333740234375,4.5758056640625,-3.297271728515625,-0.97198486328125,1.0,1.0,1.0,1.0,1.0,30.0,
2023-09-10 00:11:16.160,0.22483101,0.1552632,-0.07337726,0.3381675,0.115772285,-0.23113836,-0.17407809,0.22502218,0.4083397,0.1654234,0.20906825,0.8029664,0.36428952,0.104715995,-0.011561171,0.5678497,0.05665596,-0.14724247,-0.42679727,0.22427548,808.2784,798.20514,790.9524,809.89014,744.21246,0.1495361328125,-0.1507568359375,0.97039794921875,4.418792724609375,-3.297271728515625,-2.0635986328125,1.0,1.0,1.0,1.0,1.0,30.0,
2023-09-10 00:11:16.166,0.19273983,0.13498811,-0.0790971,0.35204384,0.15202545,-0.23221631,-0.18511368,0.20787369,0.38721317,0.17438239,0.12601839,0.79966587,0.35440192,0.09370403,-0.004080664,0.55747503,0.06793683,-0.15181245,-0.4242208,0.21881384,806.26373,798.20514,798.20514,796.1905,698.68134,0.1495361328125,-0.1507568359375,0.97039794921875,4.418792724609375,-3.297271728515625,-2.0635986328125,1.0,1.0,1.0,1.0,1.0,30.0,
2023-09-10 00:11:16.249,0.19273983,0.13498811,-0.0790971,0.35204384,0.15202545,-0.23221631,-0.18511368,0.20787369,0.38721317,0.17438239,0.12601839,0.79966587,0.35440192,0.09370403,-0.004080664,0.55747503,0.06793683,-0.15181245,-0.4242208,0.21881384,805.8608,795.78754,795.78754,794.57874,679.7436,0.14715576171875,-0.14105224609375,0.98345947265625,6.32537841796875,-2.1533203125,-0.874786376953125,1.0,1.0,1.0,1.0,1.0,30.0,
2023-09-10 00:11:16.259,0.16263442,0.10478187,-0.08321496,0.35399517,0.17525338,-0.23517531,-0.2143001,0.17365971,0.3815684,0.18718873,0.10403713,0.79893374,0.34151143,0.09073531,0.0056479797,0.54322034,0.07954384,-0.15942416,-0.42423585,0.22564231,811.0989,798.60803,802.6374,813.5165,813.5165,0.14715576171875,-0.14105224609375,0.98345947265625,6.32537841796875,-2.1533203125,-0.874786376953125,1.0,1.0,1.0,1.0,1.0,30.0,
2023-09-10 00:11:16.316,0.16263442,0.10478187,-0.08321496,0.35399517,0.17525338,-0.23517531,-0.2143001,0.17365971,0.3815684,0.18718873,0.10403713,0.79893374,0.34151143,0.09073531,0.0056479797,0.54322034,0.07954384,-0.15942416,-0.42423585,0.22564231,808.2784,799.41394,800.2198,810.293,710.3663,0.13739013671875,-0.13262939453125,0.99139404296875,5.091705322265625,-1.831817626953125,-2.519683837890625,1.0,1.0,1.0,1.0,1.0,30.0,
2023-09-10 00:11:16.360,0.16263442,0.10478187,-0.08321496,0.35399517,0.17525338,-0.23517531,-0.2143001,0.17365971,0.3815684,0.18718873,0.10403713,0.79893374,0.34151143,0.09073531,0.0056479797,0.54322034,0.07954384,-0.15942416,-0.42423585,0.22564231,802.23444,806.6667,794.9817,781.685,628.1685,0.13836669921875,-0.14801025390625,0.9708251953125,2.893524169921875,-1.428070068359375,-3.790740966796875,1.0,1.0,1.0,1.0,1.0,30.0,
2023-09-10 00:11:16.368,0.16263442,0.10478187,-0.08321496,0.35399517,0.17525338,-0.23517531,-0.2143001,0.17365971,0.3815684,0.18718873,0.10403713,0.79893374,0.34151143,0.09073531,0.0056479797,0.54322034,0.07954384,-0.15942416,-0.42423585,0.22564231,815.5311,803.0403,797.8022,801.8315,908.20514,0.14764404296875,-0.15740966796875,0.97247314453125,4.134674072265625,-2.160797119140625,-3.282318115234375,1.0,1.0,1.0,1.0,1.0,30.0,
2023-09-10 00:11:16.369,0.13670395,0.059209127,-0.092867486,0.34624207,0.17971794,-0.25006914,-0.2637253,0.11914237,0.3959398,0.19587538,0.07558878,0.7979769,0.32562247,0.09581224,0.015489872,0.5269075,0.09023091,-0.16303103,-0.4193303,0.24081457,810.696,799.011,797.3993,814.3223,1133.4432,0.14764404296875,-0.15740966796875,0.97247314453125,4.134674072265625,-2.160797119140625,-3.282318115234375,1.0,1.0,1.0,1.0,1.0,30.0,
2023-09-10 00:11:16.443,0.13670395,0.059209127,-0.092867486,0.34624207,0.17971794,-0.25006914,-0.2637253,0.11914237,0.3959398,0.19587538,0.07558878,0.7979769,0.32562247,0.09581224,0.015489872,0.5269075,0.09023091,-0.16303103,-0.4193303,0.24081457,802.6374,795.78754,794.17584,812.3077,774.83514,0.15618896484375,-0.142822265625,0.978271484375,7.065582275390625,-4.23187255859375,3.252410888671875,1.0,1.0,1.0,1.0,1.0,30.0,
2023-09-10 00:11:16.483,0.11641035,0.013532537,-0.10970853,0.3323149,0.16629744,-0.28149405,-0.32130712,0.05581154,0.39306462,0.18591368,0.061539236,0.7980975,0.3049241,0.101563066,0.022436779,0.5086398,0.09893423,-0.15958445,-0.4059161,0.25771296,805.4579,796.99634,796.1905,804.2491,887.6557,0.15618896484375,-0.142822265625,0.978271484375,7.065582275390625,-4.23187255859375,3.252410888671875,1.0,1.0,1.0,1.0,1.0,30.0,
2023-09-10 00:11:16.533,0.11641035,0.013532537,-0.10970853,0.3323149,0.16629744,-0.28149405,-0.32130712,0.05581154,0.39306462,0.18591368,0.061539236,0.7980975,0.3049241,0.101563066,0.022436779,0.5086398,0.09893423,-0.15958445,-0.4059161,0.25771296,798.20514,799.41394,793.36993,799.81683,735.7509,0.1407470703125,-0.13055419921875,0.97637939453125,6.587066650390625,-1.03179931640625,5.196380615234375,1.0,1.0,1.0,1.0,1.0,30.0,
2023-09-10 00:11:16.580,0.11641035,0.013532537,-0.10970853,0.3323149,0.16629744,-0.28149405,-0.32130712,0.05581154,0.39306462,0.18591368,0.061539236,0.7980975,0.3049241,0.101563066,0.022436779,0.5086398,0.09893423,-0.15958445,-0.4059161,0.25771296,796.1905,799.81683,795.38464,809.89014,777.25275,0.1185302734375,-0.13543701171875,0.98809814453125,6.02630615234375,-1.114044189453125,2.5421142578125,1.0,1.0,1.0,1.0,1.0,30.0,
2023-09-10 00:11:16.587,0.10270244,-0.03356456,-0.13232061,0.31997555,0.14430705,-0.3181207,-0.36583185,0.0025259757,0.39103132,0.1668156,0.06837445,0.79559404,0.2796917,0.10096262,0.024798805,0.48866934,0.10462922,-0.15391068,-0.38852865,0.2742716,792.1612,786.52014,805.05493,792.96704,764.35895,0.1185302734375,-0.13543701171875,0.98809814453125,6.02630615234375,-1.114044189453125,2.5421142578125,1.0,1.0,1.0,1.0,1.0,30.0,
2023-09-10 00:11:16.634,0.10270244,-0.03356456,-0.13232061,0.31997555,0.14430705,-0.3181207,-0.36583185,0.0025259757,0.39103132,0.1668156,0.06837445,0.79559404,0.2796917,0.10096262,0.024798805,0.48866934,0.10462922,-0.15391068,-0.38852865,0.2742716,795.78754,799.81683,790.54944,790.14655,641.8681,0.12896728515625,-0.13690185546875,0.98040771484375,6.422576904296875,-2.07855224609375,1.7645263671875,1.0,1.0,1.0,1.0,1.0,30.0,
2023-09-10 00:11:16.643,0.10270244,-0.03356456,-0.13232061,0.31997555,0.14430705,-0.3181207,-0.36583185,0.0025259757,0.39103132,0.1668156,0.06837445,0.79559404,0.2796917,0.10096262,0.024798805,0.48866934,0.10462922,-0.15391068,-0.38852865,0.2742716,799.81683,798.20514,786.1172,793.36993,725.6777,0.1302490234375,-0.13568115234375,0.9788818359375,5.802001953125,-2.34771728515625,1.54022216796875,1.0,1.0,1.0,1.0,1.0,30.0,
2023-09-10 00:11:16.647,0.09558523,-0.08422474,-0.15101907,0.30237877,0.12513211,-0.3403449,-0.38441947,-0.025673201,0.39250016,0.16038053,0.0719666,0.7927098,0.25493756,0.09300454,0.022374814,0.4694831,0.105730176,-0.15429467,-0.3744739,0.28985563,786.9231,787.72894,786.9231,791.75824,799.81683,0.1302490234375,-0.13568115234375,0.9788818359375,5.802001953125,-2.34771728515625,1.54022216796875,1.0,1.0,1.0,1.0,1.0,30.0,
2023-09-10 00:11:16.762,0.09558523,-0.08422474,-0.15101907,0.30237877,0.12513211,-0.3403449,-0.38441947,-0.025673201,0.39250016,0.16038053,0.0719666,0.7927098,0.25493756,0.09300454,0.022374814,0.4694831,0.105730176,-0.15429467,-0.3744739,0.28985563,811.50183,796.99634,794.17584,807.8755,768.7912,0.12322998046875,-0.13067626953125,0.98663330078125,5.39825439453125,-2.43743896484375,2.43743896484375,1.0,1.0,1.0,1.0,1.0,30.0,
2023-09-10 00:11:16.768,0.09983599,-0.12983021,-0.16034397,0.27337953,0.110720865,-0.3394872,-0.38275394,-0.033200454,0.37012655,0.1517723,0.13581227,0.79511195,0.23691857,0.08232217,0.015060624,0.45458755,0.09925297,-0.16566058,-0.36486906,0.30320182,790.14655,790.9524,796.99634,809.89014,1057.2894,0.12322998046875,-0.13067626953125,0.98663330078125,5.39825439453125,-2.43743896484375,2.43743896484375,1.0,1.0,1.0,1.0,1.0,30.0,
2023-09-10 00:11:16.817,0.09983599,-0.12983021,-0.16034397,0.27337953,0.110720865,-0.3394872,-0.38275394,-0.033200454,0.37012655,0.1517723,0.13581227,0.79511195,0.23691857,0.08232217,0.015060624,0.45458755,0.09925297,-0.16566058,-0.36486906,0.30320182,806.26373,797.3993,805.8608,816.7399,826.8132,0.1234130859375,-0.12982177734375,0.9736328125,5.12908935546875,-3.6187744140625,0.082244873046875,1.0,1.0,1.0,1.0,1.0,30.0,
2023-09-10 00:11:16.827,0.09983599,-0.12983021,-0.16034397,0.27337953,0.110720865,-0.3394872,-0.38275394,-0.033200454,0.37012655,0.1517723,0.13581227,0.79511195,0.23691857,0.08232217,0.015060624,0.45458755,0.09925297,-0.16566058,-0.36486906,0.30320182,802.23444,797.8022,793.7729,800.2198,928.3516,0.13128662109375,-0.13128662109375,0.9815673828125,5.562744140625,-3.0206298828125,-1.158905029296875,1.0,1.0,1.0,1.0,1.0,30.0,
2023-09-10 00:11:16.835,0.12155178,-0.15330979,-0.15692325,0.23984396,0.09680719,-0.3250907,-0.36281085,-0.02919566,0.3445686,0.12972458,0.2071871,0.795947,0.22528848,0.07569326,0.0017885992,0.44439977,0.0844936,-0.18706264,-0.3550417,0.31348303,797.8022,792.1612,797.8022,801.8315,757.9121,0.13128662109375,-0.13128662109375,0.9815673828125,5.562744140625,-3.0206298828125,-1.158905029296875,1.0,1.0,1.0,1.0,1.0,30.0,
2023-09-10 00:11:16.885,0.12155178,-0.15330979,-0.15692325,0.23984396,0.09680719,-0.3250907,-0.36281085,-0.02919566,0.3445686,0.12972458,0.2071871,0.795947,0.22528848,0.07569326,0.0017885992,0.44439977,0.0844936,-0.18706264,-0.3550417,0.31348303,802.23444,790.9524,798.20514,803.44324,714.7985,0.1317138671875,-0.13232421875,0.98486328125,4.6356201171875,-3.63372802734375,-0.530853271484375,1.0,1.0,1.0,1.0,1.0,30.0,
2023-09-10 00:11:16.921,0.12155178,-0.15330979,-0.15692325,0.23984396,0.09680719,-0.3250907,-0.36281085,-0.02919566,0.3445686,0.12972458,0.2071871,0.795947,0.22528848,0.07569326,0.0017885992,0.44439977,0.0844936,-0.18706264,-0.3550417,0.31348303,799.41394,792.5641,791.75824,798.60803,777.25275,0.1285400390625,-0.13323974609375,0.976318359375,4.05242919921875,-4.18701171875,-0.770111083984375,1.0,1.0,1.0,1.0,1.0,30.0,
2023-09-10 00:11:16.971,0.15785961,-0.15881678,-0.14006935,0.21133411,0.084616356,-0.30548668,-0.3180737,-0.019002952,0.31852585,0.099907376,0.21407492,0.795947,0.21403687,0.07705669,-0.017334182,0.43662867,0.06513441,-0.20820965,-0.3405646,0.32308966,801.02563,791.75824,794.57874,804.65204,622.1245,0.1285400390625,-0.13323974609375,0.976318359375,4.05242919921875,-4.18701171875,-0.770111083984375,1.0,1.0,1.0,1.0,1.0,30.0,
2023-09-10 00:11:17.007,0.15785961,-0.15881678,-0.14006935,0.21133411,0.084616356,-0.30548668,-0.3180737,-0.019002952,0.31852585,0.099907376,0.21407492,0.795947,0.21403687,0.07705669,-0.017334182,0.43662867,0.06513441,-0.20820965,-0.3405646,0.32308966,808.2784,786.1172,799.81683,796.99634,698.2784,0.14129638671875,-0.135498046875,0.97296142578125,4.88983154296875,-3.327178955078125,-1.039276123046875,1.0,1.0,1.0,1.0,1.0,30.0,
2023-09-10 00:11:17.069,0.15785961,-0.15881678,-0.14006935,0.21133411,0.084616356,-0.30548668,-0.3180737,-0.019002952,0.31852585,0.099907376,0.21407492,0.795947,0.21403687,0.07705669,-0.017334182,0.43662867,0.06513441,-0.20820965,-0.3405646,0.32308966,810.696,796.99634,800.2198,806.6667,709.15753,0.13739013671875,-0.13897705078125,0.9879150390625,5.600128173828125,-3.282318115234375,-0.8673095703125,1.0,1.0,1.0,1.0,1.0,30.0,
2023-09-10 00:11:17.071,0.1944528,-0.15472572,-0.109831855,0.1991902,0.078961074,-0.28694835,-0.2556364,-0.0059274947,0.29644266,0.08393798,0.21502139,0.795947,0.19798476,0.08274264,-0.040550344,0.42817393,0.04498199,-0.21643399,-0.32368773,0.33587563,800.2198,789.7436,794.17584,798.20514,647.1062,0.13739013671875,-0.13897705078125,0.9879150390625,5.600128173828125,-3.282318115234375,-0.8673095703125,1.0,1.0,1.0,1.0,1.0,30.0,
2023-09-10 00:11:17.104,0.1944528,-0.15472572,-0.109831855,0.1991902,0.078961074,-0.28694835,-0.2556364,-0.0059274947,0.29644266,0.08393798,0.21502139,0.795947,0.19798476,0.08274264,-0.040550344,0.42817393,0.04498199,-0.21643399,-0.32368773,0.33587563,799.81683,788.1319,794.17584,793.7729,813.91943,0.15948486328125,-0.13250732421875,0.98358154296875,3.51409912109375,-4.11224365234375,-0.590667724609375,1.0,1.0,1.0,1.0,1.0,30.0,
2023-09-10 00:11:17.147,0.1944528,-0.15472572,-0.109831855,0.1991902,0.078961074,-0.28694835,-0.2556364,-0.0059274947,0.29644266,0.08393798,0.21502139,0.795947,0.19798476,0.08274264,-0.040550344,0.42817393,0.04498199,-0.21643399,-0.32368773,0.33587563,806.26373,790.54944,791.3553,796.1905,786.52014,0.14202880859375,-0.12615966796875,0.987060546875,6.6094970703125,-0.58319091796875,-1.016845703125,1.0,1.0,1.0,1.0,1.0,30.0,
2023-09-10 00:11:17.152,0.21065271,-0.15079586,-0.07681306,0.19902462,0.0793219,-0.27029312,-0.1957487,0.0076570013,0.2533291,0.067249924,0.2167273,0.795947,0.17763253,0.08488545,-0.065829605,0.41663563,0.024753198,-0.20990106,-0.3107459,0.35173446,806.6667,803.0403,794.9817,795.78754,830.0366,0.14202880859375,-0.12615966796875,0.987060546875,6.6094970703125,-0.58319091796875,-1.016845703125,1.0,1.0,1.0,1.0,1.0,30.0,
2023-09-10 00:11:17.270,0.21065271,-0.15079586,-0.07681306,0.19902462,0.0793219,-0.27029312,-0.1957487,0.0076570013,0.2533291,0.067249924,0.2167273,0.795947,0.17763253,0.08488545,-0.065829605,0.41663563,0.024753198,-0.20990106,-0.3107459,0.35173446,805.4579,794.57874,792.1612,801.8315,702.71063,0.08917236328125,-0.1295166015625,0.96490478515625,8.112335205078125,3.8580322265625,-8.022613525390625,1.0,1.0,1.0,1.0,1.0,30.0,
2023-09-10 00:11:17.277,0.20455731,-0.1454816,-0.057375252,0.20056312,0.07544267,-0.2559628,-0.15362325,0.015646374,0.23446852,0.06563115,0.21445417,0.795947,0.15804167,0.07934401,-0.09033827,0.40034914,0.0039498615,-0.19917627,-0.3065817,0.3662855,810.696,791.3553,797.3993,811.0989,1001.28204,0.08917236328125,-0.1295166015625,0.96490478515625,8.112335205078125,3.8580322265625,-8.022613525390625,1.0,1.0,1.0,1.0,1.0,30.0,
2023-09-10 00:11:17.307,0.20455731,-0.1454816,-0.057375252,0.20056312,0.07544267,-0.2559628,-0.15362325,0.015646374,0.23446852,0.06563115,0.21445417,0.795947,0.15804167,0.07934401,-0.09033827,0.40034914,0.0039498615,-0.19917627,-0.3065817,0.3662855,818.7546,794.9817,797.8022,807.0696,836.4835,0.11907958984375,-0.13250732421875,1.00238037109375,4.2767333984375,-1.435546875,-9.91424560546875,1.0,1.0,1.0,1.0,1.0,30.0,
2023-09-10 00:11:17.367,0.20455731,-0.1454816,-0.057375252,0.20056312,0.07544267,-0.2559628,-0.15362325,0.015646374,0.23446852,0.06563115,0.21445417,0.795947,0.15804167,0.07934401,-0.09033827,0.40034914,0.0039498615,-0.19917627,-0.3065817,0.3662855,806.26373,792.1612,796.5934,820.7692,642.674,0.1962890625,-0.12799072265625,0.98175048828125,-0.46356201171875,-9.607696533203123,0.351409912109375,1.0,1.0,1.0,1.0,1.0,30.0,
2023-09-10 00:11:17.373,0.18239066,-0.13909368,-0.05367933,0.19596054,0.058060776,-0.24583961,-0.13235867,0.013308188,0.22926444,0.05387692,0.2124368,0.795947,0.14238037,0.068729505,-0.10978158,0.38090837,-0.016317215,-0.195391,-0.31021434,0.3757427,809.4872,795.38464,798.60803,807.0696,743.8095,0.1962890625,-0.12799072265625,0.98175048828125,-0.46356201171875,-9.607696533203123,0.351409912109375,1.0,1.0,1.0,1.0,1.0,30.0,
2023-09-10 00:11:17.408,0.18239066,-0.13909368,-0.05367933,0.19596054,0.058060776,-0.24583961,-0.13235867,0.013308188,0.22926444,0.05387692,0.2124368,0.795947,0.14238037,0.068729505,-0.10978158,0.38090837,-0.016317215,-0.195391,-0.31021434,0.3757427,796.5934,794.17584,797.8022,794.17584,732.52747,0.1585693359375,-0.14794921875,0.9761962890625,0.366363525390625,-4.66552734375,9.996490478515623,1.0,1.0,1.0,1.0,1.0,30.0,
2023-09-10 00:11:17.460,0.18239066,-0.13909368,-0.05367933,0.19596054,0.058060776,-0.24583961,-0.13235867,0.013308188,0.22926444,0.05387692,0.2124368,0.795947,0.14238037,0.068729505,-0.10978158,0.38090837,-0.016317215,-0.195391,-0.31021434,0.3757427,800.6227,801.4286,790.14655,797.3993,747.03296,0.1424560546875,-0.1475830078125,0.96405029296875,3.940277099609375,-1.31591796875,4.000091552734375,1.0,1.0,1.0,1.0,1.0,30.0,
2023-09-10 00:11:17.465,0.16076952,-0.129961,-0.062441893,0.1849744,0.030276628,-0.23974961,-0.1291585,0.0019610142,0.22800995,0.026830915,0.20955604,0.7749637,0.12854458,0.058911555,-0.121335715,0.36510912,-0.033856295,-0.20186746,-0.31620324,0.37967697,806.26373,805.05493,788.1319,793.36993,705.12823,0.1424560546875,-0.1475830078125,0.96405029296875,3.940277099609375,-1.31591796875,4.000091552734375,1.0,1.0,1.0,1.0,1.0,30.0,
2023-09-10 00:11:17.576,0.16076952,-0.129961,-0.062441893,0.1849744,0.030276628,-0.23974961,-0.1291585,0.0019610142,0.22800995,0.026830915,0.20955604,0.7749637,0.12854458,0.058911555,-0.121335715,0.36510912,-0.033856295,-0.20186746,-0.31620324,0.37967697,792.96704,804.2491,790.54944,799.81683,699.89014,0.14239501953125,-0.1201171875,0.985107421875,8.9422607421875,-0.605621337890625,0.6878662109375,1.0,1.0,1.0,1.0,1.0,30.0,
2023-09-10 00:11:17.640,0.16076952,-0.129961,-0.062441893,0.1849744,0.030276628,-0.23974961,-0.1291585,0.0019610142,0.22800995,0.026830915,0.20955604,0.7749637,0.12854458,0.058911555,-0.121335715,0.36510912,-0.033856295,-0.20186746,-0.31620324,0.37967697,803.8461,795.78754,796.5934,798.60803,836.08057,0.1431884765625,-0.11126708984375,0.9920654296875,4.972076416015625,0.37384033203125,2.086029052734375,1.0,1.0,1.0,1.0,1.0,30.0,
2023-09-10 00:11:17.642,0.14688718,-0.12462865,-0.07950364,0.17467746,0.0066204756,-0.23831382,-0.13815099,-0.011870597,0.2293941,0.008762454,0.21106164,0.7067257,0.11185304,0.052121893,-0.12829709,0.35876,-0.0489747,-0.21416032,-0.32071483,0.37961766,800.6227,792.96704,793.7729,784.5055,699.89014,0.1431884765625,-0.11126708984375,0.9920654296875,4.972076416015625,0.37384033203125,2.086029052734375,1.0,1.0,1.0,1.0,1.0,30.0,
2023-09-10 00:11:17.668,0.14688718,-0.12462865,-0.07950364,0.17467746,0.0066204756,-0.23831382,-0.13815099,-0.011870597,0.2293941,0.008762454,0.21106164,0.7067257,0.11185304,0.052121893,-0.12829709,0.35876,-0.0489747,-0.21416032,-0.32071483,0.37961766,802.23444,798.60803,800.2198,813.91943,808.68134,0.120849609375,-0.12652587890625,0.97857666015625,1.413116455078125,0.22430419921875,4.0972900390625,1.0,1.0,1.0,1.0,1.0,30.0,
2023-09-10 00:11:17.703,0.14688718,-0.12462865,-0.07950364,0.17467746,0.0066204756,-0.23831382,-0.13815099,-0.011870597,0.2293941,0.008762454,0.21106164,0.7067257,0.11185304,0.052121893,-0.12829709,0.35876,-0.0489747,-0.21416032,-0.32071483,0.37961766,799.011,807.0696,798.20514,785.31134,696.26373,0.09820556640625,-0.14166259765625,0.97625732421875,2.684173583984375,-0.874786376953125,0.6878662109375,1.0,1.0,1.0,1.0,1.0,30.0,
2023-09-10 00:11:17.705,0.14697671,-0.115586415,-0.09954341,0.1751799,-0.0033871066,-0.24018604,-0.14806381,-0.018028485,0.2621963,-0.02220403,0.21124475,0.6256106,0.09129493,0.04525687,-0.13818039,0.36091152,-0.065178044,-0.22740299,-0.32504317,0.37591186,793.36993,801.4286,792.96704,796.5934,946.08057,0.09820556640625,-0.14166259765625,0.97625732421875,2.684173583984375,-0.874786376953125,0.6878662109375,1.0,1.0,1.0,1.0,1.0,30.0,
2023-09-10 00:11:17.746,0.14697671,-0.115586415,-0.09954341,0.1751799,-0.0033871066,-0.24018604,-0.14806381,-0.018028485,0.2621963,-0.02220403,0.21124475,0.6256106,0.09129493,0.04525687,-0.13818039,0.36091152,-0.065178044,-0.22740299,-0.32504317,0.37591186,806.6667,802.6374,802.23444,805.8608,667.25275,0.11297607421875,-0.15252685546875,0.9775390625,3.282318115234375,-2.332763671875,-3.656158447265625,1.0,1.0,1.0,1.0,1.0,30.0,
2023-09-10 00:11:17.790,0.15495397,-0.07520888,-0.113572754,0.18929893,-0.0058660023,-0.23889153,-0.14643125,-0.009536601,0.3003534,-0.056879457,0.21124475,0.54924136,0.07222768,0.03623577,-0.15374887,0.36630264,-0.08481375,-0.2392639,-0.3337864,0.368813,795.78754,795.38464,795.38464,807.0696,927.1429,0.11297607421875,-0.15252685546875,0.9775390625,3.282318115234375,-2.332763671875,-3.656158447265625,1.0,1.0,1.0,1.0,1.0,30.0,
2023-09-10 00:11:17.835,0.15495397,-0.07520888,-0.113572754,0.18929893,-0.0058660023,-0.23889153,-0.14643125,-0.009536601,0.3003534,-0.056879457,0.21124475,0.54924136,0.07222768,0.03623577,-0.15374887,0.36630264,-0.08481375,-0.2392639,-0.3337864,0.368813,800.6227,801.02563,794.17584,787.326,651.9414,0.12786865234375,-0.145263671875,0.9791259765625,3.8580322265625,-3.6785888671875,-1.712188720703125,1.0,1.0,1.0,1.0,1.0,30.0,
2023-09-10 00:11:17.879,0.15495397,-0.07520888,-0.113572754,0.18929893,-0.0058660023,-0.23889153,-0.14643125,-0.009536601,0.3003534,-0.056879457,0.21124475,0.54924136,0.07222768,0.03623577,-0.15374887,0.36630264,-0.08481375,-0.2392639,-0.3337864,0.368813,804.65204,792.1612,787.72894,809.89014,852.1978,0.12396240234375,-0.15216064453125,0.98114013671875,3.910369873046875,-3.93280029296875,1.06170654296875,1.0,1.0,1.0,1.0,1.0,30.0,
2023-09-10 00:11:17.884,0.1635282,-0.009534493,-0.11936725,0.20591095,-0.009368515,-0.22012591,-0.12790902,0.016363366,0.3270885,-0.076125115,0.21124475,0.48754478,0.063754395,0.027117819,-0.169117,0.3734797,-0.107351296,-0.24867643,-0.34891906,0.35977387,803.44324,796.1905,789.34064,787.326,773.6264,0.12396240234375,-0.15216064453125,0.98114013671875,3.910369873046875,-3.93280029296875,1.06170654296875,1.0,1.0,1.0,1.0,1.0,30.0,
2023-09-10 00:11:17.947,0.1635282,-0.009534493,-0.11936725,0.20591095,-0.009368515,-0.22012591,-0.12790902,0.016363366,0.3270885,-0.076125115,0.21124475,0.48754478,0.063754395,0.027117819,-0.169117,0.3734797,-0.107351296,-0.24867643,-0.34891906,0.35977387,798.60803,795.78754,794.57874,799.81683,788.5348,0.11761474609375,-0.1531982421875,0.9705810546875,4.418792724609375,-3.1402587890625,-0.07476806640625,1.0,1.0,1.0,1.0,1.0,30.0,
2023-09-10 00:11:17.984,0.1635282,-0.009534493,-0.11936725,0.20591095,-0.009368515,-0.22012591,-0.12790902,0.016363366,0.3270885,-0.076125115,0.21124475,0.48754478,0.063754395,0.027117819,-0.169117,0.3734797,-0.107351296,-0.24867643,-0.34891906,0.35977387,792.1612,798.20514,796.1905,805.05493,920.293,0.1131591796875,-0.14520263671875,0.98095703125,5.674896240234375,-3.177642822265625,-3.6187744140625,1.0,1.0,1.0,1.0,1.0,30.0,
2023-09-10 00:11:17.991,0.16630651,0.051081885,-0.12038986,0.2208196,-0.013101313,-0.17620705,-0.10104184,0.050311822,0.33729866,-0.102775745,0.21124475,0.432036,0.06867826,0.02022191,-0.17657807,0.38396555,-0.12977618,-0.2544183,-0.36733788,0.35050604,791.75824,796.5934,796.5934,799.41394,747.03296,0.1131591796875,-0.14520263671875,0.98095703125,5.674896240234375,-3.177642822265625,-3.6187744140625,1.0,1.0,1.0,1.0,1.0,30.0,
2023-09-10 00:11:18.035,0.16630651,0.051081885,-0.12038986,0.2208196,-0.013101313,-0.17620705,-0.10104184,0.050311822,0.33729866,-0.102775745,0.21124475,0.432036,0.06867826,0.02022191,-0.17657807,0.38396555,-0.12977618,-0.2544183,-0.36733788,0.35050604,805.8608,786.52014,810.696,822.7839,792.96704,0.1407470703125,-0.1446533203125,0.98095703125,4.88983154296875,-3.8580322265625,-3.54400634765625,1.0,1.0,1.0,1.0,1.0,30.0,
2023-09-10 00:11:18.046,0.16177575,0.09018437,-0.113844864,0.23070192,-0.011603435,-0.11900766,-0.07782203,0.07904574,0.32583308,-0.12157632,0.21124475,0.4843582,0.08128241,0.015860891,-0.1713825,0.39783892,-0.14458248,-0.25283706,-0.38150692,0.34162748,797.8022,794.9817,802.6374,815.9341,783.69965,0.1407470703125,-0.1446533203125,0.98095703125,4.88983154296875,-3.8580322265625,-3.54400634765625,1.0,1.0,1.0,1.0,1.0,30.0,
2023-09-10 00:11:18.102,0.16177575,0.09018437,-0.113844864,0.23070192,-0.011603435,-0.11900766,-0.07782203,0.07904574,0.32583308,-0.12157632,0.21124475,0.4843582,0.08128241,0.015860891,-0.1713825,0.39783892,-0.14458248,-0.25283706,-0.38150692,0.34162748,790.9524,789.7436,802.6374,805.4579,671.28204,0.1297607421875,-0.156005859375,0.97784423828125,3.9178466796875,-3.596343994140625,-0.919647216796875,1.0,1.0,1.0,1.0,1.0,30.0,
2023-09-10 00:11:18.129,0.16177575,0.09018437,-0.113844864,0.23070192,-0.011603435,-0.11900766,-0.07782203,0.07904574,0.32583308,-0.12157632,0.21124475,0.4843582,0.08128241,0.015860891,-0.1713825,0.39783892,-0.14458248,-0.25283706,-0.38150692,0.34162748,805.8608,793.7729,793.36993,797.3993,735.7509,0.150634765625,-0.148193359375,0.98046875,5.15899658203125,-4.897308349609375,1.00189208984375,1.0,1.0,1.0,1.0,1.0,30.0,
2023-09-10 00:11:18.198,0.16177575,0.09018437,-0.113844864,0.23070192,-0.011603435,-0.11900766,-0.07782203,0.07904574,0.32583308,-0.12157632,0.21124475,0.4843582,0.08128241,0.015860891,-0.1713825,0.39783892,-0.14458248,-0.25283706,-0.38150692,0.34162748,801.4286,795.38464,793.7729,802.23444,686.99634,0.14453125,-0.1324462890625,0.9788818359375,6.50482177734375,-3.70849609375,0.007476806640625,1.0,1.0,1.0,1.0,1.0,30.0,
2023-09-10 00:11:18.199,0.14912497,0.11195563,-0.1023061,0.23807462,-0.00024658028,-0.07015509,-0.06374422,0.09540555,0.3155779,-0.077862166,0.21925493,0.58227664,0.09226821,0.013031993,-0.15326592,0.41104534,-0.1431715,-0.24162078,-0.38491398,0.33407468,799.81683,798.60803,801.4286,803.8461,720.0366,0.14453125,-0.1324462890625,0.9788818359375,6.50482177734375,-3.70849609375,0.007476806640625,1.0,1.0,1.0,1.0,1.0,30.0,
2023-09-10 00:11:18.233,0.14912497,0.11195563,-0.1023061,0.23807462,-0.00024658028,-0.07015509,-0.06374422,0.09540555,0.3155779,-0.077862166,0.21925493,0.58227664,0.09226821,0.013031993,-0.15326592,0.41104534,-0.1431715,-0.24162078,-0.38491398,0.33407468,795.38464,796.99634,791.3553,796.1905,788.5348,0.12493896484375,-0.1312255859375,0.97705078125,5.57769775390625,-1.697235107421875,-2.22808837890625,1.0,1.0,1.0,1.0,1.0,40.0,
2023-09-10 00:11:18.273,0.12811834,0.1237761,-0.08122612,0.24733843,0.026347874,-0.03933462,-0.05451584,0.109389104,0.30991673,-0.00793366,0.27611116,0.65646,0.097370796,0.010724001,-0.12590604,0.41885504,-0.1241988,-0.22470592,-0.37785473,0.33163372,791.75824,808.68134,787.72894,788.5348,695.4579,0.12493896484375,-0.1312255859375,0.97705078125,5.57769775390625,-1.697235107421875,-2.22808837890625,1.0,1.0,1.0,1.0,1.0,40.0,
2023-09-10 00:11:18.339,0.12811834,0.1237761,-0.08122612,0.24733843,0.026347874,-0.03933462,-0.05451584,0.109389104,0.30991673,-0.00793366,0.27611116,0.65646,0.097370796,0.010724001,-0.12590604,0.41885504,-0.1241988,-0.22470592,-0.37785473,0.33163372,796.5934,791.75824,790.14655,785.31134,803.8461,0.11456298828125,-0.1436767578125,0.983154296875,4.80010986328125,-2.609405517578125,-4.4561767578125,1.0,1.0,1.0,1.0,1.0,40.0,
2023-09-10 00:11:18.382,0.12811834,0.1237761,-0.08122612,0.24733843,0.026347874,-0.03933462,-0.05451584,0.109389104,0.30991673,-0.00793366,0.27611116,0.65646,0.097370796,0.010724001,-0.12590604,0.41885504,-0.1241988,-0.22470592,-0.37785473,0.33163372,799.011,794.9817,795.38464,802.23444,633.4066,0.15545654296875,-0.13690185546875,0.98834228515625,6.3104248046875,-4.239349365234375,-3.7982177734375,1.0,1.0,1.0,1.0,1.0,40.0,
2023-09-10 00:11:18.386,0.08937696,0.13490091,-0.05444387,0.26215303,0.068755746,-0.025550928,-0.044054803,0.13366374,0.30991673,0.0029976356,0.318011,0.7160895,0.0987514,0.0070334948,-0.09690026,0.42033845,-0.09857722,-0.21346065,-0.36666873,0.3376224,786.9231,790.14655,796.5934,781.28204,657.98535,0.15545654296875,-0.13690185546875,0.98834228515625,6.3104248046875,-4.239349365234375,-3.7982177734375,1.0,1.0,1.0,1.0,1.0,40.0,
2023-09-10 00:11:18.422,0.08937696,0.13490091,-0.05444387,0.26215303,0.068755746,-0.025550928,-0.044054803,0.13366374,0.30991673,0.0029976356,0.318011,0.7160895,0.0987514,0.0070334948,-0.09690026,0.42033845,-0.09857722,-0.21346065,-0.36666873,0.3376224,799.81683,797.8022,795.38464,806.6667,1195.4945,0.13104248046875,-0.13507080078125,0.96881103515625,7.185211181640625,-2.624359130859375,-1.472930908203125,1.0,1.0,1.0,1.0,1.0,40.0,
2023-09-10 00:11:18.505,0.08937696,0.13490091,-0.05444387,0.26215303,0.068755746,-0.025550928,-0.044054803,0.13366374,0.30991673,0.0029976356,0.318011,0.7160895,0.0987514,0.0070334948,-0.09690026,0.42033845,-0.09857722,-0.21346065,-0.36666873,0.3376224,797.3993,790.14655,800.6227,792.96704,751.8681,0.10809326171875,-0.1343994140625,0.982177734375,7.10296630859375,-2.729034423828125,-4.0374755859375,1.0,1.0,1.0,1.0,1.0,40.0,
2023-09-10 00:11:18.510,0.031354707,0.14650433,-0.036284566,0.27715775,0.117528565,-0.02238452,-0.03438878,0.16701438,0.30738577,0.010981016,0.28569493,0.7561701,0.10221106,2.8776894e-05,-0.07402799,0.42010707,-0.0797403,-0.22035286,-0.35733905,0.3489462,806.6667,789.7436,800.2198,811.50183,806.26373,0.10809326171875,-0.1343994140625,0.982177734375,7.10296630859375,-2.729034423828125,-4.0374755859375,1.0,1.0,1.0,1.0,1.0,40.0,
2023-09-10 00:11:18.585,0.031354707,0.14650433,-0.036284566,0.27715775,0.117528565,-0.02238452,-0.03438878,0.16701438,0.30738577,0.010981016,0.28569493,0.7561701,0.10221106,2.8776894e-05,-0.07402799,0.42010707,-0.0797403,-0.22035286,-0.35733905,0.3489462,790.14655,792.1612,794.17584,795.78754,737.3626,0.179931640625,-0.12420654296875,0.987548828125,3.267364501953125,-8.501129150390625,-2.100982666015625,1.0,1.0,1.0,1.0,1.0,40.0,
2023-09-10 00:11:18.592,-0.01927834,0.15529579,-0.035526983,0.29795206,0.1605779,-0.023652386,-0.033500195,0.19671036,0.30105206,0.014015436,0.22737576,0.7924584,0.11405534,-0.009053833,-0.060663205,0.42562613,-0.071877815,-0.24909896,-0.3517526,0.35832652,805.05493,796.1905,782.8938,809.89014,1015.78754,0.179931640625,-0.12420654296875,0.987548828125,3.267364501953125,-8.501129150390625,-2.100982666015625,1.0,1.0,1.0,1.0,1.0,40.0,
2023-09-10 00:11:18.638,-0.01927834,0.15529579,-0.035526983,0.29795206,0.1605779,-0.023652386,-0.033500195,0.19671036,0.30105206,0.014015436,0.22737576,0.7924584,0.11405534,-0.009053833,-0.060663205,0.42562613,-0.071877815,-0.24909896,-0.3517526,0.35832652,788.93774,784.10254,799.41394,805.05493,870.7326,0.18096923828125,-0.12847900390625,0.97576904296875,2.400054931640625,-7.633819580078125,5.839385986328125,1.0,1.0,1.0,1.0,1.0,40.0,
2023-09-10 00:11:18.701,-0.01927834,0.15529579,-0.035526983,0.29795206,0.1605779,-0.023652386,-0.033500195,0.19671036,0.30105206,0.014015436,0.22737576,0.7924584,0.11405534,-0.009053833,-0.060663205,0.42562613,-0.071877815,-0.24909896,-0.3517526,0.35832652,800.2198,801.4286,794.9817,791.3553,666.4469,0.1644287109375,-0.1416015625,0.9764404296875,4.179534912109375,-4.127197265625,1.921539306640625,1.0,1.0,1.0,1.0,1.0,40.0,
2023-09-10 00:11:18.709,-0.03148821,0.16008453,-0.05362361,0.32379398,0.19379173,-0.024048563,-0.044726912,0.2145528,0.30334717,0.018125642,0.2022847,0.8146918,0.13701376,-0.016316814,-0.05464998,0.44112027,-0.07123051,-0.28989837,-0.349815,0.36102545,801.8315,792.96704,786.9231,793.36993,870.7326,0.1644287109375,-0.1416015625,0.9764404296875,4.179534912109375,-4.127197265625,1.921539306640625,1.0,1.0,1.0,1.0,1.0,40.0,
2023-09-10 00:11:18.737,-0.03148821,0.16008453,-0.05362361,0.32379398,0.19379173,-0.024048563,-0.044726912,0.2145528,0.30334717,0.018125642,0.2022847,0.8146918,0.13701376,-0.016316814,-0.05464998,0.44112027,-0.07123051,-0.28989837,-0.349815,0.36102545,799.011,799.011,788.5348,799.81683,1024.652,0.17498779296875,-0.1240234375,0.98388671875,6.631927490234375,-1.614990234375,-0.052337646484375,1.0,1.0,1.0,1.0,1.0,40.0,
2023-09-10 00:11:18.752,-0.03148821,0.16008453,-0.05362361,0.32379398,0.19379173,-0.024048563,-0.044726912,0.2145528,0.30334717,0.018125642,0.2022847,0.8146918,0.13701376,-0.016316814,-0.05464998,0.44112027,-0.07123051,-0.28989837,-0.349815,0.36102545,805.4579,802.23444,792.5641,803.8461,728.49817,0.16156005859375,-0.12628173828125,0.9866943359375,2.97576904296875,-0.321502685546875,1.65985107421875,1.0,1.0,1.0,1.0,1.0,40.0,
2023-09-10 00:11:18.789,-0.0032140943,0.15861842,-0.082989894,0.34724274,0.22243555,-0.021537816,-0.061852533,0.226087,0.32418635,0.032885335,0.20709756,0.8431892,0.16521241,-0.02049009,-0.052379005,0.46306375,-0.07232669,-0.3256433,-0.3496554,0.3566416,794.9817,797.8022,794.17584,807.8755,678.5348,0.16156005859375,-0.12628173828125,0.9866943359375,2.97576904296875,-0.321502685546875,1.65985107421875,1.0,1.0,1.0,1.0,1.0,40.0,
2023-09-10 00:11:18.834,-0.0032140943,0.15861842,-0.082989894,0.34724274,0.22243555,-0.021537816,-0.061852533,0.226087,0.32418635,0.032885335,0.20709756,0.8431892,0.16521241,-0.02049009,-0.052379005,0.46306375,-0.07232669,-0.3256433,-0.3496554,0.3566416,815.5311,801.8315,793.36993,801.02563,739.7802,0.1451416015625,-0.138671875,0.97088623046875,1.338348388671875,-0.874786376953125,3.54400634765625,1.0,1.0,1.0,1.0,1.0,40.0,
2023-09-10 00:11:18.904,-0.0032140943,0.15861842,-0.082989894,0.34724274,0.22243555,-0.021537816,-0.061852533,0.226087,0.32418635,0.032885335,0.20709756,0.8431892,0.16521241,-0.02049009,-0.052379005,0.46306375,-0.07232669,-0.3256433,-0.3496554,0.3566416,794.9817,803.0403,790.14655,791.3553,674.90845,0.131103515625,-0.14569091796875,0.96405029296875,2.714080810546875,-0.800018310546875,0.994415283203125,1.0,1.0,1.0,1.0,1.0,40.0,
2023-09-10 00:11:18.907,0.042204354,0.15339604,-0.10996288,0.36377755,0.25219914,-0.015898062,-0.07569603,0.24140312,0.36889157,0.054536752,0.2205455,0.8528629,0.18914405,-0.024541933,-0.052263856,0.48369166,-0.073175535,-0.34638274,-0.3472943,0.34678167,808.2784,803.44324,789.34064,798.60803,782.49084,0.131103515625,-0.14569091796875,0.96405029296875,2.714080810546875,-0.800018310546875,0.994415283203125,1.0,1.0,1.0,1.0,1.0,40.0,
2023-09-10 00:11:18.955,0.042204354,0.15339604,-0.10996288,0.36377755,0.25219914,-0.015898062,-0.07569603,0.24140312,0.36889157,0.054536752,0.2205455,0.8528629,0.18914405,-0.024541933,-0.052263856,0.48369166,-0.073175535,-0.34638274,-0.3472943,0.34678167,819.15753,804.65204,795.78754,796.5934,660.40295,0.1328125,-0.14990234375,0.98016357421875,3.506622314453125,-0.575714111328125,-1.7645263671875,1.0,1.0,1.0,1.0,1.0,40.0,
2023-09-10 00:11:19.006,0.042204354,0.15339604,-0.10996288,0.36377755,0.25219914,-0.015898062,-0.07569603,0.24140312,0.36889157,0.054536752,0.2205455,0.8528629,0.18914405,-0.024541933,-0.052263856,0.48369166,-0.073175535,-0.34638274,-0.3472943,0.34678167,802.23444,795.78754,793.7729,794.57874,845.7509,0.14312744140625,-0.15008544921875,0.97412109375,3.33465576171875,-1.099090576171875,-1.682281494140625,1.0,1.0,1.0,1.0,1.0,40.0,
2023-09-10 00:11:19.011,0.078547075,0.1487185,-0.12320798,0.37133035,0.2791563,-0.009931237,-0.082652606,0.26264244,0.4449542,0.055750325,0.22049752,0.8562043,0.20420249,-0.032505486,-0.053971156,0.49624792,-0.07188869,-0.3558363,-0.34049824,0.33345872,808.2784,799.011,796.1905,809.4872,790.9524,0.14312744140625,-0.15008544921875,0.97412109375,3.33465576171875,-1.099090576171875,-1.682281494140625,1.0,1.0,1.0,1.0,1.0,40.0,
2023-09-10 00:11:19.122,0.078547075,0.1487185,-0.12320798,0.37133035,0.2791563,-0.009931237,-0.082652606,0.26264244,0.4449542,0.055750325,0.22049752,0.8562043,0.20420249,-0.032505486,-0.053971156,0.49624792,-0.07188869,-0.3558363,-0.34049824,0.33345872,798.60803,791.75824,788.1319,794.57874,889.67035,0.1351318359375,-0.1514892578125,0.9771728515625,3.51409912109375,-2.01873779296875,0.874786376953125,1.0,1.0,1.0,1.0,1.0,40.0,
2023-09-10 00:11:19.127,0.09851285,0.14519544,-0.12491478,0.3692169,0.2931076,-0.0051547294,-0.08655886,0.28493187,0.5656078,0.062437285,0.22049752,0.8575716,0.21564172,-0.043630216,-0.057260044,0.49980628,-0.06672004,-0.36119452,-0.33178616,0.31897658,810.696,803.0403,792.5641,809.89014,960.989,0.1351318359375,-0.1514892578125,0.9771728515625,3.51409912109375,-2.01873779296875,0.874786376953125,1.0,1.0,1.0,1.0,1.0,40.0,
2023-09-10 00:11:19.143,0.09851285,0.14519544,-0.12491478,0.3692169,0.2931076,-0.0051547294,-0.08655886,0.28493187,0.5656078,0.062437285,0.22049752,0.8575716,0.21564172,-0.043630216,-0.057260044,0.49980628,-0.06672004,-0.36119452,-0.33178616,0.31897658,803.8461,802.23444,793.7729,798.20514,767.5824,0.135009765625,-0.15362548828125,0.9793701171875,3.00567626953125,-2.938385009765625,1.15142822265625,1.0,1.0,1.0,1.0,1.0,40.0,
2023-09-10 00:11:19.175,0.09851285,0.14519544,-0.12491478,0.3692169,0.2931076,-0.0051547294,-0.08655886,0.28493187,0.5656078,0.062437285,0.22049752,0.8575716,0.21564172,-0.043630216,-0.057260044,0.49980628,-0.06672004,-0.36119452,-0.33178616,0.31897658,805.4579,799.81683,794.17584,817.5458,763.5531,0.140869140625,-0.15533447265625,0.973388671875,3.6785888671875,-3.386993408203125,0.76263427734375,1.0,1.0,1.0,1.0,1.0,40.0,
2023-09-10 00:11:19.180,0.10193992,0.13838306,-0.12221116,0.35685223,0.28936678,-0.0026903134,-0.09518856,0.30439192,0.6940284,0.08644912,0.21718001,0.86058927,0.23221698,-0.05330374,-0.061532862,0.5003724,-0.05735151,-0.36181024,-0.32507187,0.30762675,792.96704,797.8022,790.14655,796.5934,766.77655,0.140869140625,-0.15533447265625,0.973388671875,3.6785888671875,-3.386993408203125,0.76263427734375,1.0,1.0,1.0,1.0,1.0,40.0,
2023-09-10 00:11:19.215,0.10193992,0.13838306,-0.12221116,0.35685223,0.28936678,-0.0026903134,-0.09518856,0.30439192,0.6940284,0.08644912,0.21718001,0.86058927,0.23221698,-0.05330374,-0.061532862,0.5003724,-0.05735151,-0.36181024,-0.32507187,0.30762675,803.44324,800.6227,798.60803,789.34064,645.89746,0.13934326171875,-0.15814208984375,0.97247314453125,3.81317138671875,-3.058013916015625,0.082244873046875,1.0,1.0,1.0,1.0,1.0,40.0,
2023-09-10 00:11:19.256,0.10193992,0.13838306,-0.12221116,0.35685223,0.28936678,-0.0026903134,-0.09518856,0.30439192,0.6940284,0.08644912,0.21718001,0.86058927,0.23221698,-0.05330374,-0.061532862,0.5003724,-0.05735151,-0.36181024,-0.32507187,0.30762675,803.0403,800.2198,793.7729,796.99634,763.95605,0.13983154296875,-0.15338134765625,0.9725341796875,5.18890380859375,-2.691650390625,-0.7476806640625,1.0,1.0,1.0,1.0,1.0,40.0,
2023-09-10 00:11:19.271,0.09744231,0.11456514,-0.121244036,0.34707934,0.2739029,-0.0016374941,-0.114171304,0.31825796,0.8010667,0.09378199,0.21397229,0.86689657,0.25510857,-0.05736869,-0.06702103,0.50502235,-0.045882832,-0.35500565,-0.32135436,0.301957,797.3993,803.0403,799.41394,799.41394,763.5531,0.13983154296875,-0.15338134765625,0.9725341796875,5.18890380859375,-2.691650390625,-0.7476806640625,1.0,1.0,1.0,1.0,1.0,40.0,
2023-09-10 00:11:19.356,0.09744231,0.11456514,-0.121244036,0.34707934,0.2739029,-0.0016374941,-0.114171304,0.31825796,0.8010667,0.09378199,0.21397229,0.86689657,0.25510857,-0.05736869,-0.06702103,0.50502235,-0.045882832,-0.35500565,-0.32135436,0.301957,794.9817,796.5934,792.1612,794.57874,803.8461,0.1461181640625,-0.15179443359375,0.976318359375,4.882354736328125,-4.11224365234375,0.01495361328125,1.0,1.0,1.0,1.0,1.0,40.0,
2023-09-10 00:11:19.424,0.09744231,0.11456514,-0.121244036,0.34707934,0.2739029,-0.0016374941,-0.114171304,0.31825796,0.8010667,0.09378199,0.21397229,0.86689657,0.25510857,-0.05736869,-0.06702103,0.50502235,-0.045882832,-0.35500565,-0.32135436,0.301957,793.7729,792.1612,791.75824,791.3553,851.79486,0.138916015625,-0.15789794921875,0.9755859375,4.77020263671875,-3.93280029296875,0.25421142578125,1.0,1.0,1.0,1.0,1.0,40.0,
2023-09-10 00:11:19.425,0.09716636,0.07085358,-0.12430716,0.35645503,0.25793248,-0.0014835604,-0.14376535,0.32471198,0.8504249,0.09378199,0.21397229,0.86689657,0.2790633,-0.049824707,-0.0735611,0.51420444,-0.034274183,-0.34333953,-0.3184348,0.30255482,796.5934,794.17584,790.14655,790.9524,798.60803,0.138916015625,-0.15789794921875,0.9755859375,4.77020263671875,-3.93280029296875,0.25421142578125,1.0,1.0,1.0,1.0,1.0,40.0,
2023-09-10 00:11:19.459,0.09716636,0.07085358,-0.12430716,0.35645503,0.25793248,-0.0014835604,-0.14376535,0.32471198,0.8504249,0.09378199,0.21397229,0.86689657,0.2790633,-0.049824707,-0.0735611,0.51420444,-0.034274183,-0.34333953,-0.3184348,0.30255482,796.99634,797.8022,792.96704,797.3993,956.9597,0.1475830078125,-0.14837646484375,0.97467041015625,5.5328369140625,-3.170166015625,-1.07666015625,1.0,1.0,1.0,1.0,1.0,40.0,
2023-09-10 00:11:19.539,0.09716636,0.07085358,-0.12430716,0.35645503,0.25793248,-0.0014835604,-0.14376535,0.32471198,0.8504249,0.09378199,0.21397229,0.86689657,0.2790633,-0.049824707,-0.0735611,0.51420444,-0.034274183,-0.34333953,-0.3184348,0.30255482,803.8461,794.17584,790.14655,811.50183,1018.60803,0.13446044921875,-0.15057373046875,0.9769287109375,5.7122802734375,-1.5252685546875,-1.652374267578125,1.0,1.0,1.0,1.0,1.0,40.0,
2023-09-10 00:11:19.543,0.10867152,0.016306132,-0.12871547,0.38912737,0.24849327,-0.0014014981,-0.17619193,0.32579908,0.8530641,0.105538845,0.21397229,0.8675045,0.30019194,-0.025263475,-0.07811484,0.5224293,-0.024144975,-0.33366442,-0.3151869,0.30993488,798.60803,792.5641,787.326,806.6667,755.09155,0.13446044921875,-0.15057373046875,0.9769287109375,5.7122802734375,-1.5252685546875,-1.652374267578125,1.0,1.0,1.0,1.0,1.0,40.0,
2023-09-10 00:11:19.552,0.10867152,0.016306132,-0.12871547,0.38912737,0.24849327,-0.0014014981,-0.17619193,0.32579908,0.8530641,0.105538845,0.21397229,0.8675045,0.30019194,-0.025263475,-0.07811484,0.5224293,-0.024144975,-0.33366442,-0.3151869,0.30993488,801.02563,791.75824,788.5348,801.8315,844.1392,0.15557861328125,-0.1490478515625,0.983642578125,3.925323486328125,-2.64678955078125,-1.92901611328125,1.0,1.0,1.0,1.0,1.0,40.0,
2023-09-10 00:11:19.606,0.13206317,-0.035433322,-0.13062309,0.428814,0.24614279,-0.0025114543,-0.19963759,0.32530752,0.84752685,0.11254105,0.21397229,0.87033963,0.31849152,0.011705793,-0.07868665,0.5250655,-0.01843186,-0.33207402,-0.3140467,0.321348,787.326,788.93774,791.3553,787.326,782.49084,0.15557861328125,-0.1490478515625,0.983642578125,3.925323486328125,-2.64678955078125,-1.92901611328125,1.0,1.0,1.0,1.0,1.0,40.0,
2023-09-10 00:11:19.652,0.13206317,-0.035433322,-0.13062309,0.428814,0.24614279,-0.0025114543,-0.19963759,0.32530752,0.84752685,0.11254105,0.21397229,0.87033963,0.31849152,0.011705793,-0.07868665,0.5250655,-0.01843186,-0.33207402,-0.3140467,0.321348,801.02563,798.60803,790.54944,780.87915,632.6007,0.15020751953125,-0.14837646484375,0.98504638671875,3.63372802734375,-3.3197021484375,1.2860107421875,1.0,1.0,1.0,1.0,1.0,40.0,
2023-09-10 00:11:19.713,0.13206317,-0.035433322,-0.13062309,0.428814,0.24614279,-0.0025114543,-0.19963759,0.32530752,0.84752685,0.11254105,0.21397229,0.87033963,0.31849152,0.011705793,-0.07868665,0.5250655,-0.01843186,-0.33207402,-0.3140467,0.321348,798.20514,794.17584,790.14655,796.99634,679.7436,0.14056396484375,-0.15087890625,0.97186279296875,4.433746337890625,-1.6448974609375,-2.213134765625,1.0,1.0,1.0,1.0,1.0,40.0,
2023-09-10 00:11:19.718,0.16624644,-0.07837309,-0.13050267,0.46091917,0.24940977,-0.007014927,-0.20814653,0.32454303,0.8465244,0.11254105,0.21397229,0.87033963,0.33614016,0.047114976,-0.07815525,0.52325624,-0.018709304,-0.33810407,-0.31781772,0.3311469,796.5934,801.4286,800.2198,804.2491,732.1245,0.14056396484375,-0.15087890625,0.97186279296875,4.433746337890625,-1.6448974609375,-2.213134765625,1.0,1.0,1.0,1.0,1.0,40.0,
2023-09-10 00:11:19.770,0.16624644,-0.07837309,-0.13050267,0.46091917,0.24940977,-0.007014927,-0.20814653,0.32454303,0.8465244,0.11254105,0.21397229,0.87033963,0.33614016,0.047114976,-0.07815525,0.52325624,-0.018709304,-0.33810407,-0.31781772,0.3311469,790.14655,799.011,794.9817,794.9817,828.4249,0.09490966796875,-0.15008544921875,0.97662353515625,6.4599609375,0.897216796875,-6.0113525390625,1.0,1.0,1.0,1.0,1.0,40.0,
2023-09-10 00:11:19.827,0.16624644,-0.07837309,-0.13050267,0.46091917,0.24940977,-0.007014927,-0.20814653,0.32454303,0.8465244,0.11254105,0.21397229,0.87033963,0.33614016,0.047114976,-0.07815525,0.52325624,-0.018709304,-0.33810407,-0.31781772,0.3311469,810.696,793.36993,794.57874,801.8315,685.38464,0.1336669921875,-0.15203857421875,0.98748779296875,3.835601806640625,-4.56085205078125,-7.79083251953125,1.0,1.0,1.0,1.0,1.0,40.0,
2023-09-10 00:11:19.835,0.20398602,-0.10995983,-0.13682246,0.48039302,0.25241798,-0.018236816,-0.2104898,0.3201413,0.8465244,0.10889191,0.20690839,0.8633817,0.35326213,0.06894447,-0.08357744,0.52269065,-0.02344089,-0.3459153,-0.3272511,0.33277008,792.5641,792.1612,795.78754,793.7729,821.1722,0.1336669921875,-0.15203857421875,0.98748779296875,3.835601806640625,-4.56085205078125,-7.79083251953125,1.0,1.0,1.0,1.0,1.0,40.0,
2023-09-10 00:11:19.913,0.20398602,-0.10995983,-0.13682246,0.48039302,0.25241798,-0.018236816,-0.2104898,0.3201413,0.8465244,0.10889191,0.20690839,0.8633817,0.35326213,0.06894447,-0.08357744,0.52269065,-0.02344089,-0.3459153,-0.3272511,0.33277008,796.99634,798.60803,796.99634,803.8461,853.4066,0.18927001953125,-0.16168212890625,0.97265625,0.10467529296875,-10.15350341796875,-0.261688232421875,1.0,1.0,1.0,1.0,1.0,40.0,
2023-09-10 00:11:19.926,0.23411343,-0.14110993,-0.15420961,0.48542416,0.24730793,-0.033141788,-0.22581504,0.3102415,0.84605557,0.09212628,0.1896147,0.85162705,0.367787,0.07492859,-0.099670164,0.52710676,-0.029179994,-0.35081238,-0.34232634,0.32385203,789.7436,799.41394,792.5641,781.28204,754.2857,0.18927001953125,-0.16168212890625,0.97265625,0.10467529296875,-10.15350341796875,-0.261688232421875,1.0,1.0,1.0,1.0,1.0,40.0,
2023-09-10 00:11:19.957,0.23411343,-0.14110993,-0.15420961,0.48542416,0.24730793,-0.033141788,-0.22581504,0.3102415,0.84605557,0.09212628,0.1896147,0.85162705,0.367787,0.07492859,-0.099670164,0.52710676,-0.029179994,-0.35081238,-0.34232634,0.32385203,796.5934,795.78754,788.1319,776.8498,661.2088,0.169189453125,-0.177978515625,0.97161865234375,2.392578125,-6.706695556640625,5.644989013671875,1.0,1.0,1.0,1.0,1.0,40.0,
2023-09-10 00:11:19.970,0.23411343,-0.14110993,-0.15420961,0.48542416,0.24730793,-0.033141788,-0.22581504,0.3102415,0.84605557,0.09212628,0.1896147,0.85162705,0.367787,0.07492859,-0.099670164,0.52710676,-0.029179994,-0.35081238,-0.34232634,0.32385203,792.1612,799.81683,788.5348,795.38464,759.12085,0.17169189453125,-0.16436767578125,0.96990966796875,5.69732666015625,-4.3963623046875,1.9140625,1.0,1.0,1.0,1.0,1.0,40.0,
2023-09-10 00:11:20.017,0.23411343,-0.14110993,-0.15420961,0.48542416,0.24730793,-0.033141788,-0.22581504,0.3102415,0.84605557,0.09212628,0.1896147,0.85162705,0.367787,0.07492859,-0.099670164,0.52710676,-0.029179994,-0.35081238,-0.34232634,0.32385203,794.57874,791.3553,789.7436,802.6374,873.95605,0.17974853515625,-0.150390625,0.9849853515625,6.38519287109375,-1.323394775390625,0.515899658203125,1.0,1.0,1.0,1.0,1.0,40.0,
2023-09-10 00:11:20.018,0.25644222,-0.17456207,-0.18126549,0.47906047,0.22880605,-0.044063825,-0.26807165,0.29885063,0.84716684,0.085911795,0.1235013,0.828424,0.37672082,0.06988426,-0.1246195,0.53431547,-0.034721527,-0.35506362,-0.36470386,0.30764037,796.1905,787.72894,796.1905,823.5897,827.2161,0.17974853515625,-0.150390625,0.9849853515625,6.38519287109375,-1.323394775390625,0.515899658203125,1.0,1.0,1.0,1.0,1.0,40.0,
2023-09-10 00:11:20.062,0.25644222,-0.17456207,-0.18126549,0.47906047,0.22880605,-0.044063825,-0.26807165,0.29885063,0.84716684,0.085911795,0.1235013,0.828424,0.37672082,0.06988426,-0.1246195,0.53431547,-0.034721527,-0.35506362,-0.36470386,0.30764037,785.31134,799.81683,794.57874,774.83514,583.44324,0.16619873046875,-0.1505126953125,0.97296142578125,3.90289306640625,-0.575714111328125,2.73651123046875,1.0,1.0,1.0,1.0,1.0,40.0,
2023-09-10 00:11:20.120,0.26844737,-0.20144372,-0.2115476,0.46205592,0.20111889,-0.045289513,-0.33371726,0.29367873,0.84716684,0.06068167,0.020807039,0.7982261,0.3784882,0.05864792,-0.15186985,0.540477,-0.041172594,-0.36400697,-0.39561647,0.28908432,799.81683,794.9817,795.78754,778.86444,548.7912,0.16619873046875,-0.1505126953125,0.97296142578125,3.90289306640625,-0.575714111328125,2.73651123046875,1.0,1.0,1.0,1.0,1.0,40.0,
2023-09-10 00:11:20.179,0.26844737,-0.20144372,-0.2115476,0.46205592,0.20111889,-0.045289513,-0.33371726,0.29367873,0.84716684,0.06068167,0.020807039,0.7982261,0.3784882,0.05864792,-0.15186985,0.540477,-0.041172594,-0.36400697,-0.39561647,0.28908432,788.1319,791.3553,795.78754,807.47253,778.46155,0.1435546875,-0.15771484375,0.9686279296875,4.38140869140625,-1.203765869140625,3.162689208984375,1.0,1.0,1.0,1.0,1.0,40.0,
2023-09-10 00:11:20.218,0.26844737,-0.20144372,-0.2115476,0.46205592,0.20111889,-0.045289513,-0.33371726,0.29367873,0.84716684,0.06068167,0.020807039,0.7982261,0.3784882,0.05864792,-0.15186985,0.540477,-0.041172594,-0.36400697,-0.39561647,0.28908432,787.326,799.41394,792.96704,780.4762,746.63007,0.13397216796875,-0.16168212890625,0.9688720703125,5.330963134765625,-1.77947998046875,1.039276123046875,1.0,1.0,1.0,1.0,1.0,40.0,
2023-09-10 00:11:20.223,0.27423137,-0.21779005,-0.24036199,0.4432617,0.1711583,-0.03991856,-0.4011964,0.29752278,0.84716684,0.03942624,-0.03411323,0.75242627,0.373653,0.043611623,-0.17495352,0.54626024,-0.04976454,-0.37952685,-0.43261516,0.27127013,792.5641,794.9817,794.57874,777.6557,653.95605,0.13397216796875,-0.16168212890625,0.9688720703125,5.330963134765625,-1.77947998046875,1.039276123046875,1.0,1.0,1.0,1.0,1.0,40.0,
2023-09-10 00:11:20.275,0.27423137,-0.21779005,-0.24036199,0.4432617,0.1711583,-0.03991856,-0.4011964,0.29752278,0.84716684,0.03942624,-0.03411323,0.75242627,0.373653,0.043611623,-0.17495352,0.54626024,-0.04976454,-0.37952685,-0.43261516,0.27127013,803.44324,792.96704,791.75824,801.4286,915.4579,0.1463623046875,-0.1610107421875,0.97894287109375,5.779571533203125,-2.52716064453125,-0.485992431640625,1.0,1.0,1.0,1.0,1.0,40.0,
2023-09-10 00:11:20.318,0.27423137,-0.21779005,-0.24036199,0.4432617,0.1711583,-0.03991856,-0.4011964,0.29752278,0.84716684,0.03942624,-0.03411323,0.75242627,0.373653,0.043611623,-0.17495352,0.54626024,-0.04976454,-0.37952685,-0.43261516,0.27127013,801.02563,799.81683,796.5934,794.57874,707.1429,0.14532470703125,-0.157958984375,0.97125244140625,5.151519775390625,-2.04864501953125,0.904693603515625,1.0,1.0,1.0,1.0,1.0,40.0,
2023-09-10 00:11:20.325,0.27330473,-0.22640346,-0.2601292,0.43166947,0.14179794,-0.033663005,-0.44448575,0.30691144,0.847787,0.03723695,0.0063705584,0.7157656,0.36687574,0.029486366,-0.19069032,0.5593154,-0.060786776,-0.39766344,-0.47043297,0.25631964,822.7839,805.8608,790.9524,804.65204,1072.6007,0.14532470703125,-0.157958984375,0.97125244140625,5.151519775390625,-2.04864501953125,0.904693603515625,1.0,1.0,1.0,1.0,1.0,40.0,
2023-09-10 00:11:20.394,0.27330473,-0.22640346,-0.2601292,0.43166947,0.14179794,-0.033663005,-0.44448575,0.30691144,0.847787,0.03723695,0.0063705584,0.7157656,0.36687574,0.029486366,-0.19069032,0.5593154,-0.060786776,-0.39766344,-0.47043297,0.25631964,805.4579,792.96704,795.78754,800.6227,789.34064,0.13702392578125,-0.1568603515625,0.9747314453125,3.84307861328125,-1.71966552734375,0.605621337890625,1.0,1.0,1.0,1.0,1.0,40.0,
2023-09-10 00:11:20.400,0.27507398,-0.23396198,-0.2685495,0.43327385,0.114120595,-0.028847657,-0.45074245,0.3160477,0.8507526,0.037973236,0.04618272,0.7018177,0.3638318,0.022591367,-0.19909793,0.5849248,-0.07292597,-0.413086,-0.50742203,0.24536985,805.05493,791.3553,797.3993,803.44324,842.52747,0.13702392578125,-0.1568603515625,0.9747314453125,3.84307861328125,-1.71966552734375,0.605621337890625,1.0,1.0,1.0,1.0,1.0,40.0,
2023-09-10 00:11:20.439,0.27507398,-0.23396198,-0.2685495,0.43327385,0.114120595,-0.028847657,-0.45074245,0.3160477,0.8507526,0.037973236,0.04618272,0.7018177,0.3638318,0.022591367,-0.19909793,0.5849248,-0.07292597,-0.413086,-0.50742203,0.24536985,800.2198,794.57874,790.14655,794.57874,621.7216,0.1416015625,-0.1578369140625,0.973876953125,4.20196533203125,-2.75146484375,-0.94207763671875,1.0,1.0,1.0,1.0,1.0,40.0,
2023-09-10 00:11:20.476,0.27507398,-0.23396198,-0.2685495,0.43327385,0.114120595,-0.028847657,-0.45074245,0.3160477,0.8507526,0.037973236,0.04618272,0.7018177,0.3638318,0.022591367,-0.19909793,0.5849248,-0.07292597,-0.413086,-0.50742203,0.24536985,809.0842,792.5641,788.5348,791.3553,827.619,0.1483154296875,-0.16156005859375,0.97174072265625,4.71038818359375,-2.893524169921875,-1.8243408203125,1.0,1.0,1.0,1.0,1.0,40.0,
2023-09-10 00:11:20.482,0.28934896,-0.24936564,-0.27159533,0.441284,0.09998235,-0.024367476,-0.42268625,0.32100144,0.8507985,0.035503957,0.06597806,0.70404005,0.3673498,0.02583356,-0.2016957,0.6181624,-0.0856929,-0.4217503,-0.54277146,0.23817754,804.65204,791.75824,788.5348,802.23444,802.23444,0.1483154296875,-0.16156005859375,0.97174072265625,4.71038818359375,-2.893524169921875,-1.8243408203125,1.0,1.0,1.0,1.0,1.0,40.0,
2023-09-10 00:11:20.533,0.28934896,-0.24936564,-0.27159533,0.441284,0.09998235,-0.024367476,-0.42268625,0.32100144,0.8507985,0.035503957,0.06597806,0.70404005,0.3673498,0.02583356,-0.2016957,0.6181624,-0.0856929,-0.4217503,-0.54277146,0.23817754,799.011,787.72894,789.7436,804.2491,884.83514,0.151611328125,-0.16131591796875,0.9730224609375,5.06927490234375,-3.887939453125,-0.231781005859375,1.0,1.0,1.0,1.0,1.0,40.0,
2023-09-10 00:11:20.569,0.28934896,-0.24936564,-0.27159533,0.441284,0.09998235,-0.024367476,-0.42268625,0.32100144,0.8507985,0.035503957,0.06597806,0.70404005,0.3673498,0.02583356,-0.2016957,0.6181624,-0.0856929,-0.4217503,-0.54277146,0.23817754,803.8461,803.8461,794.9817,795.78754,841.31866,0.1507568359375,-0.156982421875,0.97412109375,4.882354736328125,-4.2767333984375,0.777587890625,1.0,1.0,1.0,1.0,1.0,40.0,
2023-09-10 00:11:20.641,0.3195561,-0.2758714,-0.27094457,0.44586378,0.11057817,-0.018015452,-0.37206042,0.31941754,0.8529003,0.059085954,0.08757906,0.70404005,0.3741952,0.034569275,-0.19729304,0.64786035,-0.09679951,-0.4219326,-0.56719595,0.23398145,796.5934,792.96704,800.2198,800.6227,749.85345,0.1507568359375,-0.156982421875,0.97412109375,4.882354736328125,-4.2767333984375,0.777587890625,1.0,1.0,1.0,1.0,1.0,40.0,
2023-09-10 00:11:20.674,0.3195561,-0.2758714,-0.27094457,0.44586378,0.11057817,-0.018015452,-0.37206042,0.31941754,0.8529003,0.059085954,0.08757906,0.70404005,0.3741952,0.034569275,-0.19729304,0.64786035,-0.09679951,-0.4219326,-0.56719595,0.23398145,803.44324,791.3553,791.3553,811.0989,837.28937,0.15032958984375,-0.156005859375,0.9764404296875,5.316009521484375,-3.94775390625,0.022430419921875,1.0,1.0,1.0,1.0,1.0,40.0,
2023-09-10 00:11:20.711,0.3195561,-0.2758714,-0.27094457,0.44586378,0.11057817,-0.018015452,-0.37206042,0.31941754,0.8529003,0.059085954,0.08757906,0.70404005,0.3741952,0.034569275,-0.19729304,0.64786035,-0.09679951,-0.4219326,-0.56719595,0.23398145,801.02563,798.60803,792.1612,799.81683,620.5128,0.1583251953125,-0.1568603515625,0.97100830078125,5.480499267578125,-3.043060302734375,-0.22430419921875,1.0,1.0,1.0,1.0,1.0,40.0,
2023-09-10 00:11:20.713,0.35317162,-0.30009097,-0.26636928,0.44167483,0.13878345,-0.008572924,-0.31999105,0.30795547,0.8529003,0.06897915,0.08757906,0.70404005,0.37749007,0.040851414,-0.18454131,0.6650941,-0.104488455,-0.41848895,-0.568559,0.23252329,799.81683,794.17584,795.78754,797.8022,775.64105,0.1583251953125,-0.1568603515625,0.97100830078125,5.480499267578125,-3.043060302734375,-0.22430419921875,1.0,1.0,1.0,1.0,1.0,40.0,
2023-09-10 00:11:20.815,0.35317162,-0.30009097,-0.26636928,0.44167483,0.13878345,-0.008572924,-0.31999105,0.30795547,0.8529003,0.06897915,0.08757906,0.70404005,0.37749007,0.040851414,-0.18454131,0.6650941,-0.104488455,-0.41848895,-0.568559,0.23252329,805.8608,801.02563,792.1612,808.68134,761.13556,0.154052734375,-0.1568603515625,0.97357177734375,5.0244140625,-1.92901611328125,-0.485992431640625,1.0,1.0,1.0,1.0,1.0,40.0,
2023-09-10 00:11:20.838,0.35317162,-0.30009097,-0.26636928,0.44167483,0.13878345,-0.008572924,-0.31999105,0.30795547,0.8529003,0.06897915,0.08757906,0.70404005,0.37749007,0.040851414,-0.18454131,0.6650941,-0.104488455,-0.41848895,-0.568559,0.23252329,799.41394,797.8022,795.78754,796.5934,700.696,0.15545654296875,-0.1434326171875,0.98284912109375,5.944061279296875,-2.265472412109375,-0.2093505859375,1.0,1.0,1.0,1.0,1.0,40.0,
2023-09-10 00:11:20.846,0.3777449,-0.3196228,-0.25583577,0.42216092,0.16588372,0.002610338,-0.28207308,0.28758797,0.8529003,0.08119812,0.09051805,0.7029616,0.37285435,0.039475743,-0.16637157,0.668348,-0.10896203,-0.41908908,-0.54847634,0.23443197,804.2491,791.75824,793.7729,811.50183,906.99634,0.15545654296875,-0.1434326171875,0.98284912109375,5.944061279296875,-2.265472412109375,-0.2093505859375,1.0,1.0,1.0,1.0,1.0,40.0,
2023-09-10 00:11:20.952,0.3777449,-0.3196228,-0.25583577,0.42216092,0.16588372,0.002610338,-0.28207308,0.28758797,0.8529003,0.08119812,0.09051805,0.7029616,0.37285435,0.039475743,-0.16637157,0.668348,-0.10896203,-0.41908908,-0.54847634,0.23443197,802.23444,799.011,792.5641,816.337,739.3773,0.1243896484375,-0.1590576171875,0.9576416015625,5.62255859375,-1.054229736328125,-4.702911376953125,1.0,1.0,1.0,1.0,1.0,40.0,
2023-09-10 00:11:20.956,0.38511658,-0.3253872,-0.24046247,0.38293505,0.18127157,0.013966566,-0.26183942,0.2627603,0.83479017,0.075546585,0.0909361,0.66971356,0.35979316,0.027025677,-0.15052849,0.66231215,-0.1143395,-0.42777804,-0.5244076,0.23543352,800.6227,799.011,797.3993,805.8608,827.2161,0.1243896484375,-0.1590576171875,0.9576416015625,5.62255859375,-1.054229736328125,-4.702911376953125,1.0,1.0,1.0,1.0,1.0,40.0,
2023-09-10 00:11:20.961,0.38511658,-0.3253872,-0.24046247,0.38293505,0.18127157,0.013966566,-0.26183942,0.2627603,0.83479017,0.075546585,0.0909361,0.66971356,0.35979316,0.027025677,-0.15052849,0.66231215,-0.1143395,-0.42777804,-0.5244076,0.23543352,794.17584,790.9524,792.1612,806.6667,907.8022,0.12249755859375,-0.16046142578125,0.98388671875,6.878662109375,0.037384033203125,-9.67498779296875,1.0,1.0,1.0,1.0,1.0,40.0,
2023-09-10 00:11:21.011,0.38511658,-0.3253872,-0.24046247,0.38293505,0.18127157,0.013966566,-0.26183942,0.2627603,0.83479017,0.075546585,0.0909361,0.66971356,0.35979316,0.027025677,-0.15052849,0.66231215,-0.1143395,-0.42777804,-0.5244076,0.23543352,797.8022,802.6374,794.9817,807.0696,656.3736,0.179443359375,-0.14996337890625,0.9886474609375,4.373931884765625,-7.992706298828125,-2.04864501953125,1.0,1.0,1.0,1.0,1.0,40.0,
2023-09-10 00:11:21.019,0.3806195,-0.31679994,-0.22810107,0.32537478,0.1863761,0.02319511,-0.2565219,0.23957881,0.747216,0.075546585,0.0909361,0.59308994,0.3411921,0.0009385272,-0.14505939,0.6538752,-0.12401274,-0.44298902,-0.5111597,0.22696589,777.25275,789.34064,796.1905,792.1612,649.92676,0.179443359375,-0.14996337890625,0.9886474609375,4.373931884765625,-7.992706298828125,-2.04864501953125,1.0,1.0,1.0,1.0,1.0,40.0,
2023-09-10 00:11:21.074,0.3806195,-0.31679994,-0.22810107,0.32537478,0.1863761,0.02319511,-0.2565219,0.23957881,0.747216,0.075546585,0.0909361,0.59308994,0.3411921,0.0009385272,-0.14505939,0.6538752,-0.12401274,-0.44298902,-0.5111597,0.22696589,796.99634,791.3553,799.81683,805.8608,757.1062,0.19110107421875,-0.15264892578125,0.96502685546875,2.67669677734375,-9.5404052734375,7.230072021484375,1.0,1.0,1.0,1.0,1.0,40.0,
2023-09-10 00:11:21.112,0.3806195,-0.31679994,-0.22810107,0.32537478,0.1863761,0.02319511,-0.2565219,0.23957881,0.747216,0.075546585,0.0909361,0.59308994,0.3411921,0.0009385272,-0.14505939,0.6538752,-0.12401274,-0.44298902,-0.5111597,0.22696589,786.52014,789.7436,800.6227,796.5934,694.2491,0.17010498046875,-0.15313720703125,0.96893310546875,5.81695556640625,-5.323486328125,4.314117431640625,1.0,1.0,1.0,1.0,1.0,40.0,
